set title 'mp-1176403 - Density of States'
set xlabel 'Energy (eV)'
set ylabel 'DOS (states/eV)'
set grid
set xrange [-10:10]
set yrange [0:4.708]
set xzeroaxis lt -1
set terminal png size 800,600
set output 'mp-1176403_dos_gnuplot.png'
plot '-' using 1:2 with lines title 'DOS'
-27.547300 0.000000
-27.510400 0.000000
-27.473500 0.000000
-27.436700 0.000000
-27.399800 0.000000
-27.362900 0.000000
-27.326100 0.000000
-27.289200 0.000000
-27.252300 0.000000
-27.215400 0.000000
-27.178600 0.000000
-27.141700 0.000000
-27.104800 0.000000
-27.068000 0.000000
-27.031100 0.000000
-26.994200 0.000000
-26.957300 0.000000
-26.920500 0.000000
-26.883600 0.000000
-26.846700 0.000000
-26.809900 0.000000
-26.773000 0.000000
-26.736100 0.000000
-26.699300 0.000000
-26.662400 0.000000
-26.625500 0.000000
-26.588600 0.000000
-26.551800 0.000000
-26.514900 0.000000
-26.478000 0.000000
-26.441200 0.000000
-26.404300 0.000000
-26.367400 0.000000
-26.330500 0.000000
-26.293700 0.000000
-26.256800 0.000000
-26.219900 0.000000
-26.183100 0.000000
-26.146200 0.000000
-26.109300 0.000000
-26.072500 0.000000
-26.035600 0.000000
-25.998700 0.000000
-25.961800 0.000000
-25.925000 0.000000
-25.888100 0.000000
-25.851200 0.000000
-25.814400 0.000000
-25.777500 0.000000
-25.740600 0.000000
-25.703700 0.000000
-25.666900 0.000000
-25.630000 0.000000
-25.593100 0.000000
-25.556300 0.000000
-25.519400 0.000000
-25.482500 0.000000
-25.445700 0.000000
-25.408800 0.000000
-25.371900 0.000000
-25.335000 0.000000
-25.298200 0.000000
-25.261300 0.000000
-25.224400 0.000000
-25.187600 0.000000
-25.150700 0.000000
-25.113800 0.000000
-25.076900 0.000000
-25.040100 0.000000
-25.003200 0.000000
-24.966300 0.000000
-24.929500 0.000000
-24.892600 0.000000
-24.855700 0.000000
-24.818900 0.000000
-24.782000 0.000000
-24.745100 0.000000
-24.708200 0.000000
-24.671400 0.000000
-24.634500 0.000000
-24.597600 0.000000
-24.560800 0.000000
-24.523900 0.000000
-24.487000 0.000000
-24.450100 0.000000
-24.413300 0.000000
-24.376400 0.000000
-24.339500 0.000000
-24.302700 0.000000
-24.265800 0.000000
-24.228900 0.000000
-24.192100 1.259400
-24.155200 2.470600
-24.118300 3.139900
-24.081400 3.807800
-24.044600 3.093700
-24.007700 2.695000
-23.970800 1.999400
-23.934000 1.999400
-23.897100 1.842600
-23.860200 1.690300
-23.823300 1.554800
-23.786500 1.334500
-23.749600 1.334600
-23.712700 1.334600
-23.675900 1.334600
-23.639000 1.310400
-23.602100 1.207000
-23.565300 1.139600
-23.528400 1.051000
-23.491500 1.002700
-23.454600 1.002800
-23.417800 1.002800
-23.380900 1.002800
-23.344000 1.002800
-23.307200 1.002800
-23.270300 0.978300
-23.233400 0.920000
-23.196600 0.879000
-23.159700 0.804200
-23.122800 0.804300
-23.085900 0.804300
-23.049100 0.804300
-23.012200 0.804300
-22.975300 0.804300
-22.938500 0.804300
-22.901600 0.804300
-22.864700 0.804300
-22.827800 0.801200
-22.791000 0.757400
-22.754100 0.729000
-22.717200 0.693800
-22.680400 0.672400
-22.643500 0.672400
-22.606600 0.672400
-22.569800 0.672400
-22.532900 0.672400
-22.496000 0.672400
-22.459100 0.672400
-22.422300 0.672400
-22.385400 0.672400
-22.348500 0.672400
-22.311700 0.672400
-22.274800 0.661000
-22.237900 0.632400
-22.201000 0.611800
-22.164200 0.578800
-22.127300 0.578800
-22.090400 0.578800
-22.053600 0.578800
-22.016700 0.578800
-21.979800 0.578800
-21.943000 0.578800
-21.906100 0.578800
-21.869200 0.578800
-21.832300 0.578800
-21.795500 0.578800
-21.758600 0.578800
-21.721700 0.578800
-21.684900 0.578800
-21.648000 0.573300
-21.611100 0.549900
-21.574200 0.534000
-21.537400 0.509200
-21.500500 0.509200
-21.463600 0.509200
-21.426800 0.509200
-21.389900 0.509200
-21.353000 0.509200
-21.316200 0.509200
-21.279300 0.509200
-21.242400 0.509200
-21.205500 0.509200
-21.168700 0.509200
-21.131800 0.509200
-21.094900 0.509200
-21.058100 0.509200
-21.021200 0.509200
-20.984300 0.509200
-20.947400 0.509200
-20.910600 0.492200
-20.873700 0.479200
-20.836800 0.462600
-20.800000 0.455700
-20.763100 0.455700
-20.726200 0.455700
-20.689400 0.455700
-20.652500 0.455700
-20.615600 0.455700
-20.578700 0.455700
-20.541900 0.455700
-20.505000 0.455700
-20.468100 0.455700
-20.431300 0.455700
-20.394400 0.455700
-20.357500 0.455700
-20.320600 0.455700
-20.283800 0.455700
-20.246900 0.455700
-20.210000 0.455700
-20.173200 0.455700
-20.136300 0.454200
-20.099400 0.438700
-20.062600 0.428200
-20.025700 0.413700
-19.988800 0.413700
-19.951900 0.413700
-19.915100 0.413700
-19.878200 0.413700
-19.841300 0.413700
-19.804500 0.413700
-19.767600 0.413700
-19.730700 0.413700
-19.693800 0.413700
-19.657000 0.413700
-19.620100 0.413700
-19.583200 0.413700
-19.546400 0.413700
-19.509500 0.413700
-19.472600 0.413700
-19.435800 0.413700
-19.398900 0.413700
-19.362000 0.413700
-19.325100 0.413700
-19.288300 0.413700
-19.251400 1.810100
-19.214500 1.516000
-19.177700 1.699300
-19.140800 0.000000
-19.103900 0.000000
-19.067000 0.000000
-19.030200 0.000000
-18.993300 0.000000
-18.956400 0.000000
-18.919600 0.000000
-18.882700 0.000000
-18.845800 0.000000
-18.809000 0.000000
-18.772100 0.000000
-18.735200 0.000000
-18.698300 0.000000
-18.661500 0.000000
-18.624600 0.000000
-18.587700 0.000000
-18.550900 0.000000
-18.514000 0.000000
-18.477100 0.000000
-18.440200 0.000000
-18.403400 0.000000
-18.366500 0.000000
-18.329600 0.000000
-18.292800 1.533400
-18.255900 1.523500
-18.219000 1.942900
-18.182200 0.353500
-18.145300 0.353500
-18.108400 0.353500
-18.071500 0.353500
-18.034700 0.353500
-17.997800 0.353500
-17.960900 0.353500
-17.924100 0.353500
-17.887200 0.353500
-17.850300 0.353500
-17.813400 0.353500
-17.776600 0.353500
-17.739700 0.353500
-17.702800 0.353500
-17.666000 0.353500
-17.629100 0.353500
-17.592200 0.353500
-17.555400 0.353500
-17.518500 0.353500
-17.481600 0.353500
-17.444700 0.353500
-17.407900 0.353500
-17.371000 0.353500
-17.334100 0.353500
-17.297300 0.353500
-17.260400 0.351800
-17.223500 0.343300
-17.186600 0.336100
-17.149800 0.332500
-17.112900 0.332500
-17.076000 0.332500
-17.039200 0.332500
-17.002300 0.332500
-16.965400 0.332500
-16.928600 0.332500
-16.891700 0.332500
-16.854800 0.332500
-16.817900 0.332500
-16.781100 0.332500
-16.744200 0.332500
-16.707300 0.332500
-16.670500 0.332500
-16.633600 0.332500
-16.596700 0.332500
-16.559800 0.332500
-16.523000 0.332500
-16.486100 0.332500
-16.449200 0.332500
-16.412400 0.332500
-16.375500 0.332500
-16.338600 0.332500
-16.301800 0.332500
-16.264900 0.332500
-16.228000 0.332500
-16.191100 0.332500
-16.154300 0.328500
-16.117400 0.323100
-16.080500 0.316500
-16.043700 0.316500
-16.006800 0.316500
-15.969900 0.316500
-15.933000 0.316500
-15.896200 0.316500
-15.859300 0.316500
-15.822400 0.316500
-15.785600 0.316500
-15.748700 0.316500
-15.711800 0.316500
-15.675000 0.316500
-15.638100 0.316500
-15.601200 0.316500
-15.564300 0.316500
-15.527500 0.316500
-15.490600 0.316500
-15.453700 0.316500
-15.416900 0.316500
-15.380000 0.316500
-15.343100 0.316500
-15.306300 0.316500
-15.269400 0.316500
-15.232500 0.316500
-15.195600 0.316500
-15.158800 0.316500
-15.121900 0.316500
-15.085000 0.316500
-15.048200 0.316500
-15.011300 0.315400
-14.974400 0.310700
-14.937500 0.305700
-14.900700 0.305700
-14.863800 0.305700
-14.826900 0.305700
-14.790100 0.305700
-14.753200 0.305700
-14.716300 0.305700
-14.679500 0.305700
-14.642600 0.305700
-14.605700 0.305700
-14.568800 0.305700
-14.532000 0.305700
-14.495100 0.305700
-14.458200 0.305700
-14.421400 0.305700
-14.384500 0.305700
-14.347600 0.305700
-14.310700 0.305700
-14.273900 0.305700
-14.237000 0.305700
-14.200100 0.305700
-14.163300 0.305700
-14.126400 0.305700
-14.089500 0.305700
-14.052700 0.305700
-14.015800 0.305700
-13.978900 0.305700
-13.942000 0.305700
-13.905200 0.305700
-13.868300 0.305700
-13.831400 0.305700
-13.794600 0.303500
-13.757700 0.301000
-13.720800 0.300800
-13.683900 0.300800
-13.647100 0.300800
-13.610200 0.300800
-13.573300 0.300800
-13.536500 0.300800
-13.499600 0.300800
-13.462700 0.300800
-13.425900 0.300800
-13.389000 0.300800
-13.352100 0.300800
-13.315200 0.300800
-13.278400 0.300800
-13.241500 0.300800
-13.204600 0.300800
-13.167800 0.300800
-13.130900 0.300800
-13.094000 0.300800
-13.057100 0.300800
-13.020300 0.300800
-12.983400 0.300800
-12.946500 0.300800
-12.909700 0.300800
-12.872800 0.300800
-12.835900 0.300800
-12.799100 0.300800
-12.762200 0.300800
-12.725300 0.300800
-12.688400 0.300800
-12.651600 0.300800
-12.614700 0.300800
-12.577800 0.302500
-12.541000 0.304100
-12.504100 0.304100
-12.467200 0.304100
-12.430300 0.304100
-12.393500 0.304100
-12.356600 0.304100
-12.319700 0.304100
-12.282900 0.304100
-12.246000 0.304100
-12.209100 0.304100
-12.172300 0.304100
-12.135400 0.304100
-12.098500 0.304100
-12.061600 0.304100
-12.024800 0.304100
-11.987900 0.304100
-11.951000 0.304100
-11.914200 0.304100
-11.877300 0.304100
-11.840400 0.304100
-11.803500 0.304100
-11.766700 0.304100
-11.729800 0.304100
-11.692900 0.304100
-11.656100 0.304100
-11.619200 0.304100
-11.582300 0.304100
-11.545500 0.304100
-11.508600 0.304100
-11.471700 0.304100
-11.434800 0.304100
-11.398000 0.309300
-11.361100 0.319100
-11.324200 0.320700
-11.287400 0.320700
-11.250500 0.320700
-11.213600 0.320700
-11.176700 0.320700
-11.139900 0.320700
-11.103000 0.320700
-11.066100 0.320700
-11.029300 0.320700
-10.992400 0.320700
-10.955500 0.320700
-10.918700 0.320700
-10.881800 0.320700
-10.844900 0.320700
-10.808000 0.320700
-10.771200 0.320700
-10.734300 0.320700
-10.697400 0.320700
-10.660600 0.320700
-10.623700 0.320700
-10.586800 0.320700
-10.549900 0.320700
-10.513100 0.320700
-10.476200 0.320700
-10.439300 0.320700
-10.402500 0.320700
-10.365600 0.320700
-10.328700 0.320700
-10.291900 0.320700
-10.255000 0.338700
-10.218100 0.366400
-10.181200 0.366400
-10.144400 0.366400
-10.107500 0.366400
-10.070600 0.366400
-10.033800 0.366400
-9.996900 0.366400
-9.960000 0.366400
-9.923100 0.366400
-9.886300 0.366400
-9.849400 0.366400
-9.812500 0.366400
-9.775700 0.366400
-9.738800 0.366400
-9.701900 0.366400
-9.665100 0.366400
-9.628200 0.366400
-9.591300 0.366400
-9.554400 0.366400
-9.517600 0.366400
-9.480700 0.366400
-9.443800 0.366400
-9.407000 0.366400
-9.370100 0.366400
-9.333200 0.366400
-9.296300 0.366400
-9.259500 1.567700
-9.222600 1.959600
-9.185700 1.407800
-9.148900 1.309800
-9.112000 1.063300
-9.075100 0.879500
-9.038300 0.770500
-9.001400 0.748200
-8.964500 0.725900
-8.927600 0.914900
-8.890800 0.998100
-8.853900 1.039900
-8.817000 1.087400
-8.780200 1.124700
-8.743300 1.172100
-8.706400 1.179200
-8.669500 1.208700
-8.632700 1.238100
-8.595800 1.267600
-8.558900 1.333500
-8.522100 1.797400
-8.485200 1.619400
-8.448300 1.694800
-8.411500 1.671900
-8.374600 1.748500
-8.337700 1.720600
-8.300800 1.698800
-8.264000 1.677200
-8.227100 1.675800
-8.190200 1.689800
-8.153400 1.875900
-8.116500 1.946100
-8.079600 2.028200
-8.042800 4.280300
-8.005900 1.794800
-7.969000 1.808400
-7.932100 2.044000
-7.895300 2.140000
-7.858400 2.473100
-7.821500 2.882200
-7.784700 3.171800
-7.747800 4.127300
-7.710900 3.414600
-7.674000 3.232800
-7.637200 2.908300
-7.600300 2.703200
-7.563400 2.702400
-7.526600 2.680500
-7.489700 3.012200
-7.452800 2.622000
-7.416000 2.371300
-7.379100 2.212500
-7.342200 2.168400
-7.305300 2.112600
-7.268500 2.042100
-7.231600 1.972700
-7.194700 1.933500
-7.157900 1.883000
-7.121000 1.819600
-7.084100 1.745500
-7.047200 1.717400
-7.010400 1.681200
-6.973500 1.667000
-6.936600 1.650500
-6.899800 1.630400
-6.862900 1.615400
-6.826000 1.597100
-6.789200 1.568900
-6.752300 1.538200
-6.715400 1.475400
-6.678500 1.435000
-6.641700 1.420900
-6.604800 1.416500
-6.567900 1.412100
-6.531100 1.407500
-6.494200 1.399800
-6.457300 1.390200
-6.420400 1.379800
-6.383600 1.365000
-6.346700 1.344200
-6.309800 1.329000
-6.273000 1.314300
-6.236100 1.295800
-6.199200 1.276800
-6.162400 1.253500
-6.125500 1.235300
-6.088600 1.231600
-6.051700 1.228000
-6.014900 1.225300
-5.978000 1.222600
-5.941100 1.223700
-5.904300 1.211000
-5.867400 1.201300
-5.830500 1.193900
-5.793600 1.185600
-5.756800 1.180100
-5.719900 1.173200
-5.683000 1.165200
-5.646200 1.156200
-5.609300 1.143500
-5.572400 1.128500
-5.535600 1.110500
-5.498700 1.106400
-5.461800 1.102500
-5.424900 1.095900
-5.388100 1.093500
-5.351200 1.091200
-5.314300 1.089500
-5.277500 1.087800
-5.240600 1.086100
-5.203700 1.083600
-5.166800 1.079400
-5.130000 1.075400
-5.093100 1.070500
-5.056200 1.065900
-5.019400 1.061100
-4.982500 1.055000
-4.945600 1.048000
-4.908800 1.037700
-4.871900 1.028200
-4.835000 1.016200
-4.798100 1.014100
-4.761300 1.013700
-4.724400 1.013300
-4.687500 1.012900
-4.650700 1.288800
-4.613800 1.255200
-4.576900 1.077200
-4.540000 1.058300
-4.503200 1.039400
-4.466300 1.011900
-4.429400 0.962500
-4.392600 0.946400
-4.355700 0.929100
-4.318800 0.912500
-4.282000 0.893100
-4.245100 0.871300
-4.208200 0.853700
-4.171300 0.835500
-4.134500 0.816400
-4.097600 0.795200
-4.060700 0.793500
-4.023900 0.770300
-3.987000 0.751300
-3.950100 0.732300
-3.913200 0.778500
-3.876400 1.280200
-3.839500 1.295700
-3.802600 0.805600
-3.765800 0.839100
-3.728900 0.872600
-3.692000 0.861600
-3.655200 0.900000
-3.618300 0.938400
-3.581400 0.984600
-3.544500 1.062300
-3.507700 1.171500
-3.470800 1.432900
-3.433900 1.722700
-3.397100 1.715300
-3.360200 1.550500
-3.323300 1.745600
-3.286400 1.718800
-3.249600 0.609000
-3.212700 0.165600
-3.175800 0.000000
-3.139000 0.000000
-3.102100 0.000000
-3.065200 0.139500
-3.028400 0.242100
-2.991500 0.321500
-2.954600 0.400900
-2.917700 0.479900
-2.880900 0.576600
-2.844000 0.691800
-2.807100 0.902100
-2.770300 1.227300
-2.733400 1.379400
-2.696500 1.379300
-2.659600 1.379200
-2.622800 1.379100
-2.585900 1.379000
-2.549000 1.600300
-2.512200 1.548000
-2.475300 1.581400
-2.438400 1.388500
-2.401600 1.546600
-2.364700 1.619300
-2.327800 2.163100
-2.290900 1.857900
-2.254100 0.710600
-2.217200 0.716100
-2.180300 0.714800
-2.143500 0.713600
-2.106600 0.712300
-2.069700 0.724300
-2.032800 0.930900
-1.996000 1.019100
-1.959100 1.122300
-1.922200 1.245800
-1.885400 1.291300
-1.848500 1.549700
-1.811600 1.816700
-1.774800 1.917400
-1.737900 1.905600
-1.701000 1.950900
-1.664100 2.007800
-1.627300 2.066200
-1.590400 1.639500
-1.553500 1.907800
-1.516700 1.912000
-1.479800 1.868000
-1.442900 2.096800
-1.406000 2.211300
-1.369200 2.973400
-1.332300 1.501600
-1.295400 1.485400
-1.258600 1.469200
-1.221700 1.442500
-1.184800 1.421800
-1.148000 1.398600
-1.111100 1.382000
-1.074200 1.363300
-1.037300 1.344500
-1.000500 1.326300
-0.963600 1.305500
-0.926700 1.287700
-0.889900 1.264000
-0.853000 1.246000
-0.816100 1.232300
-0.779200 1.219200
-0.742400 1.209100
-0.705500 1.199000
-0.668600 1.188900
-0.631800 1.177900
-0.594900 1.164100
-0.558000 1.149100
-0.521200 1.136500
-0.484300 1.124300
-0.447400 1.120900
-0.410500 1.118700
-0.373700 1.116500
-0.336800 1.110900
-0.299900 1.103400
-0.263100 1.095200
-0.226200 1.087300
-0.189300 1.084200
-0.152500 1.072800
-0.115600 1.062100
-0.078700 1.054100
-0.041800 1.046100
-0.005000 1.038100
0.031900 1.029700
0.068800 1.019400
0.105600 1.007400
0.142500 0.998600
0.179400 0.992300
0.216300 0.994000
0.253100 0.996000
0.290000 1.008800
0.326900 1.008300
0.363700 0.999200
0.400600 0.987200
0.437500 0.977800
0.474300 0.974900
0.511200 0.975900
0.548100 0.976200
0.585000 0.973400
0.621800 0.968600
0.658700 0.961000
0.695600 0.971600
0.732400 0.956000
0.769300 0.947400
0.806200 0.944700
0.843100 0.947300
0.879900 0.955300
0.916800 0.950500
0.953700 0.980000
0.990500 0.983200
1.027400 0.940700
1.064300 0.898100
1.101100 0.855600
1.138000 0.920200
1.174900 0.881700
1.211800 0.678700
1.248600 0.404500
1.285500 0.404500
1.322400 0.404500
1.359200 0.418500
1.396100 0.435000
1.433000 0.443700
1.469900 0.448900
1.506700 0.453200
1.543600 0.456100
1.580500 0.456600
1.617300 0.456600
1.654200 0.456600
1.691100 0.456600
1.727900 0.456500
1.764800 0.456500
1.801700 0.456500
1.838600 0.456500
1.875400 0.456400
1.912300 0.456400
1.949200 0.456400
1.986000 0.456400
2.022900 0.456300
2.059800 0.456300
2.096700 0.482500
2.133500 0.498600
2.170400 0.509900
2.207300 0.519400
2.244100 0.528300
2.281000 0.538300
2.317900 0.545600
2.354700 0.550200
2.391600 0.554700
2.428500 0.557500
2.465400 0.557300
2.502200 0.557200
2.539100 0.557000
2.576000 0.556900
2.612800 0.556700
2.649700 0.590400
2.686600 0.619800
2.723500 0.637900
2.760300 0.653200
2.797200 0.665800
2.834100 0.676600
2.870900 0.686500
2.907800 0.695700
2.944700 0.704100
2.981500 0.712400
3.018400 0.751900
3.055300 0.833300
3.092200 0.885200
3.129000 0.916100
3.165900 0.944400
3.202800 0.968700
3.239600 1.061800
3.276500 1.227400
3.313400 1.343400
3.350300 1.704800
3.387100 2.705500
3.424000 2.107700
3.460900 1.955100
3.497700 1.663400
3.534600 1.427800
3.571500 1.363400
3.608300 1.329900
3.645200 1.289600
3.682100 1.230500
3.719000 1.149400
3.755800 1.088800
3.792700 1.063700
3.829600 1.042800
3.866400 1.018000
3.903300 0.980900
3.940200 0.953200
3.977100 0.928800
4.013900 0.898600
4.050800 0.871900
4.087700 0.854800
4.124500 0.840000
4.161400 0.826600
4.198300 0.810700
4.235100 0.799300
4.272000 0.786600
4.308900 0.771400
4.345800 0.755400
4.382600 0.734400
4.419500 0.714200
4.456400 0.704900
4.493200 0.684800
4.530100 0.670800
4.567000 0.667500
4.603900 0.671700
4.640700 0.665300
4.677600 0.629800
4.714500 0.585100
4.751300 0.445000
4.788200 0.369000
4.825100 0.258400
4.861900 0.249900
4.898800 0.184400
4.935700 0.138400
4.972600 0.000000
5.009400 0.000000
5.046300 0.000000
5.083200 0.000000
5.120000 0.000000
5.156900 0.000000
5.193800 0.000000
5.230700 0.000000
5.267500 0.000000
5.304400 0.000000
5.341300 0.000000
5.378100 0.000000
5.415000 0.000000
5.451900 0.000000
5.488700 0.000000
5.525600 0.000000
5.562500 0.000000
5.599400 0.000000
5.636200 0.000000
5.673100 0.000000
5.710000 0.000000
5.746800 0.000000
5.783700 0.000000
5.820600 0.000000
5.857500 0.000000
5.894300 0.000000
5.931200 0.000000
5.968100 0.061800
6.004900 0.107100
6.041800 0.161300
6.078700 0.207600
6.115500 0.210500
6.152400 0.231400
6.189300 0.252100
6.226200 0.277800
6.263000 0.298800
6.299900 0.338200
6.336800 0.352400
6.373600 0.363800
6.410500 0.364500
6.447400 0.375100
6.484300 0.378500
6.521100 0.384200
6.558000 0.387000
6.594900 0.440600
6.631700 0.457100
6.668600 0.479300
6.705500 0.489900
6.742300 0.510200
6.779200 0.532400
6.816100 0.546500
6.853000 0.568000
6.889800 0.589600
6.926700 0.608700
6.963600 0.631700
7.000400 0.654400
7.037300 0.693000
7.074200 0.710800
7.111100 0.728100
7.147900 0.734500
7.184800 0.753600
7.221700 0.769400
7.258500 0.784100
7.295400 0.797000
7.332300 0.811400
7.369100 0.825000
7.406000 0.854600
7.442900 0.879800
7.479800 0.969400
7.516600 3.275900
7.553500 2.086400
7.590400 1.726800
7.627200 1.564100
7.664100 1.542100
7.701000 1.521000
7.737800 1.499800
7.774700 1.502600
7.811600 1.504700
7.848500 1.508900
7.885300 1.514800
7.922200 1.522600
7.959100 1.528700
7.995900 1.531400
8.032800 1.551900
8.069700 1.401800
8.106600 1.338500
8.143400 1.345100
8.180300 1.331300
8.217200 1.311400
8.254000 1.293500
8.290900 1.282100
8.327800 1.268200
8.364600 1.261200
8.401500 1.255300
8.438400 1.250900
8.475300 1.248100
8.512100 1.248500
8.549000 1.250200
8.585900 1.252700
8.622700 1.254900
8.659600 1.257900
8.696500 1.260700
8.733400 1.266700
8.770200 1.296600
8.807100 1.294700
8.844000 1.319100
8.880800 1.356800
8.917700 1.387000
8.954600 1.414300
8.991400 1.457000
9.028300 1.414000
9.065200 1.399900
9.102100 1.419900
9.138900 1.423600
9.175800 1.476200
9.212700 1.351700
9.249500 1.240900
9.286400 1.185100
9.323300 1.178400
9.360200 1.181900
9.397000 1.152800
9.433900 1.130700
9.470800 1.105900
9.507600 1.089900
9.544500 1.076300
9.581400 1.060600
9.618200 1.036800
9.655100 1.066900
9.692000 1.114200
9.728900 1.158600
9.765700 1.205600
9.802600 1.258700
9.839500 1.288200
9.876300 1.321400
9.913200 1.361300
9.950100 1.407800
9.987000 1.420500
10.023800 1.473000
10.060700 1.622300
10.097600 1.491000
10.134400 1.611000
10.171300 1.593900
10.208200 1.611800
10.245000 2.261500
10.281900 2.240600
10.318800 2.129500
10.355700 2.082900
10.392500 2.052500
10.429400 2.019200
10.466300 2.075500
10.503100 2.087500
10.540000 2.029600
10.576900 1.986100
10.613800 1.965600
10.650600 1.921400
10.687500 1.863000
10.724400 2.219800
10.761200 1.729300
10.798100 1.721300
10.835000 1.764000
10.871800 1.804800
10.908700 1.861900
10.945600 1.925900
10.982500 1.948000
11.019300 2.007700
11.056200 2.080800
11.093100 2.117000
11.129900 2.183600
11.166800 2.238600
11.203700 2.311400
11.240600 2.314100
11.277400 2.352000
11.314300 2.379000
11.351200 2.394900
11.388000 2.417000
11.424900 2.436600
11.461800 2.422600
11.498600 2.401900
11.535500 2.371700
11.572400 2.390700
11.609300 2.400600
11.646100 2.280400
11.683000 2.156200
11.719900 2.053200
11.756700 2.035800
11.793600 2.009600
11.830500 2.073000
11.867400 2.118100
11.904200 2.190200
11.941100 2.343100
11.978000 2.799800
12.014800 3.371200
12.051700 4.301900
12.088600 3.402400
12.125400 3.298200
12.162300 3.398300
12.199200 3.554700
12.236100 3.943200
12.272900 3.929900
12.309800 3.280700
12.346700 2.957700
12.383500 2.532400
12.420400 2.516000
12.457300 2.475500
12.494200 2.448300
12.531000 2.358300
12.567900 2.555000
12.604800 1.708700
12.641600 1.695600
12.678500 1.689100
12.715400 1.680800
12.752200 1.680100
12.789100 1.683600
12.826000 1.691500
12.862900 1.695900
12.899700 1.696200
12.936600 1.706400
12.973500 1.733200
13.010300 1.765300
13.047200 1.783000
13.084100 1.768500
13.121000 1.768700
13.157800 1.769800
13.194700 1.772500
13.231600 1.781000
13.268400 2.181200
13.305300 2.048300
13.342200 1.997000
13.379000 1.926700
13.415900 1.855000
13.452800 1.818200
13.489700 1.811800
13.526500 1.818900
13.563400 1.792300
13.600300 1.819900
13.637100 1.836100
13.674000 1.834600
13.710900 1.846000
13.747800 1.877300
13.784600 1.900300
13.821500 1.958100
13.858400 1.962100
13.895200 1.923900
13.932100 1.962700
13.969000 1.905800
14.005800 1.895600
14.042700 1.904400
14.079600 2.024000
14.116500 2.152100
14.153300 2.159200
14.190200 2.174900
14.227100 1.993800
14.263900 1.814100
14.300800 1.863600
14.337700 1.927800
14.374600 2.440800
14.411400 1.694600
14.448300 1.516900
14.485200 1.372000
14.522000 1.202700
14.558900 1.100800
14.595800 1.060100
14.632600 1.051200
14.669500 1.085800
14.706400 1.087700
14.743300 1.093100
14.780100 1.090100
14.817000 1.168700
14.853900 1.153600
14.890700 1.225200
14.927600 1.389200
14.964500 1.504900
15.001400 1.539900
15.038200 1.607400
15.075100 1.687700
15.112000 1.770300
15.148800 1.802300
15.185700 1.815600
15.222600 1.834700
15.259400 1.850900
15.296300 1.897500
15.333200 1.980000
15.370100 2.003800
15.406900 2.159100
15.443800 2.126200
15.480700 2.147500
15.517500 2.157200
15.554400 2.202600
15.591300 2.141700
15.628100 2.149700
15.665000 2.156800
15.701900 2.173100
15.738800 2.224500
15.775600 2.320000
15.812500 2.305600
15.849400 2.529700
15.886200 3.053300
15.923100 2.303700
15.960000 2.129700
15.996900 2.215400
16.033700 2.023000
16.070600 1.970200
16.107500 2.034100
16.144300 1.901200
16.181200 1.590900
16.218100 1.509600
16.254900 1.441700
16.291800 1.396100
16.328700 1.357700
16.365600 1.389000
16.402400 1.375700
16.439300 1.345200
16.476200 1.327200
16.513000 1.311000
16.549900 1.297900
16.586800 1.275000
16.623700 1.266400
16.660500 1.380700
16.697400 1.401500
16.734300 1.381700
16.771100 1.398000
16.808000 1.504400
16.844900 1.493600
16.881700 1.559800
16.918600 1.645300
16.955500 1.758100
16.992400 2.043700
17.029200 2.040600
17.066100 2.147000
17.103000 2.295400
17.139800 2.428800
17.176700 2.179500
17.213600 2.140000
17.250500 2.120000
17.287300 2.107500
17.324200 2.060500
17.361100 2.040700
17.397900 2.049500
17.434800 2.222700
17.471700 2.252600
17.508500 2.453800
17.545400 2.363900
17.582300 2.365300
17.619200 2.377900
17.656000 2.325500
17.692900 2.271200
17.729800 2.183900
17.766600 2.194800
17.803500 2.216300
17.840400 2.350800
17.877300 2.452500
17.914100 2.509600
17.951000 2.480300
17.987900 2.442700
18.024700 2.402500
18.061600 2.393500
18.098500 2.408300
18.135300 2.500900
18.172200 2.650100
18.209100 2.660900
18.246000 2.715500
18.282800 2.740800
18.319700 2.758800
18.356600 2.751700
18.393400 2.647400
18.430300 2.542400
18.467200 2.483200
18.504100 2.433600
18.540900 2.382300
18.577800 2.304100
18.614700 2.194900
18.651500 2.190400
18.688400 2.143000
18.725300 2.139600
18.762100 2.784700
18.799000 2.410200
18.835900 2.433800
18.872800 2.423900
18.909600 2.435200
18.946500 2.426500
18.983400 2.432800
19.020200 2.743400
19.057100 2.729200
19.094000 2.720400
19.130900 2.587700
19.167700 2.593200
19.204600 2.670400
19.241500 2.583800
19.278300 2.588400
19.315200 2.534200
19.352100 2.396900
19.388900 2.228400
19.425800 2.206900
19.462700 2.261100
19.499600 2.229100
19.536400 2.071600
19.573300 2.058400
19.610200 1.985000
19.647000 1.954800
19.683900 1.934100
19.720800 1.854300
19.757700 1.831100
19.794500 1.858900
19.831400 1.974400
19.868300 2.012500
19.905100 1.979600
19.942000 1.944400
19.978900 1.822600
20.015700 1.750800
20.052600 1.662900
20.089500 1.653200
20.126400 1.618000
20.163200 1.485800
20.200100 1.459900
20.237000 1.442000
20.273800 1.447200
20.310700 1.383400
20.347600 1.386300
20.384500 1.396300
20.421300 1.435500
20.458200 1.529900
20.495100 1.517100
20.531900 1.547700
20.568800 1.543100
20.605700 1.536300
20.642500 1.541100
20.679400 1.518800
20.716300 1.524200
20.753200 1.521500
20.790000 1.537600
20.826900 1.589800
20.863800 1.592900
20.900600 1.598200
20.937500 1.554900
20.974400 1.517000
21.011300 1.474700
21.048100 1.435500
21.085000 1.407000
21.121900 1.366300
21.158700 1.294600
21.195600 1.235200
21.232500 1.191400
21.269300 1.152200
21.306200 1.179200
21.343100 1.159700
21.380000 1.118500
21.416800 1.094300
21.453700 1.076200
21.490600 1.033800
21.527400 1.051000
21.564300 1.091200
21.601200 1.126800
21.638100 1.191200
21.674900 1.236400
21.711800 1.300000
21.748700 1.306100
21.785500 1.320800
21.822400 1.344800
21.859300 1.462100
21.896100 1.429600
21.933000 1.428700
21.969900 1.439100
22.006800 1.466900
22.043600 1.536300
22.080500 1.505800
22.117400 1.504500
22.154200 1.567500
22.191100 1.501800
22.228000 1.577700
22.264900 1.633600
22.301700 1.759700
22.338600 1.841200
22.375500 1.931600
22.412300 1.962000
22.449200 1.914300
22.486100 1.891100
22.522900 1.939800
22.559800 1.863200
22.596700 1.746500
22.633600 1.706200
22.670400 1.690400
22.707300 1.679800
22.744200 1.665200
22.781000 1.644700
22.817900 1.659500
22.854800 1.632900
22.891600 1.618100
22.928500 1.677700
22.965400 1.513100
23.002300 1.504300
23.039100 1.499900
23.076000 1.581800
23.112900 1.814900
23.149700 1.682500
23.186600 1.713600
23.223500 1.785200
23.260400 1.830500
23.297200 1.918800
23.334100 1.911400
23.371000 1.948900
23.407800 1.959200
23.444700 2.006600
23.481600 2.041600
23.518400 2.085200
23.555300 2.131600
23.592200 2.165300
23.629100 2.196300
23.665900 2.235500
23.702800 2.568500
23.739700 2.577900
23.776500 2.633800
23.813400 2.662900
23.850300 2.667700
23.887200 2.542700
23.924000 2.445400
23.960900 2.521200
23.997800 2.491200
24.034600 2.417900
24.071500 2.348200
24.108400 2.329400
24.145200 2.330800
24.182100 2.273500
24.219000 2.192100
24.255900 2.212800
24.292700 2.157500
24.329600 2.080900
24.366500 2.076000
24.403300 1.912500
24.440200 1.802000
24.477100 1.727600
24.514000 1.663300
24.550800 1.575000
24.587700 1.548200
24.624600 1.542900
24.661400 1.538400
24.698300 1.552700
24.735200 1.596500
24.772000 1.630700
24.808900 1.745900
24.845800 1.811200
24.882700 1.842700
24.919500 1.767200
24.956400 1.713300
24.993300 1.730500
25.030100 1.719700
25.067000 1.740700
25.103900 1.716100
25.140800 1.726600
25.177600 1.813600
25.214500 1.858400
25.251400 1.793200
25.288200 1.667100
25.325100 1.634600
25.362000 1.620000
25.398800 1.670400
25.435700 1.696800
25.472600 1.674200
25.509500 1.675400
25.546300 1.690900
25.583200 1.664700
25.620100 1.706000
25.656900 1.810100
25.693800 1.859700
25.730700 1.886500
25.767600 2.080000
25.804400 2.212000
25.841300 2.091000
25.878200 2.075100
25.915000 2.021700
25.951900 2.049600
25.988800 2.037700
26.025600 1.920600
26.062500 1.859400
26.099400 2.036500
26.136300 1.928700
26.173100 1.801400
26.210000 1.805900
26.246900 1.849400
26.283700 1.821200
26.320600 1.813400
26.357500 1.776500
26.394400 1.745100
26.431200 1.693700
26.468100 1.674000
26.505000 1.665300
26.541800 1.659600
26.578700 1.676500
26.615600 1.675700
26.652400 1.696700
26.689300 1.763200
26.726200 1.813900
26.763100 1.872400
26.799900 1.906700
26.836800 1.946000
26.873700 1.982700
26.910500 2.034100
26.947400 2.093800
26.984300 2.181900
27.021200 2.221000
27.058000 2.301500
27.094900 2.330200
27.131800 2.471300
27.168600 2.442800
27.205500 2.357700
27.242400 2.280700
27.279200 2.269000
27.316100 2.281600
27.353000 2.263700
27.389900 2.265400
27.426700 2.274100
27.463600 2.291900
27.500500 2.323800
27.537300 2.355600
27.574200 2.360900
27.611100 2.348800
27.648000 2.317700
27.684800 2.290900
27.721700 2.263700
27.758600 2.266200
27.795400 2.242100
27.832300 2.228300
27.869200 2.254700
27.906000 2.209400
27.942900 2.235100
27.979800 2.235500
28.016700 2.213700
28.053500 2.291700
28.090400 2.333600
28.127300 2.370600
28.164100 2.260700
28.201000 2.224900
28.237900 2.204700
28.274800 2.228900
28.311600 2.281100
28.348500 2.401100
28.385400 2.374600
28.422200 2.358400
28.459100 2.560900
28.496000 2.489000
28.532800 2.649900
28.569700 2.584300
28.606600 2.581600
28.643500 2.608000
28.680300 2.574600
28.717200 2.565000
28.754100 2.694400
28.790900 2.639000
28.827800 2.640000
28.864700 2.509100
28.901600 2.476400
28.938400 2.382900
28.975300 2.332600
29.012200 2.286600
29.049000 2.344000
29.085900 2.330300
29.122800 2.286500
29.159600 2.271700
29.196500 2.306300
29.233400 2.254300
29.270300 2.240400
29.307100 2.447600
29.344000 2.210400
29.380900 2.369600
29.417700 2.127700
29.454600 2.122700
29.491500 2.210200
29.528400 2.210300
29.565200 2.263400
29.602100 2.368500
29.639000 2.372600
29.675800 2.223200
29.712700 2.122700
29.749600 2.074300
29.786400 2.015800
29.823300 1.983300
29.860200 2.102900
29.897100 1.987400
29.933900 2.088100
29.970800 1.898800
30.007700 1.885400
30.044500 1.859800
30.081400 2.074000
30.118300 1.800700
30.155200 1.780200
30.192000 1.776800
30.228900 1.847400
30.265800 1.742300
30.302600 1.763100
30.339500 1.773600
30.376400 1.779100
30.413200 1.879200
30.450100 1.929700
30.487000 1.874400
30.523900 1.848900
30.560700 1.845800
30.597600 1.967200
30.634500 2.074100
30.671300 2.204600
30.708200 2.292300
30.745100 2.294700
30.781900 2.394000
30.818800 2.481900
30.855700 2.608600
30.892600 2.606500
30.929400 2.776200
30.966300 2.855200
31.003200 2.945200
31.040000 3.033000
31.076900 3.081900
31.113800 3.145500
31.150700 3.275600
31.187500 3.263700
31.224400 3.330500
31.261300 3.374600
31.298100 3.383900
31.335000 3.335500
31.371900 3.340000
31.408700 3.439100
31.445600 3.368500
31.482500 3.475200
31.519400 3.592100
31.556200 3.299200
31.593100 3.363700
31.630000 3.163100
31.666800 2.934900
31.703700 3.358000
31.740600 2.800100
31.777500 2.670700
31.814300 2.696600
31.851200 2.631700
31.888100 2.349900
31.924900 2.324700
31.961800 2.219400
31.998700 2.222700
32.035500 2.145200
32.072400 2.099000
32.109300 2.125100
32.146200 2.166500
32.183000 2.248400
32.219900 2.334000
32.256800 2.601800
32.293600 2.501100
32.330500 2.532600
32.367400 2.574000
32.404300 2.632000
32.441100 2.653700
32.478000 2.715500
32.514900 2.555900
32.551700 2.540300
32.588600 2.628100
32.625500 2.622700
32.662300 2.642400
32.699200 2.635900
32.736100 2.612200
32.773000 2.572000
32.809800 2.665800
32.846700 2.541800
32.883600 2.641800
32.920400 2.698100
32.957300 2.577900
32.994200 2.329400
33.031100 2.260100
33.067900 2.241100
33.104800 2.200000
33.141700 2.305900
33.178500 2.284800
33.215400 2.388300
33.252300 2.527200
33.289100 2.638100
33.326000 2.600500
33.362900 2.574100
33.399800 2.636800
33.436600 2.555500
33.473500 2.542800
33.510400 2.549500
33.547200 2.587700
33.584100 2.524800
33.621000 2.531200
33.657900 2.524600
33.694700 2.534900
33.731600 2.411700
33.768500 2.423100
33.805300 2.442000
33.842200 2.516400
33.879100 2.666100
33.915900 2.690900
33.952800 2.701200
33.989700 2.617700
34.026600 2.577100
34.063400 2.530300
34.100300 2.548300
34.137200 2.455600
34.174000 2.462400
34.210900 2.415900
34.247800 2.431200
34.284700 2.437200
34.321500 2.395800
34.358400 2.404100
34.395300 2.347300
34.432100 2.340400
34.469000 2.334900
34.505900 2.395700
34.542700 2.439000
34.579600 2.475400
34.616500 2.493900
34.653400 2.509000
34.690200 2.566100
34.727100 2.655500
34.764000 2.622800
34.800800 2.593400
34.837700 2.580600
34.874600 2.637700
34.911500 2.699000
34.948300 2.740000
34.985200 2.627500
35.022100 2.657100
35.058900 2.719600
35.095800 2.657400
35.132700 2.666300
35.169500 2.683800
35.206400 2.702700
35.243300 2.689600
35.280200 2.680200
35.317000 2.764500
35.353900 2.701400
35.390800 2.634800
35.427600 2.601000
35.464500 2.766400
35.501400 2.629600
35.538300 2.596200
35.575100 2.630900
35.612000 2.436500
35.648900 2.527100
35.685700 2.516400
35.722600 2.458500
35.759500 2.420900
35.796300 2.350000
35.833200 2.247900
35.870100 2.192000
35.907000 2.191000
35.943800 2.093300
35.980700 2.115600
36.017600 2.150900
36.054400 2.151500
36.091300 1.946800
36.128200 1.930700
36.165100 1.938000
36.201900 1.978800
36.238800 2.053800
36.275700 2.252900
36.312500 2.234800
36.349400 2.188600
36.386300 2.185900
36.423100 2.201700
36.460000 2.214000
36.496900 2.266100
36.533800 2.351500
36.570600 2.396800
36.607500 2.296500
36.644400 2.287400
36.681200 2.301500
36.718100 2.379600
36.755000 2.365900
36.791900 2.382900
36.828700 2.464100
36.865600 2.480900
36.902500 2.512700
36.939300 2.608100
36.976200 2.642900
37.013100 2.511100
37.049900 2.476200
37.086800 2.500200
37.123700 2.502200
37.160600 2.511000
37.197400 2.395700
37.234300 2.328800
37.271200 2.275900
37.308000 2.349000
37.344900 2.353700
37.381800 2.350300
37.418700 2.373700
37.455500 2.440900
37.492400 2.301800
37.529300 2.276000
37.566100 2.279000
37.603000 2.240600
37.639900 2.204000
37.676700 2.229700
37.713600 2.262100
37.750500 2.205700
37.787400 2.382400
37.824200 2.000200
37.861100 1.867200
37.898000 1.920800
37.934800 1.995100
37.971700 1.938100
38.008600 1.969100
38.045500 2.082100
38.082300 2.214100
38.119200 2.219300
38.156100 2.166900
38.192900 2.114300
38.229800 2.091900
38.266700 2.094700
38.303500 2.182300
38.340400 2.105500
38.377300 2.141500
38.414200 2.171500
38.451000 2.212500
38.487900 2.524600
38.524800 2.243100
38.561600 2.354600
38.598500 2.406200
38.635400 2.438400
38.672200 2.543200
38.709100 2.559700
38.746000 2.622800
38.782900 2.717700
38.819700 3.023300
38.856600 2.861100
38.893500 2.837800
38.930300 2.806100
38.967200 2.808800
39.004100 2.827100
39.041000 2.894000
39.077800 2.691000
39.114700 2.582000
39.151600 2.506600
39.188400 2.462500
39.225300 2.429200
39.262200 2.364100
39.299000 2.362900
39.335900 2.365000
39.372800 2.374700
39.409700 2.276700
39.446500 2.236200
39.483400 2.237300
39.520300 2.165600
39.557100 2.133400
39.594000 1.987600
39.630900 1.961200
39.667800 1.925300
39.704600 1.904900
39.741500 1.918300
39.778400 1.921700
39.815200 1.884000
39.852100 1.856900
39.889000 1.834900
39.925800 1.911800
39.962700 1.914400
39.999600 1.927100
40.036500 1.855900
40.073300 1.827500
40.110200 1.858200
40.147100 1.894500
40.183900 2.219900
40.220800 2.262800
40.257700 2.327100
40.294600 2.390500
40.331400 2.341000
40.368300 2.254100
40.405200 2.194700
40.442000 2.383400
40.478900 2.141500
40.515800 2.093800
40.552600 2.035900
40.589500 2.012100
40.626400 2.005000
40.663300 1.996200
40.700100 2.054500
40.737000 2.070400
40.773900 2.032200
40.810700 1.997900
40.847600 1.914200
40.884500 1.775100
40.921400 1.694700
40.958200 1.596400
40.995100 1.535200
41.032000 1.475700
41.068800 1.458500
41.105700 1.418300
41.142600 1.396900
41.179400 1.376100
41.216300 1.397400
41.253200 1.514300
41.290100 1.332800
41.326900 1.244300
41.363800 1.143000
41.400700 1.131200
41.437500 1.142900
41.474400 1.227500
41.511300 1.233700
41.548200 1.303900
41.585000 1.004900
41.621900 0.962100
41.658800 0.932300
41.695600 0.912100
41.732500 0.886500
41.769400 0.843000
41.806200 0.821400
41.843100 0.780300
41.880000 0.761000
41.916900 0.731400
41.953700 0.872600
41.990600 0.644200
42.027500 0.718600
42.064300 0.521300
42.101200 0.461800
42.138100 0.404700
42.175000 0.346000
42.211800 0.302600
42.248700 0.268100
42.285600 0.234400
42.322400 0.193200
42.359300 0.155000
42.396200 0.133700
42.433000 0.118400
42.469900 0.104400
42.506800 0.091800
42.543700 0.073000
42.580500 0.070600
42.617400 0.073600
42.654300 0.070500
42.691100 0.067600
42.728000 0.062800
42.764900 0.055500
42.801800 0.048500
42.838600 0.070300
42.875500 0.000000
42.912400 0.000000
42.949200 0.000000
42.986100 0.000000
43.023000 0.000000
43.059800 0.000000
43.096700 0.000000
43.133600 0.000000
43.170500 0.000000
43.207300 0.000000
43.244200 0.000000
43.281100 0.000000
43.317900 0.000000
43.354800 0.000000
43.391700 0.000000
43.428600 0.000000
43.465400 0.000000
43.502300 0.000000
43.539200 0.000000
43.576000 0.000000
43.612900 0.000000
43.649800 0.000000
43.686600 0.000000
43.723500 0.000000
43.760400 0.000000
43.797300 0.000000
43.834100 0.000000
43.871000 0.000000
43.907900 0.000000
43.944700 0.000000
43.981600 0.000000
44.018500 0.000000
44.055400 0.000000
44.092200 0.000000
44.129100 0.000000
44.166000 0.000000
44.202800 0.000000
44.239700 0.000000
44.276600 0.000000
44.313400 0.000000
44.350300 0.000000
44.387200 0.000000
44.424100 0.000000
44.460900 0.000000
44.497800 0.000000
44.534700 0.000000
44.571500 0.000000
44.608400 0.000000
44.645300 0.000000
44.682200 0.000000
44.719000 0.000000
44.755900 0.000000
44.792800 0.000000
44.829600 0.000000
44.866500 0.000000
44.903400 0.000000
44.940200 0.000000
44.977100 0.000000
45.014000 0.000000
45.050900 0.000000
45.087700 0.000000
45.124600 0.000000
45.161500 0.000000
45.198300 0.000000
45.235200 0.000000
45.272100 0.000000
45.309000 0.000000
45.345800 0.000000
45.382700 0.000000
45.419600 0.000000
45.456400 0.000000
45.493300 0.000000
45.530200 0.000000
45.567000 0.000000
45.603900 0.000000
45.640800 0.000000
45.677700 0.000000
45.714500 0.000000
45.751400 0.000000
45.788300 0.000000
45.825100 0.000000
45.862000 0.000000
45.898900 0.000000
45.935800 0.000000
45.972600 0.000000
46.009500 0.000000
46.046400 0.000000
46.083200 0.000000
46.120100 0.000000
46.157000 0.000000
46.193800 0.000000
e
