set title 'mp-1078666 - Density of States'
set xlabel 'Energy (eV)'
set ylabel 'DOS (states/eV)'
set grid
set xrange [-10:10]
set yrange [0:520.119]
set xzeroaxis lt -1
set terminal png size 800,600
set output 'mp-1078666_dos_gnuplot.png'
plot '-' using 1:2 with lines title 'DOS'
-9.466600 0.000000
-9.450100 0.000000
-9.433600 0.000000
-9.417100 0.000000
-9.400700 0.000000
-9.384200 0.000000
-9.367700 0.000000
-9.351200 0.000000
-9.334700 0.000000
-9.318200 0.000000
-9.301700 0.000000
-9.285200 0.000000
-9.268700 0.000000
-9.252200 0.000000
-9.235700 0.000000
-9.219200 0.000000
-9.202700 0.000000
-9.186200 0.000000
-9.169800 0.000000
-9.153300 0.000000
-9.136800 0.000000
-9.120300 0.000000
-9.103800 0.000000
-9.087300 0.000000
-9.070800 0.000000
-9.054300 0.000000
-9.037800 0.000000
-9.021300 0.000000
-9.004800 0.000000
-8.988300 0.000000
-8.971800 0.000000
-8.955300 0.000000
-8.938800 0.000000
-8.922400 0.000000
-8.905900 0.000000
-8.889400 0.000000
-8.872900 0.000000
-8.856400 0.000000
-8.839900 0.000000
-8.823400 0.000000
-8.806900 0.000000
-8.790400 0.000000
-8.773900 0.000000
-8.757400 0.000000
-8.740900 0.000000
-8.724400 0.000000
-8.707900 0.000000
-8.691400 0.000000
-8.675000 0.000000
-8.658500 0.000000
-8.642000 0.000000
-8.625500 0.000000
-8.609000 0.000000
-8.592500 0.000000
-8.576000 0.000000
-8.559500 0.000000
-8.543000 0.000000
-8.526500 0.000000
-8.510000 0.000000
-8.493500 0.000000
-8.477000 0.000000
-8.460500 0.000000
-8.444100 0.000000
-8.427600 0.000000
-8.411100 0.000000
-8.394600 0.000000
-8.378100 0.000000
-8.361600 0.000000
-8.345100 0.000000
-8.328600 0.000000
-8.312100 0.000000
-8.295600 0.000000
-8.279100 0.000000
-8.262600 0.000000
-8.246100 0.000000
-8.229600 0.000000
-8.213100 0.000000
-8.196700 0.000000
-8.180200 0.000000
-8.163700 0.000000
-8.147200 0.000000
-8.130700 0.000000
-8.114200 0.000000
-8.097700 0.000000
-8.081200 0.000000
-8.064700 0.000000
-8.048200 0.000000
-8.031700 0.000000
-8.015200 0.000000
-7.998700 0.000000
-7.982200 0.000000
-7.965700 25.136900
-7.949300 379.778600
-7.932800 472.835200
-7.916300 58.431700
-7.899800 122.834900
-7.883300 6.541500
-7.866800 0.000000
-7.850300 0.000000
-7.833800 0.000000
-7.817300 0.000000
-7.800800 0.000000
-7.784300 0.000000
-7.767800 0.000000
-7.751300 0.000000
-7.734800 0.000000
-7.718400 0.000000
-7.701900 0.000000
-7.685400 0.000000
-7.668900 0.000000
-7.652400 0.000000
-7.635900 0.000000
-7.619400 0.000000
-7.602900 0.000000
-7.586400 0.000000
-7.569900 0.000000
-7.553400 0.000000
-7.536900 0.000000
-7.520400 0.000000
-7.503900 0.000000
-7.487400 0.000000
-7.471000 0.000000
-7.454500 0.000000
-7.438000 0.000000
-7.421500 0.000000
-7.405000 0.000000
-7.388500 0.000000
-7.372000 0.000000
-7.355500 0.000000
-7.339000 0.000000
-7.322500 0.000000
-7.306000 0.000000
-7.289500 0.000000
-7.273000 0.000000
-7.256500 0.000000
-7.240000 0.000000
-7.223600 0.000000
-7.207100 0.000000
-7.190600 0.000000
-7.174100 0.000000
-7.157600 0.000000
-7.141100 0.000000
-7.124600 0.000000
-7.108100 0.000000
-7.091600 0.000000
-7.075100 0.000000
-7.058600 0.000000
-7.042100 0.000000
-7.025600 0.000000
-7.009100 0.000000
-6.992700 0.000000
-6.976200 0.000000
-6.959700 0.000000
-6.943200 0.000000
-6.926700 0.000000
-6.910200 0.000000
-6.893700 0.000000
-6.877200 0.000000
-6.860700 0.000000
-6.844200 0.000000
-6.827700 0.000000
-6.811200 0.000000
-6.794700 0.000000
-6.778200 0.000000
-6.761700 0.000000
-6.745300 0.000000
-6.728800 0.000000
-6.712300 0.000000
-6.695800 0.000000
-6.679300 0.000000
-6.662800 0.000000
-6.646300 0.000000
-6.629800 0.000000
-6.613300 0.000000
-6.596800 0.000000
-6.580300 0.000000
-6.563800 0.000000
-6.547300 0.000000
-6.530800 0.000000
-6.514300 0.000000
-6.497900 0.000000
-6.481400 0.000000
-6.464900 0.000000
-6.448400 0.000000
-6.431900 0.000000
-6.415400 0.000000
-6.398900 0.000000
-6.382400 0.000000
-6.365900 0.000000
-6.349400 0.000000
-6.332900 0.000000
-6.316400 0.000000
-6.299900 0.000000
-6.283400 0.000000
-6.267000 0.000000
-6.250500 0.000000
-6.234000 0.000000
-6.217500 0.000000
-6.201000 0.000000
-6.184500 0.000000
-6.168000 0.000000
-6.151500 0.000000
-6.135000 0.000000
-6.118500 0.000000
-6.102000 0.000000
-6.085500 0.000000
-6.069000 0.000000
-6.052500 0.000000
-6.036000 0.000000
-6.019600 0.000000
-6.003100 0.000000
-5.986600 0.000000
-5.970100 0.000000
-5.953600 0.000000
-5.937100 0.000000
-5.920600 0.000000
-5.904100 0.000000
-5.887600 0.000000
-5.871100 0.000000
-5.854600 0.000000
-5.838100 0.000000
-5.821600 0.000000
-5.805100 0.000000
-5.788700 0.000000
-5.772200 0.000000
-5.755700 0.000000
-5.739200 0.000000
-5.722700 0.000000
-5.706200 0.000000
-5.689700 0.000000
-5.673200 0.000000
-5.656700 0.000000
-5.640200 0.000000
-5.623700 0.000000
-5.607200 0.000000
-5.590700 0.000000
-5.574200 0.000000
-5.557700 0.000000
-5.541300 0.000000
-5.524800 0.000000
-5.508300 0.000000
-5.491800 0.000000
-5.475300 0.000000
-5.458800 0.000000
-5.442300 0.000000
-5.425800 0.000000
-5.409300 0.000000
-5.392800 0.000000
-5.376300 0.000000
-5.359800 0.000000
-5.343300 0.000000
-5.326800 0.000000
-5.310300 0.000000
-5.293900 0.000000
-5.277400 0.000000
-5.260900 0.000000
-5.244400 0.000000
-5.227900 0.000000
-5.211400 0.000000
-5.194900 0.000000
-5.178400 0.000000
-5.161900 0.000000
-5.145400 0.000000
-5.128900 0.000000
-5.112400 0.000000
-5.095900 0.000000
-5.079400 0.000000
-5.063000 0.000000
-5.046500 0.000000
-5.030000 0.000000
-5.013500 0.000000
-4.997000 0.000000
-4.980500 0.000000
-4.964000 0.000000
-4.947500 0.000000
-4.931000 0.000000
-4.914500 0.000000
-4.898000 0.000000
-4.881500 0.000000
-4.865000 0.000000
-4.848500 0.000000
-4.832000 0.000000
-4.815600 0.000000
-4.799100 0.000000
-4.782600 0.000000
-4.766100 0.000000
-4.749600 0.000000
-4.733100 0.000000
-4.716600 0.000000
-4.700100 0.000000
-4.683600 0.000000
-4.667100 0.000000
-4.650600 0.000000
-4.634100 0.000000
-4.617600 0.000000
-4.601100 0.000000
-4.584600 0.000000
-4.568200 0.000000
-4.551700 0.000000
-4.535200 0.000000
-4.518700 0.000000
-4.502200 0.000000
-4.485700 0.000000
-4.469200 0.000000
-4.452700 0.000000
-4.436200 0.000000
-4.419700 0.000000
-4.403200 0.000000
-4.386700 0.000000
-4.370200 0.000000
-4.353700 0.000000
-4.337300 0.000000
-4.320800 0.000000
-4.304300 0.000000
-4.287800 0.000000
-4.271300 0.000000
-4.254800 0.000000
-4.238300 0.000000
-4.221800 0.000000
-4.205300 0.000000
-4.188800 0.000000
-4.172300 0.000000
-4.155800 0.000000
-4.139300 0.000000
-4.122800 0.000000
-4.106300 0.000000
-4.089900 0.000000
-4.073400 0.000000
-4.056900 0.000000
-4.040400 0.000000
-4.023900 0.000000
-4.007400 0.000000
-3.990900 0.000000
-3.974400 0.000000
-3.957900 0.000000
-3.941400 0.000000
-3.924900 0.000000
-3.908400 0.000000
-3.891900 0.000000
-3.875400 0.000300
-3.858900 0.013000
-3.842500 0.044400
-3.826000 0.094100
-3.809500 0.140200
-3.793000 0.167500
-3.776500 0.176400
-3.760000 0.180300
-3.743500 0.190500
-3.727000 0.207200
-3.710500 0.227300
-3.694000 0.248100
-3.677500 0.269400
-3.661000 0.287300
-3.644500 0.298800
-3.628000 0.303700
-3.611600 0.307300
-3.595100 0.313500
-3.578600 0.323100
-3.562100 0.333900
-3.545600 0.344800
-3.529100 0.355500
-3.512600 0.366000
-3.496100 0.376500
-3.479600 0.386800
-3.463100 0.397700
-3.446600 0.409500
-3.430100 0.421600
-3.413600 0.432200
-3.397100 0.440700
-3.380600 0.447200
-3.364200 0.453300
-3.347700 0.459600
-3.331200 0.466700
-3.314700 0.474200
-3.298200 0.481800
-3.281700 0.489200
-3.265200 0.496500
-3.248700 0.503500
-3.232200 0.510700
-3.215700 0.518600
-3.199200 0.527300
-3.182700 0.536400
-3.166200 0.545600
-3.149700 0.554900
-3.133300 0.564400
-3.116800 0.574000
-3.100300 0.583100
-3.083800 0.591100
-3.067300 0.598000
-3.050800 0.604600
-3.034300 0.611500
-3.017800 0.618100
-3.001300 0.624100
-2.984800 0.630100
-2.968300 0.636600
-2.951800 0.643500
-2.935300 0.650600
-2.918800 0.657700
-2.902300 0.664900
-2.885900 0.672300
-2.869400 0.679800
-2.852900 0.687400
-2.836400 0.695200
-2.819900 0.703200
-2.803400 0.711200
-2.786900 0.719200
-2.770400 0.727300
-2.753900 0.735400
-2.737400 0.743400
-2.720900 0.751600
-2.704400 0.792800
-2.687900 0.866700
-2.671400 0.935200
-2.654900 0.931300
-2.638500 0.903700
-2.622000 0.878200
-2.605500 0.884800
-2.589000 0.890500
-2.572500 0.895200
-2.556000 0.899000
-2.539500 0.902300
-2.523000 0.893600
-2.506500 0.878600
-2.490000 0.864500
-2.473500 0.862600
-2.457000 0.861000
-2.440500 0.859200
-2.424000 0.857200
-2.407600 0.855100
-2.391100 0.853000
-2.374600 0.850700
-2.358100 0.848600
-2.341600 0.848400
-2.325100 0.848400
-2.308600 0.844600
-2.292100 0.837000
-2.275600 0.829800
-2.259100 0.826600
-2.242600 0.844200
-2.226100 0.932400
-2.209600 1.026400
-2.193100 1.040200
-2.176600 1.022100
-2.160200 1.012000
-2.143700 1.031100
-2.127200 1.051000
-2.110700 1.071500
-2.094200 1.092600
-2.077700 1.103800
-2.061200 1.103600
-2.044700 1.104700
-2.028200 1.114300
-2.011700 1.125400
-1.995200 1.137100
-1.978700 1.150700
-1.962200 1.165000
-1.945700 1.179400
-1.929200 1.194400
-1.912800 1.211300
-1.896300 1.225000
-1.879800 1.238500
-1.863300 1.250500
-1.846800 1.263800
-1.830300 1.278500
-1.813800 1.294600
-1.797300 1.311100
-1.780800 1.327900
-1.764300 1.345000
-1.747800 1.362500
-1.731300 1.382000
-1.714800 1.401700
-1.698300 1.421900
-1.681900 1.493200
-1.665400 1.503200
-1.648900 1.478300
-1.632400 1.498000
-1.615900 1.550400
-1.599400 1.606000
-1.582900 1.686200
-1.566400 1.789700
-1.549900 1.813000
-1.533400 1.820000
-1.516900 1.855000
-1.500400 1.895100
-1.483900 1.931500
-1.467400 2.004400
-1.450900 1.939300
-1.434500 1.968200
-1.418000 2.016900
-1.401500 2.027300
-1.385000 2.099000
-1.368500 2.268100
-1.352000 2.336600
-1.335500 2.425100
-1.319000 2.515300
-1.302500 2.592500
-1.286000 2.692300
-1.269500 2.779600
-1.253000 2.863500
-1.236500 2.960200
-1.220000 3.087800
-1.203500 3.243600
-1.187100 3.468400
-1.170600 3.780100
-1.154100 4.440500
-1.137600 4.644800
-1.121100 4.560800
-1.104600 4.473900
-1.088100 4.408600
-1.071600 4.365700
-1.055100 4.334500
-1.038600 3.884000
-1.022100 3.480100
-1.005600 3.066200
-0.989100 2.637700
-0.972600 2.380600
-0.956200 2.188200
-0.939700 2.032800
-0.923200 1.904100
-0.906700 1.777100
-0.890200 1.656200
-0.873700 1.519400
-0.857200 1.447800
-0.840700 1.375600
-0.824200 1.344000
-0.807700 1.265600
-0.791200 1.191100
-0.774700 1.092500
-0.758200 1.024300
-0.741700 0.960100
-0.725200 0.914300
-0.708800 0.918400
-0.692300 0.924800
-0.675800 0.905900
-0.659300 0.863500
-0.642800 0.877600
-0.626300 0.860800
-0.609800 0.839400
-0.593300 0.847700
-0.576800 0.867100
-0.560300 0.836500
-0.543800 0.779000
-0.527300 0.717100
-0.510800 0.680400
-0.494300 0.655500
-0.477800 0.590800
-0.461400 0.541600
-0.444900 0.558900
-0.428400 0.580300
-0.411900 0.602100
-0.395400 0.629800
-0.378900 0.656500
-0.362400 0.681200
-0.345900 0.705900
-0.329400 0.758200
-0.312900 0.821600
-0.296400 0.831100
-0.279900 0.841000
-0.263400 0.868200
-0.246900 0.899000
-0.230500 0.931100
-0.214000 0.964900
-0.197500 0.996700
-0.181000 1.035000
-0.164500 1.119100
-0.148000 1.268900
-0.131500 1.403400
-0.115000 1.475100
-0.098500 1.538900
-0.082000 1.627700
-0.065500 1.727000
-0.049000 1.832000
-0.032500 1.925700
-0.016000 2.015600
0.000500 2.136100
0.016900 2.292500
0.033400 2.539900
0.049900 2.658800
0.066400 2.874000
0.082900 2.991300
0.099400 3.127700
0.115900 3.170200
0.132400 3.303800
0.148900 3.661300
0.165400 4.492100
0.181900 5.600500
0.198400 6.340000
0.214900 6.896100
0.231400 7.393000
0.247800 7.335000
0.264300 6.963000
0.280800 6.875600
0.297300 6.328300
0.313800 6.057600
0.330300 5.896500
0.346800 5.939400
0.363300 6.127900
0.379800 6.570400
0.396300 7.220900
0.412800 7.762700
0.429300 8.562900
0.445800 8.950400
0.462300 7.093200
0.478800 5.440900
0.495200 5.215500
0.511700 4.791300
0.528200 4.523600
0.544700 4.137200
0.561200 3.826500
0.577700 3.578100
0.594200 3.316700
0.610700 3.094200
0.627200 3.008300
0.643700 2.350200
0.660200 2.347900
0.676700 1.804600
0.693200 1.211200
0.709700 0.702800
0.726200 0.421700
0.742600 1.408400
0.759100 2.759200
0.775600 3.864800
0.792100 4.562700
0.808600 4.974200
0.825100 4.907300
0.841600 4.328000
0.858100 4.189000
0.874600 3.694100
0.891100 3.663700
0.907600 3.487500
0.924100 3.420300
0.940600 3.354700
0.957100 3.456000
0.973500 3.515300
0.990000 3.634100
1.006500 3.715100
1.023000 4.004900
1.039500 4.286100
1.056000 4.512500
1.072500 4.813900
1.089000 5.368900
1.105500 5.874300
1.122000 6.202500
1.138500 6.581200
1.155000 6.974200
1.171500 7.223500
1.188000 7.467400
1.204500 7.389400
1.220900 6.343200
1.237400 7.346600
1.253900 7.740300
1.270400 8.435400
1.286900 8.636300
1.303400 8.307100
1.319900 7.636600
1.336400 7.069300
1.352900 7.102600
1.369400 7.192300
1.385900 7.640900
1.402400 10.724600
1.418900 13.158900
1.435400 7.886200
1.451900 6.478100
1.468300 9.855100
1.484800 11.376300
1.501300 10.974000
1.517800 10.142000
1.534300 9.322500
1.550800 8.691100
1.567300 8.267900
1.583800 8.109400
1.600300 9.231700
1.616800 10.664000
1.633300 11.137700
1.649800 11.989000
1.666300 12.825000
1.682800 12.853700
1.699200 12.243500
1.715700 12.185700
1.732200 12.151700
1.748700 12.883400
1.765200 12.438700
1.781700 10.826400
1.798200 11.119200
1.814700 11.337700
1.831200 12.894100
1.847700 14.284400
1.864200 15.839900
1.880700 16.196700
1.897200 14.446700
1.913700 15.106600
1.930200 15.836700
1.946600 15.630300
1.963100 15.422000
1.979600 15.311900
1.996100 14.120900
2.012600 12.808100
2.029100 11.404900
2.045600 12.127600
2.062100 10.878700
2.078600 10.425600
2.095100 11.061400
2.111600 11.280300
2.128100 11.228000
2.144600 11.149300
2.161100 10.320600
2.177600 10.376200
2.194000 10.420900
2.210500 9.856500
2.227000 9.954500
2.243500 9.953700
2.260000 10.075200
2.276500 10.723400
2.293000 10.469700
2.309500 9.335800
2.326000 9.494900
2.342500 9.248300
2.359000 8.699700
2.375500 8.526100
2.392000 8.339500
2.408500 8.078600
2.424900 7.624600
2.441400 6.790300
2.457900 7.320800
2.474400 7.904600
2.490900 8.285100
2.507400 8.856100
2.523900 8.773500
2.540400 8.733500
2.556900 8.127300
2.573400 8.185400
2.589900 8.461200
2.606400 9.813600
2.622900 10.121200
2.639400 9.434300
2.655900 9.734600
2.672300 10.069000
2.688800 10.415600
2.705300 11.063900
2.721800 10.591200
2.738300 10.716900
2.754800 9.733200
2.771300 9.438500
2.787800 9.230000
2.804300 9.072700
2.820800 8.933100
2.837300 8.965900
2.853800 9.243900
2.870300 9.975300
2.886800 10.646900
2.903300 10.715200
2.919700 10.704700
2.936200 11.040100
2.952700 11.167500
2.969200 11.715500
2.985700 12.011100
3.002200 12.179500
3.018700 12.477300
3.035200 12.594900
3.051700 12.491600
3.068200 12.930700
3.084700 12.559200
3.101200 12.574100
3.117700 11.759300
3.134200 12.250000
3.150600 13.111000
3.167100 13.440300
3.183600 12.414800
3.200100 12.229900
3.216600 13.311000
3.233100 13.378400
3.249600 13.486400
3.266100 13.293400
3.282600 13.505400
3.299100 14.130900
3.315600 13.638100
3.332100 17.361700
3.348600 13.612300
3.365100 12.346300
3.381600 12.140300
3.398000 12.244600
3.414500 12.169900
3.431000 12.630400
3.447500 12.281700
3.464000 12.421100
3.480500 10.796000
3.497000 10.152200
3.513500 9.649900
3.530000 8.649600
3.546500 8.630000
3.563000 8.705100
3.579500 8.938600
3.596000 7.308400
3.612500 6.525500
3.628900 6.397000
3.645400 6.398000
3.661900 6.889500
3.678400 6.713500
3.694900 6.792600
3.711400 6.597100
3.727900 6.751300
3.744400 6.428800
3.760900 6.157400
3.777400 6.092100
3.793900 6.091100
3.810400 6.030500
3.826900 6.077600
3.843400 6.117600
3.859900 6.162100
3.876300 6.332900
3.892800 6.600100
3.909300 7.449200
3.925800 7.745200
3.942300 7.690400
3.958800 8.770000
3.975300 7.797800
3.991800 7.308200
4.008300 7.188000
4.024800 7.753200
4.041300 7.007100
4.057800 6.495600
4.074300 6.165400
4.090800 6.311200
4.107300 5.925600
4.123700 5.721100
4.140200 5.958100
4.156700 7.166000
4.173200 6.278300
4.189700 6.112700
4.206200 5.926800
4.222700 6.654700
4.239200 6.565500
4.255700 6.596500
4.272200 6.641900
4.288700 6.749500
4.305200 7.071900
4.321700 7.626800
4.338200 8.053800
4.354600 8.408500
4.371100 8.237500
4.387600 8.594500
4.404100 7.764200
4.420600 8.085300
4.437100 8.856400
4.453600 8.965000
4.470100 9.318900
4.486600 9.809000
4.503100 10.416400
4.519600 10.917200
4.536100 10.931000
4.552600 10.549600
4.569100 10.453600
4.585600 10.888800
4.602000 10.696800
4.618500 10.776500
4.635000 10.605400
4.651500 10.886700
4.668000 11.846800
4.684500 13.810300
4.701000 13.470600
4.717500 13.236700
4.734000 12.911800
4.750500 13.091600
4.767000 13.589600
4.783500 14.593000
4.800000 16.410200
4.816500 18.092400
4.833000 18.609400
4.849400 18.162100
4.865900 18.523100
4.882400 19.340500
4.898900 18.870100
4.915400 18.998900
4.931900 17.016000
4.948400 15.717300
4.964900 15.940000
4.981400 15.621100
4.997900 14.730200
5.014400 14.860600
5.030900 13.424500
5.047400 11.696700
5.063900 11.272400
5.080300 11.244200
5.096800 12.337800
5.113300 11.013200
5.129800 11.014800
5.146300 11.392700
5.162800 12.285300
5.179300 13.794500
5.195800 14.921400
5.212300 16.841600
5.228800 17.925800
5.245300 16.597400
5.261800 13.793100
5.278300 12.964000
5.294800 13.506700
5.311300 15.209000
5.327700 13.988500
5.344200 13.178500
5.360700 13.227700
5.377200 14.031000
5.393700 15.209800
5.410200 15.783800
5.426700 15.364500
5.443200 14.932700
5.459700 14.100500
5.476200 13.703600
5.492700 13.074200
5.509200 12.542000
5.525700 12.659700
5.542200 12.032300
5.558700 11.557100
5.575100 10.978200
5.591600 10.328100
5.608100 10.112400
5.624600 9.872600
5.641100 9.649800
5.657600 9.746300
5.674100 9.907200
5.690600 9.585600
5.707100 9.440800
5.723600 8.835400
5.740100 7.498800
5.756600 7.194400
5.773100 6.524600
5.789600 6.325800
5.806000 6.451600
5.822500 6.804000
5.839000 7.519200
5.855500 7.806400
5.872000 8.021800
5.888500 8.574300
5.905000 9.051000
5.921500 9.861000
5.938000 10.137800
5.954500 10.206900
5.971000 10.208100
5.987500 11.045800
6.004000 10.972400
6.020500 10.543600
6.037000 9.440000
6.053400 8.850400
6.069900 7.710100
6.086400 6.859300
6.102900 6.247000
6.119400 5.985800
6.135900 6.183800
6.152400 6.396100
6.168900 6.739100
6.185400 6.910000
6.201900 6.745900
6.218400 6.520600
6.234900 6.564100
6.251400 6.416800
6.267900 6.041300
6.284300 5.790600
6.300800 5.568700
6.317300 5.339100
6.333800 5.230600
6.350300 5.165900
6.366800 5.131000
6.383300 5.133700
6.399800 5.210300
6.416300 5.288600
6.432800 5.287600
6.449300 5.366100
6.465800 5.373800
6.482300 5.401900
6.498800 5.418000
6.515300 5.406300
6.531700 5.395200
6.548200 5.377000
6.564700 5.410900
6.581200 5.465600
6.597700 5.510000
6.614200 5.577300
6.630700 5.811100
6.647200 5.952000
6.663700 6.116800
6.680200 6.451900
6.696700 6.792900
6.713200 6.651100
6.729700 6.532600
6.746200 6.442300
6.762700 6.333400
6.779100 6.219000
6.795600 6.138400
6.812100 6.062000
6.828600 5.983300
6.845100 6.047000
6.861600 5.681500
6.878100 5.564700
6.894600 5.196700
6.911100 4.876100
6.927600 4.720300
6.944100 4.529300
6.960600 4.563700
6.977100 4.277900
6.993600 4.228400
7.010000 4.044700
7.026500 3.956800
7.043000 3.787200
7.059500 3.692300
7.076000 3.530200
7.092500 3.270200
7.109000 3.072900
7.125500 2.858700
7.142000 2.558000
7.158500 2.433400
7.175000 2.332700
7.191500 2.229100
7.208000 2.153400
7.224500 2.087400
7.241000 2.051800
7.257400 2.000000
7.273900 1.970800
7.290400 2.026600
7.306900 2.146800
7.323400 2.092500
7.339900 1.979700
7.356400 1.879600
7.372900 1.684100
7.389400 1.289200
7.405900 0.797100
7.422400 0.596400
7.438900 0.580000
7.455400 0.561000
7.471900 0.544900
7.488400 0.536200
7.504800 0.535800
7.521300 0.544600
7.537800 0.554300
7.554300 0.564800
7.570800 0.577200
7.587300 0.592900
7.603800 0.609700
7.620300 0.627200
7.636800 0.647500
7.653300 0.670800
7.669800 0.696500
7.686300 0.703300
7.702800 0.720700
7.719300 0.741500
7.735700 0.761300
7.752200 0.781700
7.768700 0.806100
7.785200 0.833000
7.801700 0.862600
7.818200 0.892300
7.834700 0.921300
7.851200 0.950500
7.867700 0.979700
7.884200 1.019500
7.900700 1.049800
7.917200 1.082000
7.933700 1.115900
7.950200 1.151400
7.966700 1.189800
7.983100 1.230000
7.999600 1.275900
8.016100 1.330100
8.032600 1.390900
8.049100 1.458100
8.065600 1.525100
8.082100 1.607200
8.098600 1.699600
8.115100 1.806600
8.131600 1.921400
8.148100 2.044700
8.164600 2.175800
8.181100 2.314600
8.197600 2.454600
8.214100 2.593300
8.230500 2.739500
8.247000 2.891900
8.263500 3.178300
8.280000 3.470800
8.296500 3.801500
8.313000 4.248600
8.329500 4.315200
8.346000 4.820900
8.362500 5.349200
8.379000 5.918800
8.395500 7.060900
8.412000 7.195900
8.428500 6.784700
8.445000 6.493600
8.461400 6.185000
8.477900 6.109000
8.494400 6.020700
8.510900 5.868400
8.527400 5.594000
8.543900 5.361400
8.560400 5.095200
8.576900 4.845400
8.593400 4.676400
8.609900 4.529700
8.626400 4.416900
8.642900 4.265700
8.659400 4.125900
8.675900 3.984400
8.692400 3.646100
8.708800 3.540300
8.725300 3.559900
8.741800 3.627800
8.758300 3.679900
8.774800 3.713800
8.791300 3.701000
8.807800 3.690300
8.824300 3.672700
8.840800 3.642200
8.857300 3.609200
8.873800 3.612800
8.890300 3.566800
8.906800 3.534000
8.923300 3.497500
8.939800 3.466600
8.956200 3.389500
8.972700 3.384400
8.989200 3.378600
9.005700 3.374900
9.022200 3.366600
9.038700 3.364300
9.055200 3.360700
9.071700 3.355100
9.088200 3.345200
9.104700 3.302600
9.121200 3.188800
9.137700 3.164900
9.154200 3.156600
9.170700 3.175200
9.187100 3.212400
9.203600 3.245600
9.220100 3.272600
9.236600 3.291100
9.253100 3.299600
9.269600 3.123700
9.286100 3.090200
9.302600 3.041200
9.319100 3.062300
9.335600 2.887000
9.352100 2.826400
9.368600 2.777900
9.385100 2.710800
9.401600 2.640300
9.418100 2.624300
9.434500 2.583000
9.451000 2.573500
9.467500 2.581300
9.484000 2.579000
9.500500 2.612100
9.517000 2.710100
9.533500 2.845300
9.550000 3.072200
9.566500 3.239800
9.583000 3.375200
9.599500 3.503700
9.616000 3.599400
9.632500 3.573500
9.649000 3.585800
9.665400 3.573700
9.681900 3.560100
9.698400 3.515800
9.714900 3.355800
9.731400 3.250000
9.747900 3.178400
9.764400 3.043900
9.780900 2.909000
9.797400 2.741200
9.813900 2.606100
9.830400 2.429000
9.846900 2.182700
9.863400 1.921100
9.879900 1.729800
9.896400 1.628900
9.912800 1.549000
9.929300 1.453700
9.945800 1.455900
9.962300 1.473200
9.978800 1.494600
9.995300 1.512000
10.011800 1.541500
10.028300 1.538800
10.044800 1.561900
10.061300 1.602100
10.077800 1.671800
10.094300 1.749100
10.110800 1.831900
10.127300 1.927500
10.143800 2.028000
10.160200 2.133700
10.176700 2.232300
10.193200 2.319200
10.209700 2.401600
10.226200 2.473200
10.242700 2.531600
10.259200 2.590600
10.275700 2.647000
10.292200 2.701200
10.308700 2.732100
10.325200 2.735700
10.341700 2.709900
10.358200 2.668900
10.374700 2.628300
10.391100 2.609100
10.407600 2.592500
10.424100 2.558400
10.440600 2.545000
10.457100 2.523800
10.473600 2.475400
10.490100 2.412700
10.506600 2.328800
10.523100 2.264000
10.539600 2.165700
10.556100 2.099300
10.572600 2.042400
10.589100 2.015900
10.605600 2.006700
10.622100 1.985300
10.638500 1.958500
10.655000 1.919700
10.671500 1.868500
10.688000 1.830000
10.704500 1.802600
10.721000 1.786900
10.737500 1.775200
10.754000 1.768000
10.770500 1.764500
10.787000 1.763900
10.803500 1.766300
10.820000 1.770300
10.836500 1.776400
10.853000 1.784200
10.869500 1.795800
10.885900 1.814400
10.902400 1.834800
10.918900 1.912200
10.935400 1.954600
10.951900 2.160400
10.968400 2.291900
10.984900 2.443200
11.001400 2.526500
11.017900 2.514000
11.034400 2.447500
11.050900 2.518400
11.067400 2.583300
11.083900 2.653300
11.100400 2.700900
11.116800 2.736200
11.133300 2.777200
11.149800 2.840800
11.166300 2.918100
11.182800 2.963500
11.199300 3.001300
11.215800 3.024400
11.232300 3.021300
11.248800 3.001400
11.265300 3.005000
11.281800 3.014100
11.298300 3.137100
11.314800 3.219100
11.331300 3.922600
11.347800 3.704800
11.364200 3.537200
11.380700 3.421700
11.397200 3.406200
11.413700 3.441100
11.430200 3.421000
11.446700 3.415700
11.463200 3.452000
11.479700 3.477900
11.496200 3.571700
11.512700 3.677200
11.529200 3.975500
11.545700 3.761200
11.562200 3.566400
11.578700 3.416500
11.595200 3.312400
11.611600 3.084300
11.628100 3.004300
11.644600 2.932000
11.661100 2.871500
11.677600 2.814500
11.694100 2.771700
11.710600 2.811900
11.727100 2.935500
11.743600 2.955800
11.760100 2.899000
11.776600 3.056800
11.793100 2.856900
11.809600 2.815100
11.826100 2.773300
11.842500 2.704300
11.859000 2.632300
11.875500 2.566800
11.892000 2.495000
11.908500 2.454800
11.925000 2.418700
11.941500 2.379900
11.958000 2.347600
11.974500 2.322600
11.991000 2.298900
12.007500 2.276300
12.024000 2.252200
12.040500 2.271800
12.057000 2.256600
12.073500 2.244000
12.089900 2.226000
12.106400 2.244000
12.122900 2.302800
12.139400 2.341100
12.155900 2.302800
12.172400 2.272000
12.188900 2.274000
12.205400 2.244900
12.221900 2.206600
12.238400 2.171100
12.254900 2.132200
12.271400 2.129700
12.287900 2.137400
12.304400 2.145100
12.320900 2.147200
12.337300 2.147800
12.353800 2.129100
12.370300 2.069700
12.386800 2.032000
12.403300 1.996200
12.419800 1.952100
12.436300 1.992200
12.452800 2.051700
12.469300 2.243000
12.485800 2.103700
12.502300 2.057600
12.518800 2.043500
12.535300 2.032000
12.551800 2.019700
12.568200 2.003200
12.584700 2.006300
12.601200 1.985800
12.617700 1.965700
12.634200 1.946800
12.650700 1.929500
12.667200 1.945400
12.683700 1.965300
12.700200 1.997100
12.716700 2.075500
12.733200 2.127200
12.749700 2.136200
12.766200 2.150800
12.782700 2.163000
12.799200 2.197300
12.815600 2.207900
12.832100 2.237200
12.848600 2.276300
12.865100 2.435400
12.881600 2.353900
12.898100 2.349300
12.914600 2.341700
12.931100 2.332700
12.947600 2.322200
12.964100 2.318100
12.980600 2.319300
12.997100 2.309900
13.013600 2.332200
13.030100 2.353100
13.046500 2.375900
13.063000 2.408500
13.079500 2.429600
13.096000 2.440200
13.112500 2.446200
13.129000 2.474900
13.145500 2.511800
13.162000 2.534800
13.178500 2.570500
13.195000 2.605200
13.211500 2.612100
13.228000 2.724900
13.244500 2.564400
13.261000 2.553400
13.277500 2.544900
13.293900 2.538100
13.310400 2.533200
13.326900 2.527300
13.343400 2.527400
13.359900 2.533400
13.376400 2.541600
13.392900 2.548500
13.409400 2.551700
13.425900 2.564200
13.442400 2.558900
13.458900 2.607000
13.475400 2.612100
13.491900 2.609100
13.508400 2.562300
13.524900 2.556900
13.541300 2.565400
13.557800 2.578800
13.574300 2.594700
13.590800 2.611700
13.607300 2.628900
13.623800 2.654200
13.640300 2.675300
13.656800 2.691300
13.673300 2.702300
13.689800 2.718700
13.706300 2.736400
13.722800 2.756200
13.739300 2.777100
13.755800 2.799700
13.772200 2.827300
13.788700 2.872400
13.805200 2.929700
13.821700 3.006800
13.838200 3.189500
13.854700 3.159700
13.871200 3.281800
13.887700 3.376200
13.904200 3.684000
13.920700 3.647200
13.937200 3.699400
13.953700 3.716200
13.970200 3.607000
13.986700 3.352200
14.003200 3.147500
14.019600 3.058200
14.036100 2.919900
14.052600 2.762600
14.069100 2.611100
14.085600 2.402000
14.102100 2.230000
14.118600 2.235300
14.135100 2.306800
14.151600 2.370300
14.168100 2.429200
14.184600 2.470900
14.201100 2.531200
14.217600 2.610000
14.234100 2.701900
14.250600 2.796500
14.267000 2.875700
14.283500 2.942800
14.300000 3.027100
14.316500 3.077400
14.333000 2.980700
14.349500 3.036900
14.366000 3.091400
14.382500 3.165300
14.399000 3.257900
14.415500 3.354100
14.432000 3.527400
14.448500 3.588100
14.465000 3.643800
14.481500 3.640600
14.497900 3.816000
14.514400 3.894700
14.530900 3.910900
14.547400 3.950300
14.563900 3.918500
14.580400 3.824100
14.596900 3.699400
14.613400 3.494400
14.629900 3.389500
14.646400 3.343600
14.662900 3.433800
14.679400 3.422100
14.695900 3.353500
14.712400 3.336700
14.728900 3.314100
14.745300 3.303100
14.761800 3.389900
14.778300 3.220000
14.794800 3.115200
14.811300 3.033400
14.827800 2.915500
14.844300 2.783700
14.860800 2.666200
14.877300 2.574300
14.893800 2.475800
14.910300 2.396200
14.926800 2.388900
14.943300 2.488700
14.959800 2.579700
14.976300 2.634300
14.992700 2.671400
15.009200 2.793200
15.025700 2.669000
15.042200 2.827300
15.058700 2.819800
15.075200 2.742800
15.091700 2.756600
15.108200 2.761000
15.124700 2.870300
15.141200 2.855700
15.157700 2.788700
15.174200 2.813900
15.190700 2.824300
15.207200 2.863400
15.223600 2.902200
15.240100 2.954600
15.256600 3.038300
15.273100 3.042800
15.289600 3.058600
15.306100 3.085100
15.322600 3.176900
15.339100 3.235700
15.355600 3.263600
15.372100 3.343500
15.388600 3.472400
15.405100 3.635900
15.421600 3.510300
15.438100 3.612700
15.454600 3.618300
15.471000 3.585000
15.487500 3.599600
15.504000 3.461600
15.520500 3.467900
15.537000 3.459900
15.553500 3.464700
15.570000 3.444400
15.586500 3.482700
15.603000 3.526300
15.619500 3.600500
15.636000 3.750300
15.652500 3.919100
15.669000 3.966100
15.685500 4.020000
15.701900 4.033700
15.718400 4.024300
15.734900 3.999500
15.751400 3.996000
15.767900 4.582700
15.784400 3.937300
15.800900 3.893200
15.817400 3.793100
15.833900 3.679000
15.850400 3.571000
15.866900 3.464200
15.883400 3.372600
15.899900 3.332700
15.916400 3.357200
15.932900 3.411000
15.949300 3.405300
15.965800 3.461400
15.982300 3.541500
15.998800 3.610200
16.015300 3.698400
16.031800 3.758000
16.048300 3.809600
16.064800 3.837900
16.081300 3.844800
16.097800 3.813600
16.114300 3.816900
16.130800 3.802100
16.147300 3.743300
16.163800 3.682700
16.180300 3.595000
16.196700 3.505000
16.213200 3.412400
16.229700 3.324100
16.246200 3.251300
16.262700 3.175700
16.279200 3.112700
16.295700 3.111200
16.312200 3.057200
16.328700 2.968100
16.345200 2.792600
16.361700 2.731000
16.378200 2.691900
16.394700 2.628700
16.411200 2.571400
16.427600 2.547800
16.444100 2.555600
16.460600 2.575500
16.477100 2.533500
16.493600 2.517600
16.510100 2.670600
16.526600 2.608100
16.543100 2.663800
16.559600 2.756500
16.576100 2.873300
16.592600 3.006800
16.609100 3.099400
16.625600 3.253000
16.642100 3.422200
16.658600 3.572400
16.675000 3.753200
16.691500 3.742500
16.708000 3.819100
16.724500 3.853700
16.741000 3.866200
16.757500 3.875300
16.774000 3.810900
16.790500 3.802200
16.807000 3.827900
16.823500 3.851200
16.840000 3.889100
16.856500 3.909300
16.873000 3.925100
16.889500 3.912100
16.906000 4.031100
16.922400 3.936100
16.938900 3.951200
16.955400 3.951100
16.971900 3.956900
16.988400 3.979600
17.004900 4.022200
17.021400 4.062800
17.037900 3.997700
17.054400 3.962100
17.070900 3.963500
17.087400 3.944800
17.103900 3.877100
17.120400 3.769100
17.136900 3.678600
17.153300 3.472700
17.169800 3.365400
17.186300 3.558800
17.202800 3.640700
17.219300 3.709000
17.235800 3.845200
17.252300 3.630000
17.268800 3.680600
17.285300 3.668500
17.301800 3.665200
17.318300 3.655900
17.334800 3.652300
17.351300 3.661900
17.367800 3.820400
17.384300 3.661500
17.400700 3.621200
17.417200 3.622300
17.433700 3.886100
17.450200 3.668100
17.466700 3.590100
17.483200 3.396000
17.499700 3.349500
17.516200 3.271800
17.532700 3.210800
17.549200 3.184300
17.565700 3.201400
17.582200 3.197600
17.598700 3.214400
17.615200 3.303200
17.631700 3.344500
17.648100 3.361200
17.664600 3.402300
17.681100 3.488600
17.697600 3.566300
17.714100 3.636600
17.730600 3.706200
17.747100 3.796100
17.763600 3.907100
17.780100 3.957900
17.796600 3.970200
17.813100 4.081300
17.829600 4.143900
17.846100 4.114900
17.862600 4.070400
17.879000 4.011300
17.895500 3.958100
17.912000 3.906500
17.928500 3.785300
17.945000 3.738500
17.961500 3.730300
17.978000 3.753800
17.994500 3.755900
18.011000 3.699400
18.027500 3.656000
18.044000 3.517300
18.060500 3.412800
18.077000 3.357100
18.093500 3.344300
18.110000 3.356400
18.126400 3.762600
18.142900 3.389200
18.159400 3.468200
18.175900 3.496100
18.192400 3.536500
18.208900 3.598400
18.225400 3.664600
18.241900 3.713300
18.258400 3.762000
18.274900 3.654500
18.291400 3.691000
18.307900 3.747300
18.324400 3.801000
18.340900 3.874400
18.357400 3.932200
18.373800 3.961000
18.390300 3.955900
18.406800 3.975700
18.423300 3.963300
18.439800 3.969900
18.456300 3.972300
18.472800 4.003400
18.489300 4.037400
18.505800 4.030800
18.522300 4.011000
18.538800 4.024600
18.555300 4.026700
18.571800 3.939200
18.588300 3.856400
18.604700 3.788500
18.621200 3.709000
18.637700 3.589200
18.654200 3.499400
18.670700 3.492600
18.687200 3.545500
18.703700 3.429700
18.720200 3.387300
18.736700 3.363900
18.753200 3.350100
18.769700 3.305000
18.786200 3.358100
18.802700 3.243000
18.819200 3.224400
18.835700 3.219500
18.852100 3.201900
18.868600 3.160400
18.885100 3.078500
18.901600 3.021500
18.918100 2.999300
18.934600 2.993000
18.951100 2.992200
18.967600 3.036100
18.984100 3.027700
19.000600 3.013600
19.017100 3.003400
19.033600 2.944800
19.050100 2.938800
19.066600 2.920000
19.083000 2.858600
19.099500 2.841900
19.116000 2.839900
19.132500 2.840000
19.149000 2.842900
19.165500 2.839500
19.182000 2.842200
19.198500 2.859500
19.215000 2.898400
19.231500 2.931100
19.248000 2.960700
19.264500 3.000900
19.281000 2.994500
19.297500 2.998200
19.314000 3.013700
19.330400 3.036300
19.346900 3.043900
19.363400 3.068100
19.379900 3.080500
19.396400 3.093000
19.412900 3.106600
19.429400 3.127800
19.445900 3.154000
19.462400 3.174900
19.478900 3.242600
19.495400 3.291300
19.511900 3.304700
19.528400 3.303300
19.544900 3.307500
19.561400 3.333800
19.577800 3.338400
19.594300 3.365800
19.610800 3.363800
19.627300 3.332600
19.643800 3.302500
19.660300 3.248100
19.676800 3.124400
19.693300 3.047700
19.709800 3.016600
19.726300 3.086300
19.742800 3.073700
19.759300 3.064700
19.775800 3.014700
19.792300 3.025500
19.808700 3.029200
19.825200 3.032400
19.841700 3.060000
19.858200 3.070100
19.874700 3.060800
19.891200 3.005000
19.907700 2.914000
19.924200 2.862800
19.940700 2.819000
19.957200 2.778500
19.973700 2.736900
19.990200 2.693100
20.006700 2.644900
20.023200 2.600800
20.039700 2.566600
20.056100 2.549500
20.072600 2.558400
20.089100 2.560700
20.105600 2.611800
20.122100 2.706800
20.138600 2.725700
20.155100 2.596400
20.171600 2.595400
20.188100 2.590500
20.204600 2.579100
20.221100 2.561400
20.237600 2.539800
20.254100 2.531500
20.270600 2.504500
20.287100 2.476300
20.303500 2.454300
20.320000 2.450700
20.336500 2.511500
20.353000 2.410700
20.369500 2.413800
20.386000 2.400800
20.402500 2.376700
20.419000 2.354100
20.435500 2.335300
20.452000 2.312000
20.468500 2.284700
20.485000 2.261000
20.501500 2.231500
20.518000 2.195800
20.534400 2.160300
20.550900 2.110400
20.567400 2.058400
20.583900 2.013500
20.600400 1.968300
20.616900 1.945800
20.633400 1.924100
20.649900 1.897500
20.666400 1.858600
20.682900 1.809200
20.699400 1.778300
20.715900 1.747800
20.732400 1.701500
20.748900 1.675700
20.765400 1.660300
20.781800 1.644000
20.798300 1.637300
20.814800 1.616700
20.831300 1.545300
20.847800 1.512000
20.864300 1.478700
20.880800 1.445100
20.897300 1.412500
20.913800 1.383800
20.930300 1.320200
20.946800 1.237600
20.963300 1.194600
20.979800 1.160200
20.996300 1.082700
21.012800 1.060400
21.029200 1.039200
21.045700 1.019200
21.062200 1.000200
21.078700 1.000400
21.095200 0.979500
21.111700 0.955900
21.128200 0.930600
21.144700 0.945200
21.161200 0.944100
21.177700 0.945200
21.194200 0.924800
21.210700 0.906400
21.227200 0.884700
21.243700 0.939300
21.260100 0.951500
21.276600 0.870000
21.293100 0.825400
21.309600 0.745000
21.326100 0.759700
21.342600 0.708900
21.359100 0.654100
21.375600 0.596700
21.392100 0.545700
21.408600 0.505300
21.425100 0.472300
21.441600 0.454500
21.458100 0.438900
21.474600 0.418400
21.491100 0.397700
21.507500 0.386700
21.524000 0.384700
21.540500 0.378700
21.557000 0.398000
21.573500 0.370400
21.590000 0.338300
21.606500 0.313900
21.623000 0.290300
21.639500 0.285300
21.656000 0.214900
21.672500 0.195400
21.689000 0.176800
21.705500 0.116000
21.722000 0.107500
21.738500 0.099300
21.754900 0.091300
21.771400 0.083700
21.787900 0.076400
21.804400 0.069300
21.820900 0.063300
21.837400 0.057700
21.853900 0.052200
21.870400 0.047000
21.886900 0.041900
21.903400 0.037000
21.919900 0.032300
21.936400 0.027800
21.952900 0.023500
21.969400 0.017800
21.985800 0.011700
22.002300 0.005900
22.018800 0.000500
22.035300 0.000000
22.051800 0.000000
22.068300 0.000000
22.084800 0.000000
22.101300 0.000000
22.117800 0.000000
22.134300 0.000000
22.150800 0.000000
22.167300 0.000000
22.183800 0.000000
22.200300 0.000000
22.216800 0.000000
22.233200 0.000000
22.249700 0.000000
22.266200 0.000000
22.282700 0.000000
22.299200 0.000000
22.315700 0.000000
22.332200 0.000000
22.348700 0.000000
22.365200 0.000000
22.381700 0.000000
22.398200 0.000000
22.414700 0.000000
22.431200 0.000000
22.447700 0.000000
22.464100 0.000000
22.480600 0.000000
22.497100 0.000000
22.513600 0.000000
22.530100 0.000000
22.546600 0.000000
22.563100 0.000000
22.579600 0.000000
22.596100 0.000000
22.612600 0.000000
22.629100 0.000000
22.645600 0.000000
22.662100 0.000000
22.678600 0.000000
22.695100 0.000000
22.711500 0.000000
22.728000 0.000000
22.744500 0.000000
22.761000 0.000000
22.777500 0.000000
22.794000 0.000000
22.810500 0.000000
22.827000 0.000000
22.843500 0.000000
22.860000 0.000000
22.876500 0.000000
22.893000 0.000000
22.909500 0.000000
22.926000 0.000000
22.942500 0.000000
22.958900 0.000000
22.975400 0.000000
22.991900 0.000000
23.008400 0.000000
23.024900 0.000000
23.041400 0.000000
23.057900 0.000000
23.074400 0.000000
23.090900 0.000000
23.107400 0.000000
23.123900 0.000000
23.140400 0.000000
23.156900 0.000000
23.173400 0.000000
23.189800 0.000000
23.206300 0.000000
23.222800 0.000000
23.239300 0.000000
23.255800 0.000000
23.272300 0.000000
23.288800 0.000000
23.305300 0.000000
23.321800 0.000000
23.338300 0.000000
23.354800 0.000000
23.371300 0.000000
23.387800 0.000000
23.404300 0.000000
23.420800 0.000000
23.437200 0.000000
23.453700 0.000000
23.470200 0.000000
23.486700 0.000000
23.503200 0.000000
23.519700 0.000000
e
