set title 'mp-6985 - Density of States'
set xlabel 'Energy (eV)'
set ylabel 'DOS (states/eV)'
set grid
set xrange [-10:10]
set yrange [0:3.662]
set xzeroaxis lt -1
set terminal png size 800,600
set output 'mp-6985_dos_gnuplot.png'
plot '-' using 1:2 with lines title 'DOS'
-33.806300 0.000000
-33.736000 0.000000
-33.665800 0.000000
-33.595500 0.000000
-33.525300 0.000000
-33.455100 0.000000
-33.384800 0.000000
-33.314600 0.000000
-33.244300 0.000000
-33.174100 0.000000
-33.103900 0.000000
-33.033600 0.000000
-32.963400 0.000000
-32.893100 0.000000
-32.822900 0.000000
-32.752600 0.000000
-32.682400 0.000000
-32.612200 0.000000
-32.541900 0.000000
-32.471700 0.000000
-32.401400 0.000000
-32.331200 0.000000
-32.261000 0.000000
-32.190700 0.000000
-32.120500 0.000000
-32.050200 0.000000
-31.980000 0.000000
-31.909800 0.000000
-31.839500 0.000000
-31.769300 0.000000
-31.699000 0.000000
-31.628800 0.000000
-31.558500 0.000000
-31.488300 0.000000
-31.418100 0.000000
-31.347800 0.000000
-31.277600 0.000000
-31.207300 0.000000
-31.137100 0.000000
-31.066900 0.000000
-30.996600 0.000000
-30.926400 0.000000
-30.856100 0.000000
-30.785900 0.000000
-30.715700 0.000000
-30.645400 0.000000
-30.575200 0.000000
-30.504900 0.000000
-30.434700 0.000000
-30.364500 0.000000
-30.294200 0.000000
-30.224000 0.000000
-30.153700 0.000000
-30.083500 0.000000
-30.013200 0.000000
-29.943000 0.000000
-29.872800 0.000000
-29.802500 0.000000
-29.732300 0.000000
-29.662000 0.000000
-29.591800 0.000000
-29.521600 0.000000
-29.451300 0.000000
-29.381100 0.000000
-29.310800 0.000000
-29.240600 0.000000
-29.170400 0.000000
-29.100100 0.000000
-29.029900 0.000000
-28.959600 0.000000
-28.889400 0.000000
-28.819100 0.000000
-28.748900 0.000000
-28.678700 0.000000
-28.608400 0.000000
-28.538200 0.000000
-28.467900 0.000000
-28.397700 0.000000
-28.327500 0.000000
-28.257200 0.000000
-28.187000 0.000000
-28.116700 0.000000
-28.046500 0.000000
-27.976300 0.000000
-27.906000 0.000000
-27.835800 0.000000
-27.765500 0.000000
-27.695300 0.000000
-27.625000 0.000000
-27.554800 0.000000
-27.484600 0.000000
-27.414300 0.839800
-27.344100 5.840300
-27.273800 12.899800
-27.203600 3.203900
-27.133400 5.500700
-27.063100 6.841200
-26.992900 10.817800
-26.922600 16.096100
-26.852400 18.713200
-26.782200 5.960500
-26.711900 0.000000
-26.641700 0.000000
-26.571400 0.000000
-26.501200 0.000000
-26.431000 0.000000
-26.360700 0.000000
-26.290500 0.000000
-26.220200 0.000000
-26.150000 0.000000
-26.079700 0.000000
-26.009500 0.000000
-25.939300 0.000000
-25.869000 0.000000
-25.798800 0.000000
-25.728500 0.000000
-25.658300 0.000000
-25.588100 0.000000
-25.517800 0.000000
-25.447600 0.000000
-25.377300 0.000000
-25.307100 0.000000
-25.236900 0.000000
-25.166600 0.000000
-25.096400 0.000000
-25.026100 0.000000
-24.955900 0.000000
-24.885600 0.000000
-24.815400 0.000000
-24.745200 0.000000
-24.674900 0.000000
-24.604700 0.000000
-24.534400 0.000000
-24.464200 0.000000
-24.394000 0.000000
-24.323700 0.000000
-24.253500 0.000000
-24.183200 0.000000
-24.113000 0.000000
-24.042800 0.000000
-23.972500 0.000000
-23.902300 0.000000
-23.832000 0.000000
-23.761800 0.000000
-23.691500 0.000000
-23.621300 0.000000
-23.551100 0.000000
-23.480800 0.000000
-23.410600 0.000000
-23.340300 0.000000
-23.270100 0.000000
-23.199900 0.000000
-23.129600 0.000000
-23.059400 0.000000
-22.989100 0.000000
-22.918900 0.000000
-22.848700 0.000000
-22.778400 0.000000
-22.708200 0.000000
-22.637900 0.000000
-22.567700 0.000000
-22.497500 0.000000
-22.427200 0.000000
-22.357000 0.000000
-22.286700 0.000000
-22.216500 0.000000
-22.146200 0.000000
-22.076000 0.000000
-22.005800 0.000000
-21.935500 0.000000
-21.865300 0.000000
-21.795000 0.000000
-21.724800 0.000000
-21.654600 0.000000
-21.584300 0.000000
-21.514100 0.000000
-21.443800 0.000000
-21.373600 0.000000
-21.303400 0.000000
-21.233100 0.000000
-21.162900 0.000000
-21.092600 0.000000
-21.022400 0.000000
-20.952100 0.000000
-20.881900 0.000000
-20.811700 0.000000
-20.741400 0.000000
-20.671200 0.000000
-20.600900 0.000000
-20.530700 0.000000
-20.460500 0.000000
-20.390200 0.000000
-20.320000 0.000000
-20.249700 0.000000
-20.179500 0.000000
-20.109300 0.000000
-20.039000 0.000000
-19.968800 0.000000
-19.898500 0.000000
-19.828300 0.000000
-19.758000 0.000000
-19.687800 0.000000
-19.617600 0.000000
-19.547300 0.000000
-19.477100 0.000000
-19.406800 0.000000
-19.336600 0.000000
-19.266400 0.000000
-19.196100 0.000000
-19.125900 0.000000
-19.055600 0.000000
-18.985400 0.000000
-18.915200 0.000000
-18.844900 0.000000
-18.774700 0.000000
-18.704400 0.000000
-18.634200 0.000000
-18.564000 0.000000
-18.493700 0.000000
-18.423500 0.000000
-18.353200 0.000000
-18.283000 0.000000
-18.212700 0.000000
-18.142500 0.000000
-18.072300 0.000000
-18.002000 0.000000
-17.931800 0.000000
-17.861500 0.000000
-17.791300 0.000000
-17.721100 0.000000
-17.650800 0.000000
-17.580600 0.000000
-17.510300 0.000000
-17.440100 0.000000
-17.369900 0.000000
-17.299600 0.000000
-17.229400 0.000000
-17.159100 0.000000
-17.088900 0.000000
-17.018600 0.000000
-16.948400 0.000000
-16.878200 0.000000
-16.807900 0.000000
-16.737700 0.000000
-16.667400 0.000000
-16.597200 0.000000
-16.527000 0.000000
-16.456700 0.000000
-16.386500 0.000000
-16.316200 0.000000
-16.246000 0.000000
-16.175800 0.000000
-16.105500 0.000000
-16.035300 0.000000
-15.965000 0.000000
-15.894800 0.000000
-15.824500 0.000000
-15.754300 0.000000
-15.684100 0.000000
-15.613800 0.000000
-15.543600 0.000000
-15.473300 0.000000
-15.403100 0.000000
-15.332900 0.000000
-15.262600 0.000000
-15.192400 0.000000
-15.122100 0.000000
-15.051900 0.000000
-14.981700 0.000000
-14.911400 0.000000
-14.841200 0.000000
-14.770900 0.000000
-14.700700 0.000000
-14.630500 0.000000
-14.560200 0.000000
-14.490000 0.000000
-14.419700 0.000000
-14.349500 0.000000
-14.279200 0.000000
-14.209000 0.000000
-14.138800 0.000000
-14.068500 0.000000
-13.998300 0.000000
-13.928000 0.000000
-13.857800 0.000000
-13.787600 0.000000
-13.717300 0.000000
-13.647100 0.000000
-13.576800 0.000000
-13.506600 0.000000
-13.436400 0.000000
-13.366100 0.000000
-13.295900 0.000000
-13.225600 0.000000
-13.155400 0.000000
-13.085100 0.000000
-13.014900 0.000000
-12.944700 0.000000
-12.874400 0.000000
-12.804200 0.000000
-12.733900 0.000000
-12.663700 0.000000
-12.593500 0.000000
-12.523200 0.000000
-12.453000 0.000000
-12.382700 0.000000
-12.312500 0.000000
-12.242300 0.000000
-12.172000 0.000000
-12.101800 0.000000
-12.031500 0.000000
-11.961300 0.000000
-11.891000 0.000000
-11.820800 0.000000
-11.750600 0.000000
-11.680300 0.000000
-11.610100 0.000000
-11.539800 0.000000
-11.469600 0.000000
-11.399400 0.000000
-11.329100 0.000000
-11.258900 0.000000
-11.188600 0.000000
-11.118400 0.000000
-11.048200 0.000000
-10.977900 0.000000
-10.907700 0.000000
-10.837400 0.000000
-10.767200 0.000000
-10.697000 0.000000
-10.626700 0.000000
-10.556500 0.000000
-10.486200 0.000000
-10.416000 0.000000
-10.345700 0.000000
-10.275500 0.000000
-10.205300 0.000000
-10.135000 0.000000
-10.064800 0.000000
-9.994500 0.000000
-9.924300 0.000000
-9.854100 0.000000
-9.783800 0.000000
-9.713600 0.000000
-9.643300 0.000000
-9.573100 0.000000
-9.502900 0.000000
-9.432600 0.000000
-9.362400 0.000000
-9.292100 0.000000
-9.221900 0.000000
-9.151600 0.000000
-9.081400 0.000000
-9.011200 0.000000
-8.940900 0.000000
-8.870700 0.000000
-8.800400 0.000000
-8.730200 0.000000
-8.660000 0.000000
-8.589700 0.000000
-8.519500 0.000000
-8.449200 0.000000
-8.379000 0.000000
-8.308800 0.000000
-8.238500 0.000000
-8.168300 0.000000
-8.098000 0.000000
-8.027800 0.000000
-7.957500 0.000000
-7.887300 0.000000
-7.817100 0.000000
-7.746800 0.000000
-7.676600 0.000000
-7.606300 0.000000
-7.536100 0.000000
-7.465900 0.000000
-7.395600 0.000000
-7.325400 0.000000
-7.255100 0.000000
-7.184900 0.000000
-7.114700 0.000000
-7.044400 0.000000
-6.974200 0.000000
-6.903900 0.000000
-6.833700 0.000000
-6.763500 0.000000
-6.693200 0.000000
-6.623000 0.000000
-6.552700 0.000000
-6.482500 0.000000
-6.412200 0.000000
-6.342000 0.000000
-6.271800 0.000000
-6.201500 0.000000
-6.131300 0.000000
-6.061000 0.000000
-5.990800 0.000000
-5.920600 0.000000
-5.850300 0.000000
-5.780100 0.000000
-5.709800 0.000000
-5.639600 0.000000
-5.569400 0.000000
-5.499100 0.000000
-5.428900 0.000000
-5.358600 0.000000
-5.288400 0.000000
-5.218100 0.000000
-5.147900 0.000000
-5.077700 0.000000
-5.007400 0.000000
-4.937200 0.000000
-4.866900 0.000000
-4.796700 0.000000
-4.726500 0.000000
-4.656200 0.000000
-4.586000 0.000000
-4.515700 0.000000
-4.445500 0.000000
-4.375300 0.000000
-4.305000 0.000000
-4.234800 0.000000
-4.164500 0.000000
-4.094300 0.000000
-4.024000 0.000000
-3.953800 0.000000
-3.883600 0.000000
-3.813300 0.000000
-3.743100 0.000000
-3.672800 0.000000
-3.602600 0.000000
-3.532400 0.000000
-3.462100 0.000000
-3.391900 0.000000
-3.321600 0.000000
-3.251400 0.000000
-3.181200 0.000000
-3.110900 0.000000
-3.040700 0.000000
-2.970400 0.000000
-2.900200 0.000000
-2.830000 0.000000
-2.759700 0.000000
-2.689500 0.000000
-2.619200 0.000000
-2.549000 0.000000
-2.478700 0.000000
-2.408500 0.000000
-2.338300 0.000000
-2.268000 0.000000
-2.197800 0.000000
-2.127500 0.000000
-2.057300 0.000000
-1.987100 0.000000
-1.916800 0.000000
-1.846600 0.000000
-1.776300 0.000000
-1.706100 0.000000
-1.635900 0.000000
-1.565600 0.000000
-1.495400 0.000000
-1.425100 0.000000
-1.354900 0.000000
-1.284600 0.000000
-1.214400 0.000000
-1.144200 0.000000
-1.073900 0.000000
-1.003700 0.000000
-0.933400 0.000000
-0.863200 0.000000
-0.793000 0.000000
-0.722700 0.000000
-0.652500 0.000000
-0.582200 0.000000
-0.512000 0.000000
-0.441800 0.000000
-0.371500 0.000000
-0.301300 0.000000
-0.231000 0.000200
-0.160800 0.021300
-0.090500 0.029100
-0.020300 0.039100
0.049900 0.048000
0.120200 0.051800
0.190400 0.058200
0.260700 0.064800
0.330900 0.070700
0.401100 0.075200
0.471400 0.079700
0.541600 0.084700
0.611900 0.090200
0.682100 0.095900
0.752300 0.100400
0.822600 0.104800
0.892800 0.109600
0.963100 0.114500
1.033300 0.119700
1.103500 0.125100
1.173800 0.130700
1.244000 0.135600
1.314300 0.140700
1.384500 0.146200
1.454800 0.151900
1.525000 0.157900
1.595200 0.164000
1.665500 0.170400
1.735700 0.176900
1.806000 0.183700
1.876200 0.190800
1.946400 0.198300
2.016700 0.206400
2.086900 0.214900
2.157200 0.223700
2.227400 0.233100
2.297600 0.243100
2.367900 0.254400
2.438100 0.266800
2.508400 0.280300
2.578600 0.295200
2.648900 0.311600
2.719100 0.329800
2.789300 0.349900
2.859600 0.372400
2.929800 0.401000
3.000100 0.439000
3.070300 0.487800
3.140500 0.552100
3.210800 0.638000
3.281000 1.078800
3.351300 0.997600
3.421500 1.039000
3.491700 0.991900
3.562000 1.013300
3.632200 1.029500
3.702500 1.005500
3.772700 1.001500
3.843000 1.007600
3.913200 0.998200
3.983400 1.006500
4.053700 1.006200
4.123900 1.126800
4.194200 1.261000
4.264400 1.402500
4.334600 1.532000
4.404900 1.491300
4.475100 1.499500
4.545400 1.664000
4.615600 0.927900
4.685800 1.184700
4.756100 1.331900
4.826300 1.539200
4.896600 1.577000
4.966800 1.523300
5.037000 1.463300
5.107300 1.619200
5.177500 1.338700
5.247800 1.272000
5.318000 1.200100
5.388300 1.201700
5.458500 1.489600
5.528700 1.774500
5.599000 1.730200
5.669200 1.855600
5.739500 1.882000
5.809700 1.752500
5.879900 1.673800
5.950200 1.666200
6.020400 1.773100
6.090700 1.804200
6.160900 2.088800
6.231100 1.896300
6.301400 1.730400
6.371600 1.662800
6.441900 1.583000
6.512100 1.600600
6.582400 2.149300
6.652600 1.377400
6.722800 1.573000
6.793100 1.836500
6.863300 2.085300
6.933600 2.569300
7.003800 1.724800
7.074000 1.542300
7.144300 1.386200
7.214500 1.316600
7.284800 1.295200
7.355000 1.263700
7.425200 1.302100
7.495500 1.300700
7.565700 1.322200
7.636000 1.296400
7.706200 1.458100
7.776500 1.748600
7.846700 1.845400
7.916900 2.112000
7.987200 2.043000
8.057400 1.690200
8.127700 1.527900
8.197900 1.385200
8.268100 1.383100
8.338400 1.607300
8.408600 1.565800
8.478900 1.466600
8.549100 1.461000
8.619300 1.466600
8.689600 1.499600
8.759800 1.591600
8.830100 1.665400
8.900300 1.754100
8.970500 1.758700
9.040800 1.943500
9.111000 2.311700
9.181300 2.690900
9.251500 3.189000
9.321800 3.328900
9.392000 2.394000
9.462200 1.918800
9.532500 1.466700
9.602700 0.570200
9.673000 0.558900
9.743200 0.556400
9.813400 0.557300
9.883700 0.553700
9.953900 0.548700
10.024200 0.543500
10.094400 0.531500
10.164600 0.506900
10.234900 0.501200
10.305100 0.496600
10.375400 0.491900
10.445600 0.487600
10.515900 0.482700
10.586100 0.476500
10.656300 0.466200
10.726600 0.448800
10.796800 0.438100
10.867100 0.431300
10.937300 0.424200
11.007500 0.418600
11.077800 0.412200
11.148000 0.404700
11.218300 0.394300
11.288500 0.383300
11.358700 0.374700
11.429000 0.366300
11.499200 0.356400
11.569500 0.346600
11.639700 0.338400
11.710000 0.331200
11.780200 0.323100
11.850400 0.313700
11.920700 0.303900
11.990900 0.294800
12.061200 0.285300
12.131400 0.274400
12.201600 0.263500
12.271900 0.254500
12.342100 0.247200
12.412400 0.240500
12.482600 0.230500
12.552800 0.222500
12.623100 0.214800
12.693300 0.204000
12.763600 0.191600
12.833800 0.178100
12.904000 0.165700
12.974300 0.151500
13.044500 0.128500
13.114800 0.110100
13.185000 0.096300
13.255300 0.085600
13.325500 0.071900
13.395700 0.045300
13.466000 0.038100
13.536200 0.032700
13.606500 0.033200
13.676700 0.040100
13.746900 0.065400
13.817200 0.243500
13.887400 0.762200
13.957700 1.033000
14.027900 0.855300
14.098100 0.681000
14.168400 0.608500
14.238600 0.593400
14.308900 0.565000
14.379100 0.520600
14.449400 0.467600
14.519600 0.449800
14.589800 0.436200
14.660100 0.424700
14.730300 0.414600
14.800600 0.404800
14.870800 0.394800
14.941000 0.386200
15.011300 0.376600
15.081500 0.369900
15.151800 0.366700
15.222000 0.364800
15.292200 0.361000
15.362500 0.351300
15.432700 0.345300
15.503000 0.341500
15.573200 0.338600
15.643500 0.335700
15.713700 0.332900
15.783900 0.330300
15.854200 0.325200
15.924400 0.330200
15.994700 0.328600
16.064900 0.332100
16.135100 0.324700
16.205400 0.313100
16.275600 0.307500
16.345900 0.675700
16.416100 0.894200
16.486300 0.750900
16.556600 0.760700
16.626800 0.755700
16.697100 0.720600
16.767300 0.721800
16.837500 0.738600
16.907800 0.715000
16.978000 0.671700
17.048300 0.666000
17.118500 0.669000
17.188800 0.681200
17.259000 0.684600
17.329200 0.675000
17.399500 0.678700
17.469700 0.665300
17.540000 0.666600
17.610200 0.696600
17.680400 0.695900
17.750700 0.710300
17.820900 0.730000
17.891200 0.715000
17.961400 0.722000
18.031600 0.716600
18.101900 0.715800
18.172100 0.706000
18.242400 0.701400
18.312600 0.687200
18.382900 0.681100
18.453100 0.679000
18.523300 0.679400
18.593600 0.679900
18.663800 0.679800
18.734100 0.677000
18.804300 0.677600
18.874500 0.676800
18.944800 0.672300
19.015000 0.670000
19.085300 0.669800
19.155500 0.668400
19.225700 0.669300
19.296000 0.672900
19.366200 0.674100
19.436500 0.674700
19.506700 0.672900
19.577000 0.671800
19.647200 0.672400
19.717400 0.673000
19.787700 0.673000
19.857900 0.675400
19.928200 0.682500
19.998400 0.686300
20.068600 0.689100
20.138900 0.694800
20.209100 0.702100
20.279400 0.708500
20.349600 0.743700
20.419800 0.765900
20.490100 0.781200
20.560300 1.410400
20.630600 0.860400
20.700800 0.744200
20.771000 0.721000
20.841300 0.703300
20.911500 0.676400
20.981800 0.643400
21.052000 0.631800
21.122300 0.624100
21.192500 0.617500
21.262700 0.605900
21.333000 0.591500
21.403200 0.635200
21.473500 0.691600
21.543700 0.732000
21.613900 0.592200
21.684200 0.559200
21.754400 0.540400
21.824700 0.506000
21.894900 0.484500
21.965100 0.470900
22.035400 0.464200
22.105600 0.452400
22.175900 0.433900
22.246100 0.398300
22.316400 0.362200
22.386600 0.353000
22.456800 0.347000
22.527100 0.342500
22.597300 0.339200
22.667600 0.338700
22.737800 0.338400
22.808000 0.340700
22.878300 0.345100
22.948500 0.350700
23.018800 0.358500
23.089000 0.388500
23.159200 0.431200
23.229500 0.480300
23.299700 0.541900
23.370000 0.628400
23.440200 0.719600
23.510500 0.819100
23.580700 0.953500
23.650900 0.982400
23.721200 0.970700
23.791400 0.955100
23.861700 0.933600
23.931900 0.866900
24.002100 0.767700
24.072400 0.756000
24.142600 0.757400
24.212900 0.771100
24.283100 0.796000
24.353300 0.830700
24.423600 0.834300
24.493800 0.832000
24.564100 0.828800
24.634300 0.823200
24.704500 0.816500
24.774800 0.808000
24.845000 0.802200
24.915300 0.809200
24.985500 0.849200
25.055800 0.841800
25.126000 0.822000
25.196200 0.787300
25.266500 0.745900
25.336700 0.707700
25.407000 0.658800
25.477200 0.623000
25.547400 0.617600
25.617700 0.609200
25.687900 0.609500
25.758200 0.612400
25.828400 0.643000
25.898600 0.590900
25.968900 0.574800
26.039100 0.556500
26.109400 0.549100
26.179600 0.551700
26.249900 0.558600
26.320100 0.559300
26.390300 0.543800
26.460600 0.479400
26.530800 0.406100
26.601100 0.367000
26.671300 0.353700
26.741500 0.337600
26.811800 0.324700
26.882000 0.312600
26.952300 0.297200
27.022500 0.275400
27.092700 0.248000
27.163000 0.231400
27.233200 0.245100
27.303500 0.236200
27.373700 0.229500
27.444000 0.236100
27.514200 0.258500
27.584400 0.310300
27.654700 0.418100
27.724900 0.490400
27.795200 0.551500
27.865400 0.703100
27.935600 0.914900
28.005900 1.460400
28.076100 9.824800
28.146400 1.349300
28.216600 1.196700
28.286800 1.153200
28.357100 1.102600
28.427300 1.036900
28.497600 0.976900
28.567800 1.006400
28.638000 1.057900
28.708300 1.116200
28.778500 1.162700
28.848800 1.196200
28.919000 1.170100
28.989300 1.037000
29.059500 0.951900
29.129700 0.905800
29.200000 0.858000
29.270200 0.821300
29.340500 0.797500
29.410700 0.783800
29.480900 0.777900
29.551200 0.782400
29.621400 0.771200
29.691700 0.759900
29.761900 0.742300
29.832100 0.715600
29.902400 0.688600
29.972600 0.658400
30.042900 0.634600
30.113100 0.632200
30.183400 0.638300
30.253600 0.646000
30.323800 0.665800
30.394100 0.842500
30.464300 0.828000
30.534600 0.696700
30.604800 0.666600
30.675000 0.651100
30.745300 0.643900
30.815500 0.626400
30.885800 0.625700
30.956000 0.603600
31.026200 0.622700
31.096500 0.563700
31.166700 0.546000
31.237000 0.532500
31.307200 0.533800
31.377500 0.560300
31.447700 0.606800
31.517900 0.677700
31.588200 0.775600
31.658400 0.786400
31.728700 0.784800
31.798900 0.802100
31.869100 0.831700
31.939400 0.973600
32.009600 0.888500
32.079900 0.838100
32.150100 0.814800
32.220300 0.811700
32.290600 0.837200
32.360800 0.839600
32.431100 0.862300
32.501300 0.912100
32.571500 0.874100
32.641800 0.838700
32.712000 0.813400
32.782300 0.800600
32.852500 0.783900
32.922800 0.771700
32.993000 0.770200
33.063200 0.782400
33.133500 0.783500
33.203700 0.816300
33.274000 0.750800
33.344200 0.738500
33.414400 0.731400
33.484700 0.715200
33.554900 0.703200
33.625200 0.690400
33.695400 0.688600
33.765600 0.684900
33.835900 0.675400
33.906100 0.663500
33.976400 0.674200
34.046600 0.652400
34.116900 0.638200
34.187100 0.624300
34.257300 0.606700
34.327600 0.595400
34.397800 0.593900
34.468100 0.597100
34.538300 0.608800
34.608500 0.628200
34.678800 0.649300
34.749000 0.658200
34.819300 0.655300
34.889500 0.660600
34.959700 0.660300
35.030000 0.656200
35.100200 0.646900
35.170500 0.634400
35.240700 0.619900
35.311000 0.607500
35.381200 0.606400
35.451400 0.599300
35.521700 0.591800
35.591900 0.585100
35.662200 0.582500
35.732400 0.583500
35.802600 0.579600
35.872900 0.576900
35.943100 0.593700
36.013400 0.594800
36.083600 0.641000
36.153800 0.645400
36.224100 0.644500
36.294300 0.681500
36.364600 0.617600
36.434800 0.603200
36.505000 0.587500
36.575300 0.570000
36.645500 0.561700
36.715800 0.560200
36.786000 0.575000
36.856300 0.629100
36.926500 0.701300
36.996700 0.746300
37.067000 0.742100
37.137200 0.729800
37.207500 0.747600
37.277700 0.776400
37.347900 0.803600
37.418200 0.829300
37.488400 0.857200
37.558700 0.885300
37.628900 0.915200
37.699100 0.933100
37.769400 0.949500
37.839600 1.017300
37.909900 0.999400
37.980100 0.936200
38.050400 0.932100
38.120600 0.975100
38.190800 0.924500
38.261100 0.810300
38.331300 0.803300
38.401600 0.780500
38.471800 0.753800
38.542000 0.740400
38.612300 0.734900
38.682500 0.753400
38.752800 0.758600
38.823000 0.766500
38.893200 0.789300
38.963500 0.801300
39.033700 0.798600
39.104000 0.778200
39.174200 0.751200
39.244500 0.733900
39.314700 0.728700
39.384900 0.725500
39.455200 0.727800
39.525400 0.738000
39.595700 0.740700
39.665900 0.743700
39.736100 0.751200
39.806400 0.749500
39.876600 0.751900
39.946900 0.756200
40.017100 0.760800
40.087300 0.766500
40.157600 0.783000
40.227800 0.895800
40.298100 0.992200
40.368300 0.923300
40.438500 0.898100
40.508800 0.896900
40.579000 0.907700
40.649300 0.932800
40.719500 0.955100
40.789800 0.950800
40.860000 0.945500
40.930200 0.941700
41.000500 0.949900
41.070700 0.949000
41.141000 0.988300
41.211200 0.956400
41.281400 0.972300
41.351700 0.960500
41.421900 0.956300
41.492200 0.956400
41.562400 0.955300
41.632600 0.955300
41.702900 0.932700
41.773100 0.908700
41.843400 0.874800
41.913600 0.844800
41.983900 0.817200
42.054100 0.794400
42.124300 0.785400
42.194600 0.781700
42.264800 0.773400
42.335100 0.772900
42.405300 0.786100
42.475500 0.790400
42.545800 0.785900
42.616000 0.793500
42.686300 0.831800
42.756500 0.792300
42.826700 0.771600
42.897000 0.776500
42.967200 0.783800
43.037500 0.806600
43.107700 0.896400
43.178000 0.795000
43.248200 0.715100
43.318400 0.653000
43.388700 0.601700
43.458900 0.611800
43.529200 0.685300
43.599400 0.647100
43.669600 0.654200
43.739900 0.677500
43.810100 0.748400
43.880400 0.782500
43.950600 0.832300
44.020800 0.896300
44.091100 0.969900
44.161300 1.015400
44.231600 1.022300
44.301800 1.022100
44.372000 1.006300
44.442300 1.040700
44.512500 0.989700
44.582800 0.879300
44.653000 0.838200
44.723300 0.809000
44.793500 0.774400
44.863700 0.753100
44.934000 0.730400
45.004200 0.740200
45.074500 0.714100
45.144700 0.712500
45.214900 0.716200
45.285200 0.724100
45.355400 0.736800
45.425700 0.778100
45.495900 0.803800
45.566100 0.870700
45.636400 0.984600
45.706600 1.108700
45.776900 1.091400
45.847100 1.101200
45.917400 1.036600
45.987600 0.952600
46.057800 0.904300
46.128100 0.791900
46.198300 0.753300
46.268600 0.729000
46.338800 0.708600
46.409000 0.684700
46.479300 0.671000
46.549500 0.671300
46.619800 0.673800
46.690000 0.689300
46.760200 0.712900
46.830500 0.737800
46.900700 0.775400
46.971000 0.874800
47.041200 0.961200
47.111500 0.962700
47.181700 0.992900
47.251900 0.945300
47.322200 0.908600
47.392400 1.020900
47.462700 1.017700
47.532900 0.911300
47.603100 0.834900
47.673400 0.817600
47.743600 0.808800
47.813900 0.830800
47.884100 0.889900
47.954300 0.940400
48.024600 1.081700
48.094800 1.135600
48.165100 1.198700
48.235300 1.205800
48.305500 1.198400
48.375800 1.192400
48.446000 1.190500
48.516300 1.257000
48.586500 1.308600
48.656800 1.292900
48.727000 1.000100
48.797200 0.931900
48.867500 0.916800
48.937700 0.937300
49.008000 0.939400
49.078200 0.939600
49.148400 0.907100
49.218700 0.945300
49.288900 1.266200
49.359200 1.148300
49.429400 1.145100
49.499600 1.342900
49.569900 1.179100
49.640100 1.097400
49.710400 1.062600
49.780600 1.003000
49.850900 0.990100
49.921100 0.890300
49.991300 0.823700
50.061600 0.853500
50.131800 0.883800
50.202100 0.858800
50.272300 0.864500
50.342500 0.891200
50.412800 0.911000
50.483000 0.940600
50.553300 0.915600
50.623500 0.854700
50.693700 0.821900
50.764000 0.854900
50.834200 0.901200
50.904500 0.940500
50.974700 0.952300
51.045000 1.038100
51.115200 0.982800
51.185400 0.911700
51.255700 0.773600
51.325900 0.702400
51.396200 0.632300
51.466400 0.609800
51.536600 0.603500
51.606900 0.593300
51.677100 0.593400
51.747400 0.595900
51.817600 0.608900
51.887800 0.637900
51.958100 0.695000
52.028300 0.727500
52.098600 0.755300
52.168800 0.787300
52.239000 0.795700
52.309300 0.824500
52.379500 0.839900
52.449800 0.860500
52.520000 0.928800
52.590300 0.967100
52.660500 0.861600
52.730700 0.844600
52.801000 0.839700
52.871200 0.835500
52.941500 0.835900
53.011700 0.825200
53.081900 0.820200
53.152200 0.837100
53.222400 0.864400
53.292700 0.907200
53.362900 0.979900
53.433100 0.893100
53.503400 0.891700
53.573600 0.908700
53.643900 0.928900
53.714100 0.978800
53.784400 1.005400
53.854600 1.005600
53.924800 1.014300
53.995100 1.001900
54.065300 1.029800
54.135600 1.028000
54.205800 0.966100
54.276000 0.958900
54.346300 0.923300
54.416500 0.938200
54.486800 0.926300
54.557000 0.925900
54.627200 0.929800
54.697500 0.933400
54.767700 0.936900
54.838000 1.025300
54.908200 0.960600
54.978500 0.951700
55.048700 0.975000
55.118900 1.044600
55.189200 1.150600
55.259400 1.136700
55.329700 1.080800
55.399900 1.030800
55.470100 0.978600
55.540400 0.960100
55.610600 0.973700
55.680900 0.968700
55.751100 0.948000
55.821300 0.880100
55.891600 0.864600
55.961800 0.864800
56.032100 0.877500
56.102300 0.839300
56.172500 0.768800
56.242800 0.738200
56.313000 0.673500
56.383300 0.664900
56.453500 0.698100
56.523800 0.743300
56.594000 0.783700
56.664200 0.820300
56.734500 0.825100
56.804700 0.850400
56.875000 0.892000
56.945200 0.976700
57.015400 0.997600
57.085700 1.060500
57.155900 1.133300
57.226200 1.198500
57.296400 1.257800
57.366600 1.337100
57.436900 1.326200
57.507100 1.280700
57.577400 1.083400
57.647600 0.977900
57.717900 0.960400
57.788100 0.945800
57.858300 0.915800
57.928600 0.895500
57.998800 0.891800
58.069100 0.896700
58.139300 0.923100
58.209500 0.956300
58.279800 0.988300
58.350000 1.095500
58.420300 1.069500
58.490500 1.072200
58.560700 1.072100
58.631000 1.222000
58.701200 1.094000
58.771500 1.090700
58.841700 1.066100
58.912000 1.032800
58.982200 0.990600
59.052400 0.960700
59.122700 0.965800
59.192900 0.978800
59.263200 0.979100
59.333400 0.959600
59.403600 0.943900
59.473900 0.978700
59.544100 0.993900
59.614400 1.004400
59.684600 0.998600
59.754800 1.039800
59.825100 1.009600
59.895300 1.010500
59.965600 1.008800
60.035800 1.002400
60.106000 0.983900
60.176300 1.008400
60.246500 1.014000
60.316800 0.999300
60.387000 0.986300
60.457300 0.964600
60.527500 0.921200
60.597700 0.807100
60.668000 0.780800
60.738200 0.766900
60.808500 0.759800
60.878700 0.764700
60.948900 0.784800
61.019200 0.836800
61.089400 0.876000
61.159700 0.913300
61.229900 0.942300
61.300100 0.902800
61.370400 0.914100
61.440600 0.913300
61.510900 0.922800
61.581100 0.923900
61.651400 0.916900
61.721600 0.905800
61.791800 0.893200
61.862100 0.878900
61.932300 0.864100
62.002600 0.836400
62.072800 0.817100
62.143000 0.822000
62.213300 0.845600
62.283500 0.869300
62.353800 0.909600
62.424000 0.948100
62.494200 1.030100
62.564500 1.081900
62.634700 1.155400
62.705000 1.239800
62.775200 1.286300
62.845500 1.228700
62.915700 1.182400
62.985900 1.180700
63.056200 1.188300
63.126400 1.259600
63.196700 1.354300
63.266900 1.276900
63.337100 1.171400
63.407400 1.076500
63.477600 1.011500
63.547900 1.003000
63.618100 0.984500
63.688300 0.954200
63.758600 0.958700
63.828800 0.989800
63.899100 1.034700
63.969300 1.049800
64.039500 1.063700
64.109800 1.053000
64.180000 1.050700
64.250300 1.058900
64.320500 1.075300
64.390800 1.083100
64.461000 1.003300
64.531200 0.970500
64.601500 0.936400
64.671700 0.915400
64.742000 0.898300
64.812200 0.880200
64.882400 0.865500
64.952700 0.854500
65.022900 0.845300
65.093200 0.838000
65.163400 0.840900
65.233600 0.859100
65.303900 0.867200
65.374100 0.865900
65.444400 0.866600
65.514600 0.866300
65.584900 0.856300
65.655100 0.842400
65.725300 0.828200
65.795600 0.811300
65.865800 0.854700
65.936100 0.863800
66.006300 0.867000
66.076500 0.867400
66.146800 0.869400
66.217000 0.880300
66.287300 0.899700
66.357500 0.932200
66.427700 0.975200
66.498000 1.019400
66.568200 1.056400
66.638500 1.091300
66.708700 1.110900
66.779000 1.094200
66.849200 1.078700
66.919400 1.078700
66.989700 1.054500
67.059900 1.044300
67.130200 1.044000
67.200400 1.042800
67.270600 1.022900
67.340900 1.025500
67.411100 1.057100
67.481400 1.083600
67.551600 1.127900
67.621800 1.169700
67.692100 1.219600
67.762300 1.293500
67.832600 1.333500
67.902800 1.316000
67.973100 1.216200
68.043300 1.142200
68.113500 1.116400
68.183800 1.071800
68.254000 1.047100
68.324300 1.025700
68.394500 1.000700
68.464700 0.972100
68.535000 0.952700
68.605200 0.942700
68.675500 0.945600
68.745700 0.953400
68.815900 0.964200
68.886200 0.974800
68.956400 1.026100
69.026700 1.075700
69.096900 1.029500
69.167100 1.046200
69.237400 1.057200
69.307600 1.032800
69.377900 1.008700
69.448100 0.990700
69.518400 0.979400
69.588600 1.000200
69.658800 1.016400
69.729100 1.037000
69.799300 1.065300
69.869600 1.131300
69.939800 1.149700
70.010000 1.143400
70.080300 1.150500
70.150500 1.167700
70.220800 1.162600
70.291000 1.155200
70.361200 1.160900
70.431500 1.164100
70.501700 1.127300
70.572000 1.072500
70.642200 1.038600
70.712500 1.021100
70.782700 1.009000
70.852900 1.001600
70.923200 0.995400
70.993400 0.960000
71.063700 0.925600
71.133900 0.897300
71.204100 0.884100
71.274400 0.879300
71.344600 0.878500
71.414900 0.852800
71.485100 0.840200
71.555300 0.834800
71.625600 0.864200
71.695800 0.856500
71.766100 0.872800
71.836300 0.885200
71.906600 0.897100
71.976800 0.900700
72.047000 0.901800
72.117300 0.917200
72.187500 0.933300
72.257800 0.948300
72.328000 0.947500
72.398200 0.941800
72.468500 0.933400
72.538700 0.910900
72.609000 0.885200
72.679200 0.842000
72.749400 0.835200
72.819700 0.817300
72.889900 0.799700
72.960200 0.796500
73.030400 0.798800
73.100600 0.806100
73.170900 0.822200
73.241100 0.850300
73.311400 0.885600
73.381600 0.909100
73.451900 0.942000
73.522100 0.976000
73.592300 1.014700
73.662600 1.033200
73.732800 1.044100
73.803100 1.078700
73.873300 0.911000
73.943500 0.911700
74.013800 0.925500
74.084000 0.942900
74.154300 0.993500
74.224500 1.029000
74.294700 0.982900
74.365000 0.969200
74.435200 0.958000
74.505500 0.950000
74.575700 0.946000
74.646000 0.943400
74.716200 0.942100
74.786400 0.924300
74.856700 0.917500
74.926900 0.921400
74.997200 0.902700
75.067400 0.882300
75.137600 0.858200
75.207900 0.852400
75.278100 0.853700
75.348400 0.858100
75.418600 0.877200
75.488800 0.924100
75.559100 0.945900
75.629300 0.960000
75.699600 0.963200
75.769800 0.965900
75.840100 0.938900
75.910300 0.880700
75.980500 0.808500
76.050800 0.767200
76.121000 0.737400
76.191300 0.710100
76.261500 0.688300
76.331700 0.671300
76.402000 0.641600
76.472200 0.629400
76.542500 0.640600
76.612700 0.721600
76.682900 0.734300
76.753200 0.773700
76.823400 0.855600
76.893700 1.057800
76.963900 0.970400
77.034100 1.113200
77.104400 1.106400
77.174600 1.049100
77.244900 1.071700
77.315100 1.096100
77.385400 1.124700
77.455600 1.146200
77.525800 1.174900
77.596100 1.224600
77.666300 1.256200
77.736600 1.331500
77.806800 1.363700
77.877000 1.378200
77.947300 1.356800
78.017500 1.339900
78.087800 1.332700
78.158000 1.314200
78.228200 1.254500
78.298500 1.233200
78.368700 1.258000
78.439000 1.291500
78.509200 1.318700
78.579500 1.368700
78.649700 1.413700
78.719900 1.378200
78.790200 1.319500
78.860400 1.277500
78.930700 1.253400
79.000900 1.249200
79.071100 1.210700
79.141400 1.123300
79.211600 1.093000
79.281900 1.115900
79.352100 1.148300
79.422300 1.126000
79.492600 1.091300
79.562800 1.095700
79.633100 1.123100
79.703300 1.093700
79.773600 1.040900
79.843800 1.061700
79.914000 1.112600
79.984300 1.178800
80.054500 1.136300
80.124800 1.068600
80.195000 1.015800
80.265200 0.965100
80.335500 0.944200
80.405700 0.941100
80.476000 0.953300
80.546200 0.997200
80.616400 1.028900
80.686700 1.042600
80.756900 1.033100
80.827200 1.052900
80.897400 1.034900
80.967600 0.967000
81.037900 0.947000
81.108100 0.942200
81.178400 0.955700
81.248600 0.934700
81.318900 0.912100
81.389100 0.895900
81.459300 0.896600
81.529600 0.916900
81.599800 0.912700
81.670100 0.920200
81.740300 0.940100
81.810500 0.980000
81.880800 1.043400
81.951000 1.069100
82.021300 1.095800
82.091500 1.125000
82.161700 1.045600
82.232000 0.981700
82.302200 0.942900
82.372500 0.930300
82.442700 0.918100
82.513000 0.863800
82.583200 0.865800
82.653400 0.876500
82.723700 0.921000
82.793900 0.933400
82.864200 0.978700
82.934400 1.054200
83.004600 1.099000
83.074900 1.081300
83.145100 1.002700
83.215400 1.014800
83.285600 1.045600
83.355800 1.068400
83.426100 1.071300
83.496300 1.060400
83.566600 1.006500
83.636800 0.961500
83.707100 1.017300
83.777300 1.085300
83.847500 1.195400
83.917800 1.322400
83.988000 1.402100
84.058300 1.487800
84.128500 1.562100
84.198700 1.614000
84.269000 1.597300
84.339200 1.490600
84.409500 1.416100
84.479700 1.426000
84.549900 1.358400
84.620200 1.318000
84.690400 1.213700
84.760700 1.145500
84.830900 1.069300
84.901100 1.008400
84.971400 0.999900
85.041600 0.976600
85.111900 0.935600
85.182100 0.927100
85.252400 0.955500
85.322600 1.010300
85.392800 1.053400
85.463100 1.054200
85.533300 1.066800
85.603600 1.110700
85.673800 1.105800
85.744000 1.137400
85.814300 1.199400
85.884500 1.265400
85.954800 1.332300
86.025000 1.381300
86.095200 1.478400
86.165500 1.512200
86.235700 1.594200
86.306000 1.638700
86.376200 1.639100
86.446500 1.620700
86.516700 1.659900
86.586900 1.603100
86.657200 1.541000
86.727400 1.515400
86.797700 1.358100
86.867900 1.393900
86.938100 1.346800
87.008400 1.152900
87.078600 1.032200
87.148900 0.963700
87.219100 0.921100
87.289300 0.903600
87.359600 0.893000
87.429800 0.861200
87.500100 0.890300
87.570300 0.940100
87.640600 1.013100
87.710800 1.102400
87.781000 1.212500
87.851300 1.222300
87.921500 1.197200
87.991800 1.177700
88.062000 1.168800
88.132200 1.158000
88.202500 1.214600
88.272700 1.199500
88.343000 1.071000
88.413200 1.068100
88.483400 0.994000
88.553700 0.998300
88.623900 1.095400
88.694200 1.094300
88.764400 1.164900
88.834600 1.100400
88.904900 1.046000
88.975100 1.043400
89.045400 1.057100
89.115600 1.065500
89.185900 1.033000
89.256100 1.011100
89.326300 0.993200
89.396600 0.987600
89.466800 0.996300
89.537100 1.001500
89.607300 1.024100
89.677500 1.050500
89.747800 1.051300
89.818000 1.035400
89.888300 1.021400
89.958500 1.006900
90.028700 1.002800
90.099000 0.986400
90.169200 1.046800
90.239500 1.176600
90.309700 1.236200
90.380000 1.243600
90.450200 1.218400
90.520400 1.160700
90.590700 1.145000
90.660900 1.180400
90.731200 1.130000
90.801400 1.072700
90.871600 1.053500
90.941900 1.050600
91.012100 1.046800
91.082400 1.055300
91.152600 1.060400
91.222800 1.059700
91.293100 1.044300
91.363300 1.045500
91.433600 1.056400
91.503800 1.080700
91.574100 1.144700
91.644300 1.100300
91.714500 1.066900
91.784800 1.063900
91.855000 1.167800
91.925300 1.146800
91.995500 1.139900
92.065700 1.121700
92.136000 1.100900
92.206200 1.102700
92.276500 1.107700
92.346700 1.125400
92.416900 1.226600
92.487200 1.171700
92.557400 1.181700
92.627700 1.243800
92.697900 1.205400
92.768100 1.194200
92.838400 1.216800
92.908600 1.246800
92.978900 1.298900
93.049100 1.345700
93.119400 1.398600
93.189600 1.496900
93.259800 1.443600
93.330100 1.394400
93.400300 1.354600
93.470600 1.374200
93.540800 1.375400
93.611000 1.372000
93.681300 1.382700
93.751500 1.307200
93.821800 1.213300
93.892000 1.141900
93.962200 1.101100
94.032500 1.098200
94.102700 1.146000
94.173000 1.142200
94.243200 1.147000
94.313500 1.173200
94.383700 1.199800
94.453900 1.206000
94.524200 1.223600
94.594400 1.228100
94.664700 1.223200
94.734900 1.179900
94.805100 1.155300
94.875400 1.142900
94.945600 1.158200
95.015900 1.178800
95.086100 1.135100
95.156300 1.070700
95.226600 1.045300
95.296800 1.032100
95.367100 1.017900
95.437300 1.008900
95.507600 0.991400
95.577800 0.974600
95.648000 0.949900
95.718300 1.012100
95.788500 1.070500
95.858800 1.124800
95.929000 1.178100
95.999200 1.235900
96.069500 1.309600
96.139700 1.250900
96.210000 1.231900
96.280200 1.248200
96.350400 1.195400
96.420700 1.178300
96.490900 1.135800
96.561200 1.123500
96.631400 1.111000
96.701600 1.079800
96.771900 1.056000
96.842100 1.035100
96.912400 1.005700
96.982600 0.976300
97.052900 0.955200
97.123100 0.938100
97.193300 0.919200
97.263600 0.915100
97.333800 0.892400
97.404100 0.861500
97.474300 0.817300
97.544500 0.759900
97.614800 0.730200
97.685000 0.708800
97.755300 0.662400
97.825500 0.600800
97.895700 0.549100
97.966000 0.503500
98.036200 0.446000
98.106500 0.424000
98.176700 0.417600
98.247000 0.417100
98.317200 0.425500
98.387400 0.430600
98.457700 0.503900
98.527900 0.511900
98.598200 0.527900
98.668400 0.538700
98.738600 0.534300
98.808900 0.526900
98.879100 0.497500
98.949400 0.483200
99.019600 0.439400
99.089800 0.388500
99.160100 0.333300
99.230300 0.276600
99.300600 0.223500
99.370800 0.170100
99.441100 0.131100
99.511300 0.112900
99.581500 0.066000
99.651800 0.037700
99.722000 0.028400
99.792300 0.020700
99.862500 0.014600
99.932700 0.009800
100.003000 0.006000
100.073200 0.003200
100.143500 0.001200
100.213700 0.000200
100.283900 0.000000
100.354200 0.000000
100.424400 0.000000
100.494700 0.000000
100.564900 0.000000
100.635100 0.000000
100.705400 0.000000
100.775600 0.000000
100.845900 0.000000
100.916100 0.000000
100.986400 0.000000
101.056600 0.000000
101.126800 0.000000
101.197100 0.000000
101.267300 0.000000
101.337600 0.000000
101.407800 0.000000
101.478000 0.000000
101.548300 0.000000
101.618500 0.000000
101.688800 0.000000
101.759000 0.000000
101.829200 0.000000
101.899500 0.000000
101.969700 0.000000
102.040000 0.000000
102.110200 0.000000
102.180500 0.000000
102.250700 0.000000
102.320900 0.000000
102.391200 0.000000
102.461400 0.000000
102.531700 0.000000
102.601900 0.000000
102.672100 0.000000
102.742400 0.000000
102.812600 0.000000
102.882900 0.000000
102.953100 0.000000
103.023300 0.000000
103.093600 0.000000
103.163800 0.000000
103.234100 0.000000
103.304300 0.000000
103.374600 0.000000
103.444800 0.000000
103.515000 0.000000
103.585300 0.000000
103.655500 0.000000
103.725800 0.000000
103.796000 0.000000
103.866200 0.000000
103.936500 0.000000
104.006700 0.000000
104.077000 0.000000
104.147200 0.000000
104.217400 0.000000
104.287700 0.000000
104.357900 0.000000
104.428200 0.000000
104.498400 0.000000
104.568600 0.000000
104.638900 0.000000
104.709100 0.000000
104.779400 0.000000
104.849600 0.000000
104.919900 0.000000
104.990100 0.000000
105.060300 0.000000
105.130600 0.000000
105.200800 0.000000
105.271100 0.000000
105.341300 0.000000
105.411500 0.000000
105.481800 0.000000
105.552000 0.000000
105.622300 0.000000
105.692500 0.000000
105.762700 0.000000
105.833000 0.000000
105.903200 0.000000
105.973500 0.000000
106.043700 0.000000
106.114000 0.000000
106.184200 0.000000
106.254400 0.000000
106.324700 0.000000
106.394900 0.000000
106.465200 0.000000
106.535400 0.000000
106.605600 0.000000
106.675900 0.000000
e
