set title 'mp-1058623 - Density of States'
set xlabel 'Energy (eV)'
set ylabel 'DOS (states/eV)'
set grid
set xrange [-10:10]
set yrange [0:2.740]
set xzeroaxis lt -1
set terminal png size 800,600
set output 'mp-1058623_dos_gnuplot.png'
plot '-' using 1:2 with lines title 'DOS'
-31.051000 0.000000
-30.959100 0.000000
-30.867100 0.000000
-30.775200 0.000000
-30.683300 0.000000
-30.591300 0.000000
-30.499400 0.000000
-30.407400 0.000000
-30.315500 0.000000
-30.223500 0.000000
-30.131600 0.000000
-30.039600 0.000000
-29.947700 0.000000
-29.855700 0.000000
-29.763800 0.000000
-29.671900 0.000000
-29.579900 0.000000
-29.488000 0.000000
-29.396000 0.000000
-29.304100 0.000000
-29.212100 0.000000
-29.120200 0.000000
-29.028200 0.000000
-28.936300 0.000000
-28.844300 0.000000
-28.752400 0.000000
-28.660500 0.000000
-28.568500 0.000000
-28.476600 0.000000
-28.384600 0.000000
-28.292700 0.000000
-28.200700 0.000000
-28.108800 0.000000
-28.016800 0.000000
-27.924900 0.000000
-27.832900 0.000000
-27.741000 0.000000
-27.649100 0.000000
-27.557100 0.000000
-27.465200 0.000000
-27.373200 0.000000
-27.281300 0.000000
-27.189300 0.000000
-27.097400 0.000000
-27.005400 0.000000
-26.913500 0.000000
-26.821600 0.000000
-26.729600 0.000000
-26.637700 0.000000
-26.545700 0.000000
-26.453800 0.000000
-26.361800 0.000000
-26.269900 0.000000
-26.177900 0.000000
-26.086000 0.000000
-25.994000 0.000000
-25.902100 0.000000
-25.810200 0.000000
-25.718200 0.000000
-25.626300 0.000000
-25.534300 0.000000
-25.442400 0.000000
-25.350400 0.000000
-25.258500 0.000000
-25.166500 0.000000
-25.074600 0.000000
-24.982600 0.000000
-24.890700 0.000000
-24.798800 0.000000
-24.706800 0.000000
-24.614900 0.000000
-24.522900 0.000000
-24.431000 0.000000
-24.339000 0.000000
-24.247100 0.000000
-24.155100 0.000000
-24.063200 0.000000
-23.971200 0.000000
-23.879300 0.000000
-23.787400 0.000000
-23.695400 0.000000
-23.603500 0.000000
-23.511500 0.000000
-23.419600 0.000000
-23.327600 0.000000
-23.235700 0.000000
-23.143700 0.000000
-23.051800 0.000000
-22.959900 0.000000
-22.867900 0.000000
-22.776000 0.000000
-22.684000 0.025100
-22.592100 0.209300
-22.500100 0.307000
-22.408200 0.449200
-22.316200 0.586500
-22.224300 0.575000
-22.132300 0.593900
-22.040400 0.600900
-21.948500 0.621200
-21.856500 0.636600
-21.764600 0.657200
-21.672600 0.678900
-21.580700 0.706900
-21.488700 0.746600
-21.396800 0.819600
-21.304800 0.997600
-21.212900 1.038300
-21.120900 0.825400
-21.029000 0.744200
-20.937100 0.665100
-20.845100 0.615500
-20.753200 0.596100
-20.661200 0.573800
-20.569300 0.538200
-20.477300 0.508300
-20.385400 0.496200
-20.293400 0.482100
-20.201500 0.469600
-20.109500 0.455800
-20.017600 0.436400
-19.925700 0.422200
-19.833700 0.418400
-19.741800 0.414400
-19.649800 0.407200
-19.557900 0.399200
-19.465900 0.389000
-19.374000 0.377600
-19.282000 0.364300
-19.190100 0.357700
-19.098200 0.354900
-19.006200 0.352100
-18.914300 0.349300
-18.822300 0.346400
-18.730400 0.343300
-18.638400 0.338600
-18.546500 0.331800
-18.454500 0.321600
-18.362600 0.313600
-18.270600 0.311000
-18.178700 0.308700
-18.086800 0.306500
-17.994800 0.304400
-17.902900 0.302300
-17.810900 0.300200
-17.719000 0.297800
-17.627000 0.295200
-17.535100 0.291800
-17.443100 0.285700
-17.351200 0.281400
-17.259200 0.278800
-17.167300 0.275900
-17.075400 0.273900
-16.983400 0.272100
-16.891500 0.270400
-16.799500 0.268800
-16.707600 0.267200
-16.615600 0.265500
-16.523700 0.263600
-16.431700 0.261300
-16.339800 0.257800
-16.247800 0.254400
-16.155900 0.254300
-16.064000 0.253000
-15.972000 0.251400
-15.880100 0.249000
-15.788100 0.247300
-15.696200 0.245900
-15.604200 0.244600
-15.512300 0.243400
-15.420300 0.242200
-15.328400 0.240900
-15.236500 0.239500
-15.144500 0.237800
-15.052600 0.235100
-14.960600 0.232800
-14.868700 0.232800
-14.776700 0.232800
-14.684800 0.232800
-14.592800 0.232100
-14.500900 0.231000
-14.408900 0.229700
-14.317000 0.228800
-14.225100 0.228000
-14.133100 0.227400
-14.041200 0.226800
-13.949200 0.226200
-13.857300 0.225700
-13.765300 0.225100
-13.673400 0.224400
-13.581400 0.223600
-13.489500 0.223600
-13.397500 0.223700
-13.305600 0.223700
-13.213700 0.223700
-13.121700 0.223700
-13.029800 0.226000
-12.937800 0.230200
-12.845900 0.236200
-12.753900 0.241600
-12.662000 0.247800
-12.570000 0.255500
-12.478100 0.265800
-12.386200 0.280600
-12.294200 0.304700
-12.202300 0.363300
-12.110300 0.376300
-12.018400 0.376400
-11.926400 0.376600
-11.834500 0.376700
-11.742500 0.376900
-11.650600 0.235500
-11.558600 0.000000
-11.466700 0.000000
-11.374800 0.000000
-11.282800 0.000000
-11.190900 0.000000
-11.098900 0.000000
-11.007000 0.000000
-10.915000 0.000000
-10.823100 0.000000
-10.731100 0.000000
-10.639200 0.000000
-10.547200 0.000000
-10.455300 0.000000
-10.363400 0.000000
-10.271400 0.000000
-10.179500 0.000000
-10.087500 0.000000
-9.995600 0.000000
-9.903600 0.000000
-9.811700 0.000000
-9.719700 0.020100
-9.627800 0.197900
-9.535800 0.320800
-9.443900 0.320800
-9.352000 0.320800
-9.260000 0.320700
-9.168100 0.320700
-9.076100 0.320600
-8.984200 0.320600
-8.892200 0.301800
-8.800300 0.261800
-8.708300 0.237100
-8.616400 0.223300
-8.524500 0.213500
-8.432500 0.205600
-8.340600 0.198400
-8.248600 0.190100
-8.156700 0.181100
-8.064700 0.181100
-7.972800 0.181100
-7.880800 0.181100
-7.788900 0.181100
-7.696900 0.181100
-7.605000 0.181100
-7.513100 0.181100
-7.421100 0.181100
-7.329200 0.181100
-7.237200 0.181100
-7.145300 0.181100
-7.053300 0.236900
-6.961400 0.342300
-6.869400 0.397000
-6.777500 0.456500
-6.685500 0.454400
-6.593600 0.454000
-6.501700 0.452700
-6.409700 0.454600
-6.317800 0.461400
-6.225800 0.521400
-6.133900 0.552900
-6.041900 0.581900
-5.950000 0.612100
-5.858000 0.637500
-5.766100 0.664300
-5.674100 0.687700
-5.582200 0.718200
-5.490300 0.762600
-5.398300 0.829200
-5.306400 0.784200
-5.214400 0.761200
-5.122500 0.801500
-5.030500 0.822400
-4.938600 0.842000
-4.846600 0.901500
-4.754700 0.915400
-4.662800 0.957000
-4.570800 1.021800
-4.478900 1.102500
-4.386900 1.110600
-4.295000 1.172800
-4.203000 1.242100
-4.111100 1.293000
-4.019100 1.316900
-3.927200 1.335900
-3.835200 1.419900
-3.743300 1.516300
-3.651400 1.319100
-3.559400 1.272200
-3.467500 1.214200
-3.375500 1.189100
-3.283600 1.171300
-3.191600 1.183400
-3.099700 1.212800
-3.007700 1.279000
-2.915800 1.340800
-2.823800 1.249100
-2.731900 1.158200
-2.640000 1.108800
-2.548000 1.103600
-2.456100 1.208700
-2.364100 1.273700
-2.272200 1.162000
-2.180200 1.152600
-2.088300 1.167500
-1.996300 1.354400
-1.904400 1.093100
-1.812400 1.052300
-1.720500 0.988500
-1.628600 0.998800
-1.536600 1.005400
-1.444700 0.964000
-1.352700 0.954100
-1.260800 0.953400
-1.168800 0.934000
-1.076900 0.923700
-0.984900 0.877200
-0.893000 0.842800
-0.801100 0.818200
-0.709100 0.896800
-0.617200 1.220400
-0.525200 1.257200
-0.433300 1.394900
-0.341300 1.465200
-0.249400 1.666900
-0.157400 1.205700
-0.065500 1.029700
0.026500 0.952500
0.118400 0.979800
0.210300 1.010900
0.302300 1.058700
0.394200 1.116400
0.486200 1.215700
0.578100 1.290900
0.670100 1.350500
0.762000 1.403000
0.854000 1.468000
0.945900 1.612000
1.037900 1.840300
1.129800 2.177400
1.221700 2.491100
1.313700 2.346000
1.405600 2.307000
1.497600 1.654800
1.589500 0.324200
1.681500 0.175500
1.773400 0.175600
1.865400 0.160500
1.957300 0.160500
2.049300 0.160500
2.141200 0.160500
2.233100 0.160500
2.325100 0.160500
2.417000 0.160500
2.509000 0.160500
2.600900 0.160500
2.692900 0.160500
2.784800 0.160500
2.876800 0.160500
2.968700 0.160500
3.060600 0.160500
3.152600 0.160500
3.244500 0.160500
3.336500 0.160500
3.428400 0.160500
3.520400 0.160500
3.612300 0.163300
3.704300 0.165600
3.796200 0.167600
3.888200 0.171400
3.980100 0.171400
4.072000 0.171400
4.164000 0.171400
4.255900 0.171400
4.347900 0.171400
4.439800 0.171400
4.531800 0.171400
4.623700 0.171400
4.715700 0.171400
4.807600 0.171400
4.899600 0.171400
4.991500 0.171400
5.083400 0.171400
5.175400 0.171400
5.267300 0.171400
5.359300 0.171400
5.451200 0.171400
5.543200 0.172800
5.635100 0.180800
5.727100 0.186500
5.819000 0.194300
5.911000 0.194300
6.002900 0.194300
6.094800 0.194300
6.186800 0.194300
6.278700 0.194300
6.370700 0.194300
6.462600 0.194300
6.554600 0.194300
6.646500 0.194300
6.738500 0.194300
6.830400 0.194300
6.922300 0.194300
7.014300 0.194300
7.106200 0.194300
7.198200 0.194300
7.290100 0.196700
7.382100 0.218100
7.474000 0.240400
7.566000 0.244000
7.657900 0.244000
7.749900 0.244000
7.841800 0.244000
7.933700 0.244000
8.025700 0.244000
8.117600 0.244000
8.209600 0.244000
8.301500 0.244000
8.393500 0.244000
8.485400 0.244000
8.577400 0.244000
8.669300 0.248500
8.761300 0.343200
8.853200 0.409400
8.945100 0.411800
9.037100 0.407300
9.129000 0.399400
9.221000 0.395300
9.312900 0.391700
9.404900 0.388200
9.496800 0.400300
9.588800 0.422700
9.680700 0.884300
9.772700 1.083400
9.864600 1.120600
9.956500 0.722000
10.048500 0.154400
10.140400 0.131800
10.232400 0.120900
10.324300 0.122600
10.416300 0.125700
10.508200 0.130300
10.600200 0.134800
10.692100 0.139900
10.784000 0.158300
10.876000 0.158600
10.967900 0.162200
11.059900 0.164600
11.151800 0.166000
11.243800 0.167300
11.335700 0.169200
11.427700 0.172000
11.519600 0.196900
11.611600 0.200500
11.703500 0.207900
11.795400 0.218100
11.887400 0.225800
11.979300 0.235000
12.071300 0.245500
12.163200 0.258300
12.255200 0.271200
12.347100 0.285600
12.439100 0.308800
12.531000 0.346200
12.623000 0.539400
12.714900 0.566300
12.806800 0.542400
12.898800 0.521800
12.990700 0.529000
13.082700 0.575600
13.174600 0.599400
13.266600 0.601400
13.358500 0.602100
13.450500 0.596000
13.542400 0.594400
13.634300 0.585100
13.726300 0.577900
13.818200 0.586100
13.910200 0.531600
14.002100 0.508800
14.094100 0.486800
14.186000 0.471600
14.278000 0.456400
14.369900 0.440300
14.461900 0.427500
14.553800 0.419900
14.645700 0.412400
14.737700 0.405300
14.829600 0.398100
14.921600 0.390200
15.013500 0.385000
15.105500 0.379700
15.197400 0.373600
15.289400 0.364800
15.381300 0.356500
15.473300 0.349100
15.565200 0.345300
15.657100 0.339000
15.749100 0.335600
15.841000 0.333000
15.933000 0.338700
16.024900 0.340200
16.116900 0.342500
16.208800 0.344800
16.300800 0.349200
16.392700 0.355000
16.484700 0.366400
16.576600 0.369000
16.668500 0.373200
16.760500 0.376700
16.852400 0.382800
16.944400 0.387000
17.036300 0.392500
17.128300 0.398500
17.220200 0.405000
17.312200 0.425600
17.404100 0.441000
17.496000 0.456700
17.588000 0.472300
17.679900 0.501000
17.771900 0.508000
17.863800 0.520800
17.955800 0.572100
18.047700 0.578600
18.139700 0.585100
18.231600 0.593300
18.323600 0.601700
18.415500 0.609200
18.507400 0.618900
18.599400 0.628600
18.691300 0.637900
18.783300 0.659900
18.875200 0.675100
18.967200 0.680600
19.059100 0.681800
19.151100 0.687700
19.243000 0.710800
19.335000 0.730000
19.426900 0.749500
19.518800 0.780200
19.610800 0.829900
19.702700 0.886900
19.794700 0.892500
19.886600 0.886500
19.978600 0.879200
20.070500 0.882300
20.162500 0.855800
20.254400 0.870700
20.346400 0.885500
20.438300 0.904500
20.530200 0.917100
20.622200 0.946400
20.714100 0.957300
20.806100 0.900400
20.898000 0.840400
20.990000 0.814400
21.081900 0.793700
21.173900 0.775100
21.265800 0.755000
21.357700 0.729400
21.449700 0.710100
21.541600 0.707900
21.633600 0.675700
21.725500 0.671600
21.817500 0.653800
21.909400 0.585200
22.001400 0.548900
22.093300 0.524800
22.185300 0.500600
22.277200 0.477800
22.369100 0.467900
22.461100 0.465500
22.553000 0.475600
22.645000 0.479600
22.736900 0.491800
22.828900 0.508100
22.920800 0.526800
23.012800 0.567900
23.104700 0.629500
23.196700 0.722400
23.288600 0.805800
23.380500 0.780800
23.472500 0.786000
23.564400 0.812000
23.656400 0.814000
23.748300 0.762900
23.840300 0.759100
23.932200 0.824000
24.024200 0.969200
24.116100 0.978400
24.208100 0.771500
24.300000 0.711000
24.391900 0.679000
24.483900 0.623700
24.575800 0.601600
24.667800 0.585900
24.759700 0.558400
24.851700 0.549400
24.943600 0.550900
25.035600 0.573000
25.127500 0.579900
25.219400 0.596400
25.311400 0.624000
25.403300 0.662900
25.495300 0.705900
25.587200 0.731600
25.679200 0.745200
25.771100 0.763400
25.863100 0.838100
25.955000 0.969200
26.047000 0.901400
26.138900 0.929600
26.230800 0.863900
26.322800 0.855200
26.414700 0.836200
26.506700 0.845200
26.598600 0.866800
26.690600 0.851700
26.782500 0.859100
26.874500 0.884100
26.966400 0.892600
27.058400 0.895500
27.150300 0.930300
27.242200 0.874000
27.334200 0.817800
27.426100 0.829400
27.518100 0.825800
27.610000 0.870600
27.702000 0.900500
27.793900 0.845300
27.885900 0.821500
27.977800 0.802600
28.069800 0.819600
28.161700 0.810400
28.253600 0.829100
28.345600 0.831200
28.437500 0.796600
28.529500 0.781000
28.621400 0.779500
28.713400 0.772700
28.805300 0.773100
28.897300 0.790900
28.989200 0.775400
29.081100 0.787900
29.173100 0.792900
29.265000 0.793600
29.357000 0.799100
29.448900 0.804700
29.540900 0.842900
29.632800 0.901400
29.724800 0.887200
29.816700 0.832000
29.908700 0.805300
30.000600 0.822100
30.092500 0.793000
30.184500 0.816900
30.276400 0.867600
30.368400 0.860200
30.460300 0.881800
30.552300 0.897300
30.644200 0.922100
30.736200 0.891900
30.828100 0.859100
30.920100 0.838800
31.012000 0.847600
31.103900 0.884900
31.195900 0.882900
31.287800 0.900800
31.379800 0.908400
31.471700 0.899100
31.563700 0.907700
31.655600 0.897000
31.747600 0.893300
31.839500 0.889500
31.931500 0.893900
32.023400 0.906600
32.115300 0.917300
32.207300 0.899400
32.299200 0.895700
32.391200 0.886100
32.483100 0.865500
32.575100 0.892500
32.667000 0.837800
32.759000 0.877300
32.850900 0.942000
32.942800 1.096100
33.034800 1.121600
33.126700 1.147400
33.218700 0.934400
33.310600 0.861300
33.402600 0.828700
33.494500 0.811900
33.586500 0.823000
33.678400 0.799500
33.770400 0.785200
33.862300 0.749000
33.954200 0.745700
34.046200 0.778900
34.138100 0.786300
34.230100 0.826600
34.322000 0.869400
34.414000 1.021700
34.505900 0.991800
34.597900 0.885500
34.689800 0.795700
34.781800 0.767200
34.873700 0.755000
34.965600 0.701700
35.057600 0.675100
35.149500 0.640900
35.241500 0.611600
35.333400 0.584900
35.425400 0.561200
35.517300 0.548800
35.609300 0.568900
35.701200 0.593900
35.793200 0.630200
35.885100 0.686700
35.977000 0.766700
36.069000 0.836500
36.160900 0.907900
36.252900 0.868800
36.344800 0.837100
36.436800 0.836100
36.528700 0.806700
36.620700 0.760000
36.712600 0.712700
36.804500 0.714700
36.896500 0.619100
36.988400 0.637700
37.080400 0.660100
37.172300 0.690800
37.264300 0.679500
37.356200 0.678100
37.448200 0.683600
37.540100 0.671300
37.632100 0.662700
37.724000 0.680900
37.815900 0.731800
37.907900 0.819400
37.999800 0.852200
38.091800 0.915700
38.183700 0.893800
38.275700 0.861300
38.367600 0.919300
38.459600 0.931300
38.551500 0.908400
38.643500 0.893500
38.735400 0.887200
38.827300 0.880600
38.919300 0.909600
39.011200 0.928900
39.103200 0.936600
39.195100 0.926000
39.287100 0.951600
39.379000 0.986900
39.471000 1.015800
39.562900 0.991000
39.654800 0.944200
39.746800 0.917100
39.838700 0.848100
39.930700 0.802300
40.022600 0.774300
40.114600 0.738700
40.206500 0.713300
40.298500 0.693300
40.390400 0.677700
40.482400 0.715600
40.574300 0.740200
40.666200 0.764300
40.758200 0.811300
40.850100 0.857200
40.942100 0.927100
41.034000 0.965700
41.126000 0.980400
41.217900 0.930900
41.309900 0.936100
41.401800 0.973800
41.493800 0.926600
41.585700 0.876000
41.677600 0.865700
41.769600 0.842600
41.861500 0.842900
41.953500 0.838500
42.045400 0.867500
42.137400 0.887300
42.229300 0.889800
42.321300 0.902700
42.413200 0.909400
42.505200 0.910300
42.597100 0.903600
42.689000 0.900700
42.781000 0.906800
42.872900 0.942100
42.964900 1.002500
43.056800 0.999400
43.148800 0.982600
43.240700 0.959900
43.332700 0.967100
43.424600 0.972500
43.516500 0.963500
43.608500 0.986600
43.700400 0.956200
43.792400 0.972400
43.884300 0.954900
43.976300 0.953800
44.068200 0.989500
44.160200 0.931200
44.252100 0.910800
44.344100 0.922900
44.436000 0.935400
44.527900 0.892200
44.619900 0.848500
44.711800 0.875500
44.803800 0.858400
44.895700 0.858500
44.987700 0.828800
45.079600 0.817800
45.171600 0.812800
45.263500 0.834300
45.355500 0.847500
45.447400 0.861500
45.539300 0.858200
45.631300 0.859100
45.723200 0.898300
45.815200 0.933600
45.907100 1.007900
45.999100 1.004800
46.091000 0.976500
46.183000 0.952600
46.274900 0.939400
46.366900 0.909200
46.458800 0.910100
46.550700 0.927900
46.642700 0.957900
46.734600 1.009100
46.826600 1.034700
46.918500 1.106400
47.010500 1.280600
47.102400 1.272500
47.194400 1.307000
47.286300 1.278000
47.378200 1.309600
47.470200 1.376800
47.562100 1.544300
47.654100 1.569600
47.746000 1.532600
47.838000 1.572300
47.929900 1.498600
48.021900 1.577200
48.113800 1.620500
48.205800 1.484600
48.297700 1.380600
48.389600 1.339700
48.481600 1.369800
48.573500 1.518800
48.665500 1.427500
48.757400 1.369400
48.849400 1.372800
48.941300 1.405400
49.033300 1.429600
49.125200 1.456000
49.217200 1.462800
49.309100 1.383300
49.401000 1.308200
49.493000 1.241300
49.584900 1.198100
49.676900 1.176400
49.768800 1.170400
49.860800 1.153200
49.952700 1.154400
50.044700 1.153500
50.136600 1.185400
50.228600 1.140200
50.320500 1.141100
50.412400 1.174100
50.504400 1.233500
50.596300 1.292500
50.688300 1.362900
50.780200 1.378100
50.872200 1.392500
50.964100 1.396300
51.056100 1.439800
51.148000 1.454700
51.239900 1.541500
51.331900 1.614300
51.423800 1.646600
51.515800 1.623600
51.607700 1.639100
51.699700 1.613100
51.791600 1.550900
51.883600 1.521600
51.975500 1.535600
52.067500 1.412200
52.159400 1.462100
52.251300 1.363100
52.343300 1.346700
52.435200 1.296900
52.527200 1.300100
52.619100 1.403100
52.711100 1.416100
52.803000 1.276700
52.895000 1.223000
52.986900 1.196700
53.078900 1.185500
53.170800 1.186500
53.262700 1.200600
53.354700 1.189500
53.446600 1.130400
53.538600 1.034500
53.630500 0.978300
53.722500 0.942800
53.814400 0.941200
53.906400 0.909900
53.998300 0.903000
54.090300 0.890900
54.182200 0.891300
54.274100 0.898300
54.366100 0.880100
54.458000 0.874400
54.550000 0.903400
54.641900 0.905200
54.733900 0.943600
54.825800 0.946500
54.917800 0.961400
55.009700 0.935200
55.101600 0.960000
55.193600 0.982300
55.285500 0.993200
55.377500 0.978000
55.469400 1.003900
55.561400 0.977100
55.653300 0.992500
55.745300 1.010500
55.837200 1.022100
55.929200 1.001700
56.021100 0.988300
56.113000 0.988200
56.205000 0.972600
56.296900 1.033900
56.388900 1.064700
56.480800 1.049800
56.572800 1.011300
56.664700 0.976200
56.756700 0.962700
56.848600 0.959900
56.940600 0.970100
57.032500 0.976100
57.124400 0.942900
57.216400 0.934800
57.308300 0.917500
57.400300 0.904400
57.492200 0.899600
57.584200 0.906000
57.676100 0.918200
57.768100 0.952500
57.860000 0.926000
57.952000 0.921600
58.043900 0.913700
58.135800 0.934200
58.227800 0.950300
58.319700 0.974900
58.411700 0.961200
58.503600 0.967300
58.595600 0.946600
58.687500 0.952200
58.779500 1.014900
58.871400 1.049700
58.963300 1.088600
59.055300 1.091700
59.147200 1.077700
59.239200 1.075400
59.331100 1.055400
59.423100 1.026400
59.515000 0.995700
59.607000 0.991400
59.698900 1.016400
59.790900 1.006100
59.882800 1.001600
59.974700 0.987900
60.066700 1.005100
60.158600 1.014200
60.250600 1.043800
60.342500 1.051100
60.434500 1.069000
60.526400 1.107400
60.618400 1.107500
60.710300 1.110300
60.802300 1.119500
60.894200 1.148600
60.986100 1.183000
61.078100 1.174000
61.170000 1.137000
61.262000 1.121600
61.353900 1.113900
61.445900 1.115500
61.537800 1.125300
61.629800 1.137500
61.721700 1.144000
61.813700 1.121600
61.905600 1.112100
61.997500 1.113300
62.089500 1.124800
62.181400 1.132700
62.273400 1.110600
62.365300 1.092600
62.457300 1.091500
62.549200 1.105600
62.641200 1.062700
62.733100 1.065900
62.825000 1.067900
62.917000 1.080300
63.008900 1.047100
63.100900 0.999300
63.192800 0.966300
63.284800 0.931300
63.376700 0.939700
63.468700 0.979500
63.560600 1.065000
63.652600 1.102400
63.744500 1.213100
63.836400 1.290500
63.928400 1.354900
64.020300 1.422500
64.112300 1.519100
64.204200 1.576300
64.296200 1.524500
64.388100 1.436600
64.480100 1.352500
64.572000 1.287400
64.664000 1.292300
64.755900 1.308500
64.847800 1.344600
64.939800 1.372100
65.031700 1.425400
65.123700 1.394700
65.215600 1.388100
65.307600 1.373500
65.399500 1.366600
65.491500 1.386000
65.583400 1.441000
65.675300 1.460300
65.767300 1.458600
65.859200 1.387700
65.951200 1.343100
66.043100 1.395600
66.135100 1.406400
66.227000 1.389700
66.319000 1.374600
66.410900 1.394100
66.502900 1.421200
66.594800 1.405300
66.686700 1.435400
66.778700 1.434000
66.870600 1.389500
66.962600 1.361500
67.054500 1.387500
67.146500 1.399100
67.238400 1.396000
67.330400 1.424000
67.422300 1.401500
67.514300 1.392800
67.606200 1.342400
67.698100 1.355400
67.790100 1.372600
67.882000 1.363700
67.974000 1.341300
68.065900 1.335400
68.157900 1.358300
68.249800 1.308600
68.341800 1.328100
68.433700 1.345000
68.525700 1.401500
68.617600 1.303000
68.709500 1.281300
68.801500 1.260600
68.893400 1.252800
68.985400 1.245400
69.077300 1.246600
69.169300 1.253900
69.261200 1.252900
69.353200 1.243000
69.445100 1.207100
69.537000 1.200000
69.629000 1.144700
69.720900 1.163900
69.812900 1.133200
69.904800 1.141300
69.996800 1.128200
70.088700 1.120800
70.180700 1.117900
70.272600 1.138900
70.364600 1.191600
70.456500 1.203400
70.548400 1.228500
70.640400 1.226300
70.732300 1.196700
70.824300 1.144300
70.916200 1.132000
71.008200 1.075600
71.100100 1.048200
71.192100 1.039800
71.284000 1.053800
71.376000 1.080300
71.467900 1.149100
71.559800 1.143500
71.651800 1.169700
71.743700 1.170900
71.835700 1.160900
71.927600 1.138500
72.019600 1.137000
72.111500 1.173200
72.203500 1.179200
72.295400 1.265300
72.387400 1.252200
72.479300 1.271300
72.571200 1.281600
72.663200 1.306500
72.755100 1.306700
72.847100 1.274800
72.939000 1.259700
73.031000 1.255500
73.122900 1.236600
73.214900 1.191800
73.306800 1.169600
73.398700 1.171000
73.490700 1.170000
73.582600 1.178900
73.674600 1.181000
73.766500 1.171800
73.858500 1.222000
73.950400 1.242300
74.042400 1.262900
74.134300 1.251600
74.226300 1.246300
74.318200 1.247900
74.410100 1.214700
74.502100 1.148900
74.594000 1.124200
74.686000 1.093700
74.777900 1.058500
74.869900 1.040600
74.961800 1.029100
75.053800 1.060200
75.145700 1.117700
75.237700 1.219700
75.329600 1.228200
75.421500 1.241500
75.513500 1.172800
75.605400 1.207900
75.697400 1.219300
75.789300 1.183700
75.881300 1.163700
75.973200 1.155200
76.065200 1.176200
76.157100 1.194600
76.249100 1.206700
76.341000 1.236800
76.432900 1.205700
76.524900 1.183100
76.616800 1.176100
76.708800 1.185200
76.800700 1.208900
76.892700 1.245600
76.984600 1.269600
77.076600 1.287400
77.168500 1.232100
77.260400 1.197900
77.352400 1.226100
77.444300 1.236500
77.536300 1.280100
77.628200 1.253600
77.720200 1.198700
77.812100 1.166900
77.904100 1.186100
77.996000 1.203800
78.088000 1.273800
78.179900 1.295700
78.271800 1.298500
78.363800 1.244400
78.455700 1.202600
78.547700 1.198500
78.639600 1.196800
78.731600 1.188100
78.823500 1.200300
78.915500 1.204400
79.007400 1.223700
79.099400 1.242600
79.191300 1.266600
79.283200 1.337600
79.375200 1.364200
79.467100 1.422800
79.559100 1.401900
79.651000 1.364900
79.743000 1.338800
79.834900 1.298200
79.926900 1.257800
80.018800 1.230400
80.110800 1.249700
80.202700 1.325200
80.294600 1.371500
80.386600 1.379300
80.478500 1.332200
80.570500 1.317800
80.662400 1.350300
80.754400 1.359200
80.846300 1.373700
80.938300 1.380100
81.030200 1.355700
81.122100 1.301200
81.214100 1.301800
81.306000 1.215200
81.398000 1.209200
81.489900 1.197300
81.581900 1.147100
81.673800 1.117400
81.765800 1.142500
81.857700 1.167900
81.949700 1.183800
82.041600 1.146100
82.133500 1.133200
82.225500 1.131700
82.317400 1.157100
82.409400 1.196900
82.501300 1.241800
82.593300 1.286300
82.685200 1.299600
82.777200 1.313300
82.869100 1.279300
82.961100 1.252700
83.053000 1.273600
83.144900 1.266500
83.236900 1.273100
83.328800 1.265700
83.420800 1.293500
83.512700 1.407800
83.604700 1.314700
83.696600 1.319900
83.788600 1.319100
83.880500 1.326200
83.972500 1.304800
84.064400 1.288900
84.156300 1.301900
84.248300 1.328000
84.340200 1.304900
84.432200 1.287800
84.524100 1.272600
84.616100 1.271100
84.708000 1.270900
84.800000 1.273800
84.891900 1.280700
84.983800 1.285500
85.075800 1.334200
85.167700 1.381300
85.259700 1.375000
85.351600 1.375200
85.443600 1.372100
85.535500 1.398600
85.627500 1.402300
85.719400 1.406800
85.811400 1.405000
85.903300 1.345300
85.995200 1.380300
86.087200 1.342500
86.179100 1.317800
86.271100 1.314700
86.363000 1.334300
86.455000 1.371200
86.546900 1.302600
86.638900 1.268600
86.730800 1.250100
86.822800 1.283000
86.914700 1.280100
87.006600 1.314300
87.098600 1.324400
87.190500 1.324300
87.282500 1.361100
87.374400 1.411900
87.466400 1.430900
87.558300 1.446800
87.650300 1.516200
87.742200 1.432600
87.834200 1.402400
87.926100 1.384300
88.018000 1.385100
88.110000 1.407300
88.201900 1.453600
88.293900 1.452600
88.385800 1.494400
88.477800 1.455000
88.569700 1.386200
88.661700 1.366200
88.753600 1.350000
88.845500 1.346300
88.937500 1.300400
89.029400 1.284900
89.121400 1.270900
89.213300 1.256100
89.305300 1.271200
89.397200 1.277800
89.489200 1.284600
89.581100 1.322700
89.673100 1.330600
89.765000 1.364100
89.856900 1.380400
89.948900 1.397900
90.040800 1.420500
90.132800 1.439900
90.224700 1.446900
90.316700 1.447100
90.408600 1.440700
90.500600 1.420000
90.592500 1.422800
90.684500 1.425100
90.776400 1.455400
90.868300 1.518200
90.960300 1.525300
91.052200 1.543200
91.144200 1.563500
91.236100 1.576500
91.328100 1.502100
91.420000 1.448900
91.512000 1.432400
91.603900 1.427400
91.695800 1.432700
91.787800 1.454400
91.879700 1.481000
91.971700 1.423900
92.063600 1.413700
92.155600 1.405500
92.247500 1.428900
92.339500 1.412100
92.431400 1.394600
92.523400 1.343700
92.615300 1.325700
92.707200 1.322400
92.799200 1.325000
92.891100 1.328600
92.983100 1.332000
93.075000 1.333500
93.167000 1.327900
93.258900 1.364600
93.350900 1.358900
93.442800 1.398200
93.534800 1.382200
93.626700 1.372300
93.718600 1.364900
93.810600 1.382700
93.902500 1.411400
93.994500 1.434100
94.086400 1.481500
94.178400 1.529800
94.270300 1.545600
94.362300 1.565900
94.454200 1.584000
94.546200 1.568300
94.638100 1.522700
94.730000 1.479500
94.822000 1.453200
94.913900 1.451200
95.005900 1.448700
95.097800 1.419000
95.189800 1.388600
95.281700 1.370100
95.373700 1.401100
95.465600 1.423500
95.557500 1.366800
95.649500 1.358200
95.741400 1.387800
95.833400 1.362800
95.925300 1.363400
96.017300 1.366000
96.109200 1.362100
96.201200 1.358300
96.293100 1.398500
96.385100 1.372300
96.477000 1.342500
96.568900 1.335300
96.660900 1.322500
96.752800 1.314600
96.844800 1.323400
96.936700 1.335500
97.028700 1.330700
97.120600 1.335700
97.212600 1.344100
97.304500 1.375000
97.396500 1.423900
97.488400 1.468400
97.580300 1.489100
97.672300 1.503300
97.764200 1.484800
97.856200 1.481000
97.948100 1.451700
98.040100 1.410300
98.132000 1.399800
98.224000 1.445700
98.315900 1.469300
98.407900 1.487400
98.499800 1.546800
98.591700 1.552900
98.683700 1.590400
98.775600 1.529100
98.867600 1.488900
98.959500 1.451600
99.051500 1.426600
99.143400 1.415200
99.235400 1.385600
99.327300 1.346900
99.419200 1.316900
99.511200 1.308100
99.603100 1.329200
99.695100 1.344600
99.787000 1.344100
99.879000 1.339000
99.970900 1.343000
100.062900 1.367700
100.154800 1.416200
100.246800 1.464600
100.338700 1.514600
100.430600 1.529100
100.522600 1.569400
100.614500 1.529600
100.706500 1.511200
100.798400 1.518600
100.890400 1.539400
100.982300 1.515100
101.074300 1.482900
101.166200 1.487200
101.258200 1.498900
101.350100 1.507900
101.442000 1.536900
101.534000 1.557600
101.625900 1.564500
101.717900 1.562900
101.809800 1.558300
101.901800 1.559700
101.993700 1.540600
102.085700 1.513700
102.177600 1.577200
102.269600 1.519600
102.361500 1.512900
102.453400 1.514700
102.545400 1.465700
102.637300 1.460900
102.729300 1.443000
102.821200 1.444200
102.913200 1.426900
103.005100 1.424400
103.097100 1.447500
103.189000 1.444700
103.280900 1.417200
103.372900 1.430300
103.464800 1.453100
103.556800 1.490300
103.648700 1.551200
103.740700 1.546200
103.832600 1.529900
103.924600 1.501900
104.016500 1.487300
104.108500 1.448100
104.200400 1.411300
104.292300 1.428800
104.384300 1.361400
104.476200 1.386400
104.568200 1.385700
104.660100 1.441300
104.752100 1.467200
104.844000 1.480400
104.936000 1.475800
105.027900 1.463200
105.119900 1.461000
105.211800 1.456100
105.303700 1.443100
105.395700 1.412900
105.487600 1.403800
105.579600 1.409500
105.671500 1.428300
105.763500 1.435900
105.855400 1.417300
105.947400 1.409500
106.039300 1.428700
106.131300 1.425900
106.223200 1.441700
106.315100 1.461800
106.407100 1.401900
106.499000 1.362800
106.591000 1.327900
106.682900 1.317100
106.774900 1.327000
106.866800 1.359700
106.958800 1.387800
107.050700 1.420800
107.142600 1.437500
107.234600 1.432300
107.326500 1.413400
107.418500 1.432100
107.510400 1.420300
107.602400 1.441700
107.694300 1.462800
107.786300 1.476400
107.878200 1.475600
107.970200 1.459300
108.062100 1.475000
108.154000 1.488700
108.246000 1.507800
108.337900 1.514100
108.429900 1.488900
108.521800 1.464400
108.613800 1.432700
108.705700 1.424900
108.797700 1.382100
108.889600 1.357200
108.981600 1.360000
109.073500 1.392300
109.165400 1.447500
109.257400 1.461800
109.349300 1.495600
109.441300 1.515000
109.533200 1.538800
109.625200 1.540700
109.717100 1.473300
109.809100 1.429200
109.901000 1.461800
109.993000 1.395600
110.084900 1.380700
110.176800 1.346600
110.268800 1.366000
110.360700 1.369900
110.452700 1.396200
110.544600 1.454300
110.636600 1.474600
110.728500 1.454500
110.820500 1.452700
110.912400 1.464800
111.004300 1.476700
111.096300 1.477000
111.188200 1.449900
111.280200 1.431500
111.372100 1.404300
111.464100 1.423800
111.556000 1.409600
111.648000 1.414700
111.739900 1.446600
111.831900 1.455300
111.923800 1.430200
112.015700 1.444000
112.107700 1.455000
112.199600 1.462500
112.291600 1.487500
112.383500 1.496300
112.475500 1.500200
112.567400 1.488700
112.659400 1.474500
112.751300 1.499500
112.843300 1.513800
112.935200 1.509000
113.027100 1.528400
113.119100 1.532700
113.211000 1.516500
113.303000 1.516100
113.394900 1.461900
113.486900 1.448300
113.578800 1.465400
113.670800 1.448700
113.762700 1.460600
113.854600 1.447500
113.946600 1.448600
114.038500 1.466500
114.130500 1.472800
114.222400 1.473300
114.314400 1.508100
114.406300 1.500600
114.498300 1.521300
114.590200 1.535600
114.682200 1.545600
114.774100 1.541500
114.866000 1.520800
114.958000 1.533500
115.049900 1.552200
115.141900 1.575600
115.233800 1.663800
115.325800 1.626900
115.417700 1.586000
115.509700 1.544500
115.601600 1.549500
115.693600 1.522000
115.785500 1.501400
115.877400 1.479400
115.969400 1.473700
116.061300 1.476300
116.153300 1.505400
116.245200 1.512200
116.337200 1.519400
116.429100 1.502100
116.521100 1.552000
116.613000 1.564400
116.705000 1.553500
116.796900 1.538800
116.888800 1.535700
116.980800 1.540100
117.072700 1.556000
117.164700 1.555300
117.256600 1.556800
117.348600 1.588800
117.440500 1.567700
117.532500 1.591000
117.624400 1.576500
117.716300 1.558500
117.808300 1.551400
117.900200 1.535500
117.992200 1.513100
118.084100 1.503800
118.176100 1.486500
118.268000 1.467800
118.360000 1.453500
118.451900 1.452400
118.543900 1.460700
118.635800 1.479300
118.727700 1.505600
118.819700 1.539800
118.911600 1.589900
119.003600 1.605200
119.095500 1.599600
119.187500 1.570100
119.279400 1.588000
119.371400 1.582100
119.463300 1.630900
119.555300 1.675000
119.647200 1.681200
119.739100 1.679700
119.831100 1.637400
119.923000 1.591300
120.015000 1.554100
120.106900 1.531400
120.198900 1.514600
120.290800 1.559400
120.382800 1.607900
120.474700 1.580700
120.566700 1.603600
120.658600 1.611400
120.750500 1.608400
120.842500 1.558100
120.934400 1.564100
121.026400 1.599700
121.118300 1.622900
121.210300 1.654000
121.302200 1.642800
121.394200 1.731000
121.486100 1.633000
121.578000 1.602700
121.670000 1.582500
121.761900 1.604700
121.853900 1.661300
121.945800 1.672400
122.037800 1.643100
122.129700 1.610700
122.221700 1.557500
122.313600 1.579200
122.405600 1.564800
122.497500 1.580600
122.589400 1.604800
122.681400 1.629700
122.773300 1.677100
122.865300 1.704100
122.957200 1.714200
123.049200 1.757900
123.141100 1.723900
123.233100 1.678100
123.325000 1.654700
123.417000 1.621000
123.508900 1.608300
123.600800 1.601400
123.692800 1.619200
123.784700 1.596600
123.876700 1.602900
123.968600 1.626800
124.060600 1.602000
124.152500 1.603100
124.244500 1.608400
124.336400 1.594100
124.428400 1.594400
124.520300 1.601700
124.612200 1.612500
124.704200 1.637300
124.796100 1.669700
124.888100 1.679900
124.980000 1.646000
125.072000 1.599600
125.163900 1.557700
125.255900 1.507400
125.347800 1.461800
125.439700 1.453400
125.531700 1.480500
125.623600 1.455900
125.715600 1.491300
125.807500 1.555300
125.899500 1.619700
125.991400 1.633200
126.083400 1.608200
126.175300 1.618500
126.267300 1.635600
126.359200 1.662100
126.451100 1.630100
126.543100 1.632000
126.635000 1.603900
126.727000 1.640600
126.818900 1.615000
126.910900 1.613200
127.002800 1.619600
127.094800 1.606800
127.186700 1.569300
127.278700 1.544100
127.370600 1.526700
127.462500 1.537100
127.554500 1.500300
127.646400 1.483100
127.738400 1.518800
127.830300 1.536800
127.922300 1.507200
128.014200 1.509000
128.106200 1.520100
128.198100 1.510500
128.290100 1.459500
128.382000 1.433300
128.473900 1.414900
128.565900 1.380200
128.657800 1.350200
128.749800 1.319300
128.841700 1.285500
128.933700 1.277500
129.025600 1.235900
129.117600 1.229000
129.209500 1.189200
129.301400 1.187900
129.393400 1.177700
129.485300 1.154700
129.577300 1.118800
129.669200 1.071100
129.761200 1.052000
129.853100 1.051000
129.945100 1.070400
130.037000 1.064500
130.129000 1.035900
130.220900 1.030600
130.312800 1.025600
130.404800 1.015500
130.496700 1.002100
130.588700 0.970800
130.680600 0.946100
130.772600 0.927600
130.864500 0.918100
130.956500 0.901200
131.048400 0.881500
131.140400 0.868900
131.232300 0.856600
131.324200 0.875100
131.416200 0.819900
131.508100 0.825900
131.600100 0.829700
131.692000 0.826400
131.784000 0.807700
131.875900 0.791100
131.967900 0.795700
132.059800 0.765400
132.151800 0.778100
132.243700 0.784900
132.335600 0.771400
132.427600 0.752600
132.519500 0.736500
132.611500 0.731300
132.703400 0.717500
132.795400 0.693600
132.887300 0.677900
132.979300 0.671800
133.071200 0.657600
133.163100 0.650300
133.255100 0.647300
133.347000 0.640000
133.439000 0.626200
133.530900 0.625600
133.622900 0.622200
133.714800 0.618000
133.806800 0.615800
133.898700 0.610300
133.990700 0.595600
134.082600 0.581300
134.174500 0.568700
134.266500 0.560100
134.358400 0.554700
134.450400 0.549900
134.542300 0.546900
134.634300 0.541200
134.726200 0.534700
134.818200 0.530800
134.910100 0.528500
135.002100 0.529900
135.094000 0.521500
135.185900 0.515900
135.277900 0.544300
135.369800 0.466800
135.461800 0.453900
135.553700 0.442000
135.645700 0.430800
135.737600 0.420300
135.829600 0.411200
135.921500 0.401400
136.013500 0.398200
136.105400 0.386500
136.197300 0.390100
136.289300 0.393600
136.381200 0.394500
136.473200 0.395600
136.565100 0.394200
136.657100 0.387700
136.749000 0.386000
136.841000 0.372800
136.932900 0.357300
137.024800 0.353200
137.116800 0.341500
137.208700 0.323500
137.300700 0.307500
137.392600 0.296700
137.484600 0.284400
137.576500 0.271700
137.668500 0.264600
137.760400 0.263700
137.852400 0.259600
137.944300 0.252700
138.036200 0.248300
138.128200 0.242300
138.220100 0.234600
138.312100 0.228700
138.404000 0.219900
138.496000 0.200000
138.587900 0.187700
138.679900 0.175800
138.771800 0.167400
138.863800 0.159200
138.955700 0.152700
139.047600 0.147200
139.139600 0.143700
139.231500 0.141000
139.323500 0.140800
139.415400 0.136700
139.507400 0.132800
139.599300 0.129300
139.691300 0.126000
139.783200 0.121600
139.875100 0.116800
139.967100 0.112300
140.059000 0.108500
140.151000 0.104700
140.242900 0.101100
140.334900 0.094800
140.426800 0.088000
140.518800 0.080300
140.610700 0.075000
140.702700 0.069000
140.794600 0.064700
140.886500 0.060500
140.978500 0.056000
141.070400 0.052300
141.162400 0.048400
141.254300 0.044200
141.346300 0.039100
141.438200 0.035900
141.530200 0.033200
141.622100 0.030800
141.714100 0.028000
141.806000 0.025200
141.897900 0.023100
141.989900 0.020900
142.081800 0.018400
142.173800 0.016600
142.265700 0.015300
142.357700 0.014200
142.449600 0.013100
142.541600 0.012200
142.633500 0.011300
142.725500 0.010600
142.817400 0.009900
142.909300 0.009200
143.001300 0.008600
143.093200 0.008000
143.185200 0.007300
143.277100 0.006600
143.369100 0.005900
143.461000 0.005300
143.553000 0.004700
143.644900 0.004200
143.736800 0.003700
143.828800 0.003200
143.920700 0.002700
144.012700 0.002300
144.104600 0.001900
144.196600 0.001500
144.288500 0.000700
144.380500 0.000300
144.472400 0.000000
144.564400 0.000000
144.656300 0.000000
144.748200 0.000000
144.840200 0.000000
144.932100 0.000000
145.024100 0.000000
145.116000 0.000000
145.208000 0.000000
145.299900 0.000000
145.391900 0.000000
145.483800 0.000000
145.575800 0.000000
145.667700 0.000000
145.759600 0.000000
145.851600 0.000000
145.943500 0.000000
146.035500 0.000000
146.127400 0.000000
146.219400 0.000000
146.311300 0.000000
146.403300 0.000000
146.495200 0.000000
146.587200 0.000000
146.679100 0.000000
146.771000 0.000000
146.863000 0.000000
146.954900 0.000000
147.046900 0.000000
147.138800 0.000000
147.230800 0.000000
147.322700 0.000000
147.414700 0.000000
147.506600 0.000000
147.598500 0.000000
147.690500 0.000000
147.782400 0.000000
147.874400 0.000000
147.966300 0.000000
148.058300 0.000000
148.150200 0.000000
148.242200 0.000000
148.334100 0.000000
148.426100 0.000000
148.518000 0.000000
148.609900 0.000000
148.701900 0.000000
148.793800 0.000000
148.885800 0.000000
148.977700 0.000000
149.069700 0.000000
149.161600 0.000000
149.253600 0.000000
149.345500 0.000000
149.437500 0.000000
149.529400 0.000000
149.621300 0.000000
149.713300 0.000000
149.805200 0.000000
149.897200 0.000000
149.989100 0.000000
150.081100 0.000000
150.173000 0.000000
150.265000 0.000000
150.356900 0.000000
150.448900 0.000000
150.540800 0.000000
150.632700 0.000000
150.724700 0.000000
150.816600 0.000000
150.908600 0.000000
151.000500 0.000000
151.092500 0.000000
151.184400 0.000000
151.276400 0.000000
151.368300 0.000000
151.460200 0.000000
151.552200 0.000000
151.644100 0.000000
151.736100 0.000000
151.828000 0.000000
151.920000 0.000000
152.011900 0.000000
152.103900 0.000000
152.195800 0.000000
152.287800 0.000000
152.379700 0.000000
152.471600 0.000000
152.563600 0.000000
152.655500 0.000000
152.747500 0.000000
152.839400 0.000000
e
