set title 'mp-8371 - Density of States'
set xlabel 'Energy (eV)'
set ylabel 'DOS (states/eV)'
set grid
set xrange [-10:10]
set yrange [0:4.154]
set xzeroaxis lt -1
set terminal png size 800,600
set output 'mp-8371_dos_gnuplot.png'
plot '-' using 1:2 with lines title 'DOS'
-28.975300 0.000000
-28.898800 0.000000
-28.822200 0.000000
-28.745700 0.000000
-28.669200 0.000000
-28.592600 0.000000
-28.516100 0.000000
-28.439600 0.000000
-28.363100 0.000000
-28.286500 0.000000
-28.210000 0.000000
-28.133500 0.000000
-28.056900 0.000000
-27.980400 0.000000
-27.903900 0.000000
-27.827300 0.000000
-27.750800 0.000000
-27.674300 0.000000
-27.597700 0.000000
-27.521200 0.000000
-27.444700 0.000000
-27.368200 0.000000
-27.291600 0.000000
-27.215100 0.000000
-27.138600 0.000000
-27.062000 0.000000
-26.985500 0.000000
-26.909000 0.000000
-26.832400 0.000000
-26.755900 0.000000
-26.679400 0.000000
-26.602900 0.000000
-26.526300 0.000000
-26.449800 0.000000
-26.373300 0.000000
-26.296700 0.000000
-26.220200 0.000000
-26.143700 0.000000
-26.067100 0.000000
-25.990600 0.000000
-25.914100 0.000000
-25.837600 0.000000
-25.761000 0.000000
-25.684500 0.000000
-25.608000 0.000000
-25.531400 0.000000
-25.454900 0.000000
-25.378400 0.000000
-25.301800 0.000000
-25.225300 0.000000
-25.148800 0.000000
-25.072200 0.000000
-24.995700 0.000000
-24.919200 0.000000
-24.842700 0.000000
-24.766100 0.000000
-24.689600 0.000000
-24.613100 0.000000
-24.536500 0.000000
-24.460000 0.000000
-24.383500 0.000000
-24.306900 0.000000
-24.230400 0.000000
-24.153900 0.000000
-24.077400 0.000000
-24.000800 0.000000
-23.924300 0.000000
-23.847800 0.000000
-23.771200 0.000000
-23.694700 0.000000
-23.618200 0.000000
-23.541600 0.000000
-23.465100 0.000000
-23.388600 0.000000
-23.312000 0.000000
-23.235500 0.000000
-23.159000 0.000000
-23.082500 0.000000
-23.005900 0.000000
-22.929400 0.000000
-22.852900 0.000000
-22.776300 0.000000
-22.699800 0.000000
-22.623300 0.000000
-22.546700 0.000000
-22.470200 0.000000
-22.393700 0.000000
-22.317200 0.000000
-22.240600 0.000000
-22.164100 0.000000
-22.087600 0.026300
-22.011000 1.959200
-21.934500 10.076700
-21.858000 11.459600
-21.781400 11.065500
-21.704900 12.904100
-21.628400 5.689000
-21.551800 5.827600
-21.475300 14.237600
-21.398800 5.014600
-21.322300 0.139900
-21.245700 0.000200
-21.169200 0.000000
-21.092700 0.000000
-21.016100 0.000000
-20.939600 0.000000
-20.863100 0.000000
-20.786500 0.000000
-20.710000 0.000000
-20.633500 0.000000
-20.557000 0.000000
-20.480400 0.000000
-20.403900 0.000000
-20.327400 0.000000
-20.250800 0.000000
-20.174300 0.000000
-20.097800 0.000000
-20.021200 0.000000
-19.944700 0.000000
-19.868200 0.000000
-19.791700 0.000000
-19.715100 0.000000
-19.638600 0.000000
-19.562100 0.000000
-19.485500 0.000000
-19.409000 0.000000
-19.332500 0.000000
-19.255900 0.000000
-19.179400 0.000000
-19.102900 0.000000
-19.026300 0.000000
-18.949800 0.000000
-18.873300 0.000000
-18.796800 0.000000
-18.720200 0.000000
-18.643700 0.000000
-18.567200 0.000000
-18.490600 0.000000
-18.414100 0.000000
-18.337600 0.000000
-18.261000 0.000000
-18.184500 0.000000
-18.108000 0.000000
-18.031500 0.000000
-17.954900 0.000000
-17.878400 0.000000
-17.801900 0.000000
-17.725300 0.000000
-17.648800 0.000000
-17.572300 0.000000
-17.495700 0.000000
-17.419200 0.000000
-17.342700 0.000000
-17.266100 0.000000
-17.189600 0.000000
-17.113100 0.000000
-17.036600 0.000000
-16.960000 0.000000
-16.883500 0.000000
-16.807000 0.000000
-16.730400 0.000000
-16.653900 0.000000
-16.577400 0.000000
-16.500800 0.000000
-16.424300 0.000000
-16.347800 0.000000
-16.271300 0.000000
-16.194700 0.000000
-16.118200 0.000000
-16.041700 0.000000
-15.965100 0.000000
-15.888600 0.000000
-15.812100 0.000000
-15.735500 0.000000
-15.659000 0.000000
-15.582500 0.000000
-15.505900 0.000000
-15.429400 0.000000
-15.352900 0.000000
-15.276400 0.000000
-15.199800 0.000000
-15.123300 0.000000
-15.046800 0.000000
-14.970200 0.000000
-14.893700 0.000000
-14.817200 0.000000
-14.740600 0.000000
-14.664100 0.000000
-14.587600 0.000000
-14.511100 0.000000
-14.434500 0.000000
-14.358000 0.000000
-14.281500 0.000000
-14.204900 0.000000
-14.128400 0.000000
-14.051900 0.000000
-13.975300 0.000000
-13.898800 0.000000
-13.822300 0.000000
-13.745800 0.000000
-13.669200 0.000000
-13.592700 0.000000
-13.516200 0.000000
-13.439600 0.000000
-13.363100 0.000000
-13.286600 0.000000
-13.210000 0.000000
-13.133500 0.000000
-13.057000 0.000000
-12.980400 0.000000
-12.903900 0.000000
-12.827400 0.000000
-12.750900 0.000000
-12.674300 0.000000
-12.597800 0.000000
-12.521300 0.000000
-12.444700 0.000000
-12.368200 0.000000
-12.291700 0.000000
-12.215100 0.000000
-12.138600 0.000000
-12.062100 0.000000
-11.985600 0.000000
-11.909000 0.000000
-11.832500 0.000000
-11.756000 0.000000
-11.679400 0.000000
-11.602900 0.000000
-11.526400 0.000000
-11.449800 0.000000
-11.373300 0.000000
-11.296800 0.000000
-11.220200 0.000000
-11.143700 0.000100
-11.067200 0.012500
-10.990700 0.107700
-10.914100 0.194000
-10.837600 0.336000
-10.761100 0.367500
-10.684500 0.526700
-10.608000 0.709800
-10.531500 0.802600
-10.454900 1.306100
-10.378400 1.915200
-10.301900 3.620100
-10.225400 4.612500
-10.148800 4.659100
-10.072300 3.600000
-9.995800 2.467100
-9.919200 0.859800
-9.842700 0.036400
-9.766200 0.000100
-9.689600 0.000000
-9.613100 0.000000
-9.536600 0.000000
-9.460000 0.000000
-9.383500 0.000000
-9.307000 0.000000
-9.230500 0.000000
-9.153900 0.000000
-9.077400 0.000000
-9.000900 0.000000
-8.924300 0.000000
-8.847800 0.000000
-8.771300 0.000000
-8.694700 0.000000
-8.618200 0.000000
-8.541700 0.000000
-8.465200 0.000000
-8.388600 0.000000
-8.312100 0.000000
-8.235600 0.000000
-8.159000 0.000000
-8.082500 0.000000
-8.006000 0.000000
-7.929400 0.000000
-7.852900 0.000000
-7.776400 0.000000
-7.699900 0.000000
-7.623300 0.000000
-7.546800 0.000000
-7.470300 0.000000
-7.393700 0.000000
-7.317200 0.000000
-7.240700 0.000000
-7.164100 0.000000
-7.087600 0.000000
-7.011100 0.000000
-6.934500 0.000000
-6.858000 0.000000
-6.781500 0.000000
-6.705000 0.000000
-6.628400 0.000000
-6.551900 0.000000
-6.475400 0.000000
-6.398800 0.000000
-6.322300 0.000000
-6.245800 0.000000
-6.169200 0.000000
-6.092700 0.000000
-6.016200 0.000000
-5.939700 0.000000
-5.863100 0.000000
-5.786600 0.000000
-5.710100 0.000000
-5.633500 0.000000
-5.557000 0.000000
-5.480500 0.000000
-5.403900 0.000000
-5.327400 0.000000
-5.250900 0.000000
-5.174300 0.000000
-5.097800 0.000000
-5.021300 0.000000
-4.944800 0.000000
-4.868200 0.000000
-4.791700 0.000000
-4.715200 0.000000
-4.638600 0.000000
-4.562100 0.000000
-4.485600 0.000000
-4.409000 0.000000
-4.332500 0.000000
-4.256000 0.000000
-4.179500 0.000000
-4.102900 0.000000
-4.026400 0.000000
-3.949900 0.000000
-3.873300 0.000000
-3.796800 0.000000
-3.720300 0.000000
-3.643700 0.000000
-3.567200 0.000000
-3.490700 0.000000
-3.414200 0.000000
-3.337600 0.000000
-3.261100 0.000300
-3.184600 0.039800
-3.108000 0.226300
-3.031500 0.454500
-2.955000 0.809100
-2.878400 1.481200
-2.801900 2.255700
-2.725400 1.959200
-2.648800 1.844400
-2.572300 1.531300
-2.495800 1.310200
-2.419300 1.313100
-2.342700 1.573900
-2.266200 0.790700
-2.189700 1.180900
-2.113100 0.891100
-2.036600 1.222700
-1.960100 0.946700
-1.883500 0.900300
-1.807000 0.698800
-1.730500 0.653000
-1.654000 1.145700
-1.577400 0.821400
-1.500900 0.530800
-1.424400 0.711700
-1.347800 0.583000
-1.271300 0.590600
-1.194800 0.608500
-1.118200 0.627500
-1.041700 0.366100
-0.965200 0.719600
-0.888600 0.949500
-0.812100 0.980400
-0.735600 1.201900
-0.659100 1.562400
-0.582500 2.013500
-0.506000 2.378900
-0.429500 2.307200
-0.352900 2.602000
-0.276400 2.078800
-0.199900 1.617100
-0.123300 1.352500
-0.046800 2.459400
0.029700 3.376700
0.106200 3.776200
0.182800 2.874600
0.259300 2.444700
0.335800 2.165600
0.412400 1.957600
0.488900 1.653200
0.565400 1.721700
0.642000 1.900000
0.718500 1.721600
0.795000 1.882700
0.871600 1.580500
0.948100 1.862000
1.024600 1.812500
1.101100 1.840500
1.177700 1.460500
1.254200 1.425600
1.330700 1.448900
1.407300 1.620800
1.483800 1.321700
1.560300 1.481800
1.636900 1.688200
1.713400 1.707700
1.789900 1.371000
1.866400 1.563000
1.943000 1.519400
2.019500 1.531300
2.096000 1.115100
2.172600 0.926600
2.249100 0.673200
2.325600 0.482200
2.402200 0.414100
2.478700 0.385600
2.555200 0.303100
2.631700 0.169400
2.708300 0.057800
2.784800 0.211500
2.861300 0.151900
2.937900 0.160200
3.014400 0.136300
3.090900 0.178300
3.167500 0.294000
3.244000 0.241500
3.320500 0.415100
3.397100 0.409700
3.473600 0.082500
3.550100 0.087000
3.626600 0.381700
3.703200 0.460100
3.779700 0.216100
3.856200 0.415300
3.932800 0.274700
4.009300 0.411900
4.085800 0.459200
4.162400 0.392600
4.238900 0.579300
4.315400 0.586500
4.391900 0.398400
4.468500 0.402400
4.545000 0.515700
4.621500 0.792000
4.698100 0.761100
4.774600 0.505000
4.851100 0.467600
4.927700 0.574000
5.004200 1.019900
5.080700 0.911200
5.157300 0.745300
5.233800 0.636900
5.310300 0.807200
5.386800 0.649900
5.463400 0.713700
5.539900 0.837000
5.616400 0.672200
5.693000 0.963800
5.769500 0.875600
5.846000 1.140700
5.922600 1.304800
5.999100 0.743300
6.075600 1.123400
6.152100 1.044800
6.228700 0.578200
6.305200 0.780300
6.381700 0.938900
6.458300 1.311000
6.534800 0.938300
6.611300 1.131000
6.687900 1.290400
6.764400 1.131300
6.840900 1.319800
6.917500 1.410500
6.994000 0.910300
7.070500 1.164400
7.147000 1.356400
7.223600 0.764900
7.300100 0.870000
7.376600 1.408000
7.453200 1.546500
7.529700 1.741300
7.606200 1.539400
7.682800 1.545300
7.759300 1.521200
7.835800 1.357300
7.912300 1.083100
7.988900 1.336900
8.065400 1.398300
8.141900 1.027300
8.218500 1.185300
8.295000 1.167000
8.371500 1.191800
8.448100 1.256100
8.524600 1.300400
8.601100 1.182600
8.677600 1.115000
8.754200 1.074400
8.830700 0.979400
8.907200 1.212900
8.983800 1.263500
9.060300 1.518500
9.136800 1.668900
9.213400 1.786900
9.289900 1.694200
9.366400 2.233300
9.443000 2.165100
9.519500 2.244600
9.596000 2.129900
9.672500 2.288200
9.749100 2.349500
9.825600 2.332400
9.902100 2.411200
9.978700 2.030900
10.055200 2.326500
10.131700 2.814100
10.208300 2.233200
10.284800 2.743600
10.361300 2.609900
10.437800 2.004300
10.514400 2.731600
10.590900 2.170900
10.667400 1.717200
10.744000 1.726400
10.820500 1.986100
10.897000 2.393500
10.973600 2.446600
11.050100 2.122700
11.126600 2.424500
11.203200 1.826100
11.279700 1.835400
11.356200 2.044900
11.432700 1.843800
11.509300 1.709200
11.585800 1.601600
11.662300 1.759500
11.738900 1.544400
11.815400 2.348000
11.891900 1.983400
11.968500 1.398000
12.045000 1.393000
12.121500 1.857900
12.198000 2.000900
12.274600 2.507100
12.351100 2.038800
12.427600 2.322900
12.504200 2.031900
12.580700 1.903800
12.657200 1.633400
12.733800 1.887900
12.810300 1.682300
12.886800 1.883900
12.963400 1.816400
13.039900 2.198800
13.116400 2.100700
13.192900 1.941800
13.269500 1.798700
13.346000 1.837400
13.422500 1.455700
13.499100 1.046400
13.575600 1.941300
13.652100 2.069100
13.728700 2.260600
13.805200 1.701400
13.881700 1.118200
13.958200 1.015800
14.034800 1.477200
14.111300 1.613400
14.187800 1.794200
14.264400 1.796500
14.340900 0.913200
14.417400 0.803700
14.494000 0.987600
14.570500 1.205900
14.647000 1.409500
14.723500 1.204900
14.800100 0.910900
14.876600 1.206200
14.953100 1.432700
15.029700 1.124700
15.106200 1.207100
15.182700 1.019500
15.259300 1.342400
15.335800 0.656300
15.412300 0.682400
15.488900 0.760900
15.565400 0.495300
15.641900 0.698700
15.718400 0.972500
15.795000 0.639700
15.871500 0.619500
15.948000 0.443300
16.024600 0.645700
16.101100 0.637100
16.177600 0.380600
16.254200 0.342300
16.330700 0.744100
16.407200 0.683400
16.483700 0.534900
16.560300 0.740200
16.636800 0.975200
16.713300 1.212300
16.789900 1.025800
16.866400 0.932100
16.942900 1.576900
17.019500 1.356500
17.096000 1.148500
17.172500 1.143400
17.249100 1.042100
17.325600 1.224100
17.402100 1.032700
17.478600 1.125900
17.555200 1.524100
17.631700 1.045100
17.708200 1.024500
17.784800 1.131800
17.861300 1.119600
17.937800 0.856000
18.014400 1.340800
18.090900 1.059100
18.167400 0.849600
18.243900 0.644600
18.320500 0.781000
18.397000 1.179100
18.473500 1.653600
18.550100 1.109200
18.626600 1.491300
18.703100 1.152800
18.779700 1.262000
18.856200 1.145600
18.932700 1.325100
19.009300 1.416100
19.085800 1.445400
19.162300 1.542600
19.238800 1.435600
19.315400 1.712500
19.391900 1.581100
19.468400 1.321600
19.545000 1.587700
19.621500 1.348100
19.698000 1.382600
19.774600 1.358700
19.851100 1.202100
19.927600 1.140700
20.004100 1.580200
20.080700 1.532100
20.157200 1.767200
20.233700 1.574700
20.310300 0.876900
20.386800 0.291400
20.463300 0.899900
20.539900 1.618100
20.616400 1.390200
20.692900 1.258400
20.769400 1.203300
20.846000 1.338900
20.922500 1.799800
20.999000 1.505500
21.075600 1.412200
21.152100 1.504700
21.228600 1.202500
21.305200 1.844500
21.381700 1.791900
21.458200 1.738600
21.534800 1.821300
21.611300 1.790300
21.687800 1.200300
21.764300 0.837400
21.840900 0.556900
21.917400 0.628700
21.993900 0.773800
22.070500 1.466400
22.147000 1.180400
22.223500 0.834600
22.300100 0.538400
22.376600 0.569100
22.453100 0.848500
22.529600 1.015200
22.606200 1.082300
22.682700 0.947000
22.759200 0.951000
22.835800 0.745200
22.912300 1.143800
22.988800 1.047000
23.065400 0.715300
23.141900 1.049600
23.218400 0.992400
23.295000 0.551700
23.371500 0.563700
23.448000 1.262000
23.524500 1.379700
23.601100 1.388100
23.677600 1.772500
23.754100 2.120600
23.830700 2.041500
23.907200 1.660400
23.983700 1.475300
24.060300 1.687300
24.136800 1.916500
24.213300 2.065000
24.289800 1.711400
24.366400 1.768200
24.442900 1.805100
24.519400 2.620700
24.596000 2.593900
24.672500 1.872100
24.749000 1.866600
24.825600 1.782100
24.902100 1.485800
24.978600 1.588900
25.055100 1.458100
25.131700 1.071100
25.208200 0.869700
25.284700 1.210900
25.361300 1.276100
25.437800 1.193000
25.514300 1.193000
25.590900 0.830600
25.667400 0.749700
25.743900 0.867600
25.820500 1.627100
25.897000 1.544900
25.973500 1.447400
26.050000 2.059600
26.126600 1.767500
26.203100 1.653700
26.279600 1.705500
26.356200 1.408500
26.432700 1.367800
26.509200 1.344600
26.585800 1.579600
26.662300 1.327000
26.738800 1.691700
26.815300 1.477900
26.891900 1.206900
26.968400 1.093500
27.044900 1.541200
27.121500 2.003400
27.198000 1.909500
27.274500 1.610300
27.351100 1.505000
27.427600 1.465800
27.504100 1.693000
27.580700 1.563900
27.657200 1.614700
27.733700 1.846300
27.810200 1.370200
27.886800 1.741000
27.963300 2.174700
28.039800 2.320400
28.116400 1.563500
28.192900 1.348400
28.269400 1.834300
28.346000 1.891800
28.422500 1.912200
28.499000 2.275200
28.575500 1.521400
28.652100 2.177800
28.728600 2.059200
28.805100 2.597300
28.881700 1.970900
28.958200 1.450000
29.034700 2.146900
29.111300 1.951000
29.187800 1.708600
29.264300 2.284400
29.340900 2.584300
29.417400 1.960600
29.493900 2.007900
29.570400 1.871000
29.647000 1.664100
29.723500 1.348600
29.800000 1.206200
29.876600 1.597700
29.953100 1.231300
30.029600 1.674400
30.106200 1.439500
30.182700 1.449600
30.259200 1.327300
30.335700 1.159600
30.412300 1.052000
30.488800 1.264000
30.565300 1.238700
30.641900 1.673100
30.718400 1.296600
30.794900 1.444900
30.871500 1.538600
30.948000 0.792900
31.024500 0.952300
31.101000 1.390600
31.177600 1.837900
31.254100 2.503600
31.330600 1.556000
31.407200 1.302900
31.483700 1.415000
31.560200 1.415300
31.636800 1.653500
31.713300 1.060600
31.789800 0.867900
31.866400 1.071000
31.942900 1.262800
32.019400 1.020000
32.095900 0.876400
32.172500 0.953800
32.249000 1.352700
32.325500 1.504600
32.402100 1.275500
32.478600 1.189500
32.555100 1.320000
32.631700 1.631000
32.708200 1.764400
32.784700 1.862400
32.861200 1.607500
32.937800 1.402800
33.014300 1.358900
33.090800 1.383500
33.167400 1.473000
33.243900 1.752300
33.320400 1.789800
33.397000 1.363900
33.473500 1.477200
33.550000 1.613600
33.626600 1.835800
33.703100 1.913400
33.779600 1.570100
33.856100 1.445700
33.932700 1.514800
34.009200 1.531500
34.085700 1.800400
34.162300 1.952200
34.238800 1.844900
34.315300 2.054200
34.391900 1.846500
34.468400 2.044900
34.544900 2.344000
34.621400 2.295200
34.698000 1.536500
34.774500 1.832300
34.851000 1.801000
34.927600 1.183500
35.004100 1.497300
35.080600 1.763800
35.157200 1.651800
35.233700 1.891300
35.310200 2.499000
35.386800 2.493800
35.463300 2.210400
35.539800 2.183900
35.616300 2.283200
35.692900 2.256400
35.769400 1.464400
35.845900 1.251600
35.922500 1.367200
35.999000 1.976600
36.075500 1.905200
36.152100 1.408600
36.228600 1.632600
36.305100 1.548200
36.381600 1.435000
36.458200 1.701400
36.534700 1.577500
36.611200 1.905400
36.687800 2.221600
36.764300 1.913500
36.840800 1.970400
36.917400 2.348400
36.993900 1.921200
37.070400 2.344900
37.146900 2.319200
37.223500 2.210900
37.300000 2.549500
37.376500 1.931900
37.453100 2.514200
37.529600 2.760700
37.606100 1.799400
37.682700 1.544900
37.759200 1.892400
37.835700 2.062200
37.912300 1.803400
37.988800 1.585000
38.065300 1.389700
38.141800 1.238100
38.218400 1.478600
38.294900 1.614400
38.371400 1.821000
38.448000 1.944500
38.524500 1.452800
38.601000 1.193900
38.677600 1.709600
38.754100 1.813000
38.830600 1.415800
38.907100 1.585800
38.983700 1.771900
39.060200 2.004100
39.136700 1.786800
39.213300 1.837400
39.289800 1.742000
39.366300 1.886900
39.442900 1.856700
39.519400 2.459800
39.595900 2.452700
39.672500 2.369000
39.749000 2.205700
39.825500 1.829700
39.902000 1.738700
39.978600 1.695200
40.055100 1.903100
40.131600 1.755600
40.208200 1.649500
40.284700 1.451300
40.361200 1.891700
40.437800 1.836000
40.514300 1.872500
40.590800 2.091900
40.667300 2.314300
40.743900 2.278100
40.820400 1.694400
40.896900 2.067100
40.973500 1.895700
41.050000 2.360900
41.126500 2.320100
41.203100 2.221600
41.279600 1.979800
41.356100 1.860700
41.432700 1.824400
41.509200 2.199600
41.585700 2.654300
41.662200 2.276300
41.738800 1.795800
41.815300 1.824800
41.891800 1.979000
41.968400 1.814400
42.044900 1.735100
42.121400 2.130200
42.198000 2.141300
42.274500 2.098700
42.351000 2.489700
42.427500 2.610400
42.504100 2.273000
42.580600 1.894200
42.657100 1.828900
42.733700 2.127900
42.810200 2.437300
42.886700 2.101800
42.963300 2.489900
43.039800 2.579100
43.116300 2.026600
43.192800 1.723700
43.269400 2.163300
43.345900 2.217800
43.422400 1.793700
43.499000 1.493400
43.575500 1.593100
43.652000 2.224100
43.728600 2.193700
43.805100 1.341000
43.881600 1.977800
43.958200 1.839700
44.034700 1.378900
44.111200 1.705900
44.187700 2.277900
44.264300 1.547100
44.340800 1.699600
44.417300 1.837700
44.493900 1.665800
44.570400 1.924500
44.646900 2.062500
44.723500 1.814600
44.800000 1.684600
44.876500 1.641500
44.953000 2.061200
45.029600 2.208900
45.106100 2.756800
45.182600 2.016400
45.259200 2.006700
45.335700 2.013800
45.412200 1.573500
45.488800 1.578900
45.565300 1.543900
45.641800 1.549900
45.718400 1.252000
45.794900 1.399500
45.871400 1.376100
45.947900 1.623100
46.024500 1.858000
46.101000 2.005200
46.177500 1.550600
46.254100 1.636000
46.330600 1.774500
46.407100 1.747900
46.483700 1.394600
46.560200 1.478100
46.636700 1.433700
46.713200 1.709700
46.789800 2.124300
46.866300 1.929000
46.942800 2.081300
47.019400 1.941500
47.095900 1.674600
47.172400 2.097900
47.249000 2.144000
47.325500 1.780300
47.402000 1.912000
47.478500 1.925200
47.555100 1.797300
47.631600 1.574700
47.708100 1.698500
47.784700 1.934800
47.861200 1.968300
47.937700 2.335400
48.014300 2.127500
48.090800 2.110100
48.167300 1.888700
48.243900 1.657000
48.320400 2.142300
48.396900 3.098400
48.473400 3.161600
48.550000 2.940400
48.626500 3.171200
48.703000 2.223900
48.779600 2.520400
48.856100 2.575800
48.932600 1.864100
49.009200 2.027700
49.085700 3.021300
49.162200 3.025600
49.238700 2.270500
49.315300 2.588400
49.391800 2.706300
49.468300 2.685200
49.544900 3.667600
49.621400 3.164200
49.697900 2.999900
49.774500 2.878200
49.851000 2.325600
49.927500 2.004800
50.004100 2.081600
50.080600 1.322000
50.157100 1.782000
50.233600 2.005700
50.310200 1.874000
50.386700 2.093500
50.463200 1.855800
50.539800 2.413600
50.616300 2.360700
50.692800 2.070100
50.769400 2.039800
50.845900 2.104800
50.922400 2.075900
50.998900 1.886300
51.075500 1.917100
51.152000 2.316600
51.228500 2.360200
51.305100 2.148900
51.381600 1.911100
51.458100 1.910000
51.534700 2.373700
51.611200 2.823300
51.687700 2.771400
51.764300 2.479300
51.840800 2.270000
51.917300 2.616700
51.993800 2.168800
52.070400 2.077200
52.146900 2.369600
52.223400 2.047300
52.300000 1.926600
52.376500 2.108300
52.453000 2.047500
52.529600 2.107600
52.606100 2.074700
52.682600 2.594800
52.759100 2.387700
52.835700 1.917200
52.912200 1.864900
52.988700 1.670000
53.065300 1.723800
53.141800 1.980200
53.218300 2.188400
53.294900 2.375300
53.371400 2.509200
53.447900 1.862300
53.524400 1.905300
53.601000 2.046300
53.677500 2.250000
53.754000 2.119400
53.830600 2.098000
53.907100 2.513800
53.983600 2.579000
54.060200 2.011900
54.136700 2.046000
54.213200 2.551100
54.289800 2.343600
54.366300 1.682500
54.442800 1.457800
54.519300 2.032300
54.595900 1.947700
54.672400 1.913400
54.748900 2.414600
54.825500 2.484600
54.902000 2.923800
54.978500 2.426100
55.055100 1.977700
55.131600 1.351300
55.208100 1.205000
55.284600 1.563500
55.361200 1.822500
55.437700 2.146900
55.514200 1.963800
55.590800 1.602900
55.667300 1.975100
55.743800 2.062600
55.820400 1.522000
55.896900 1.496500
55.973400 1.756000
56.050000 1.422300
56.126500 1.553200
56.203000 2.328200
56.279500 1.688100
56.356100 2.255000
56.432600 2.100700
56.509100 2.294000
56.585700 2.541500
56.662200 2.092800
56.738700 2.403700
56.815300 2.249400
56.891800 1.927700
56.968300 1.595800
57.044800 1.724600
57.121400 1.882400
57.197900 2.135600
57.274400 2.325900
57.351000 2.599100
57.427500 1.940300
57.504000 1.518800
57.580600 2.272700
57.657100 1.880900
57.733600 1.381100
57.810200 1.901500
57.886700 2.118500
57.963200 2.149500
58.039700 2.457500
58.116300 2.885400
58.192800 2.294800
58.269300 1.885400
58.345900 2.236400
58.422400 2.091000
58.498900 2.423500
58.575500 2.313300
58.652000 2.165400
58.728500 2.291800
58.805000 1.992800
58.881600 2.136500
58.958100 2.327900
59.034600 2.480200
59.111200 2.895300
59.187700 2.860600
59.264200 2.572100
59.340800 1.827500
59.417300 1.886300
59.493800 1.881900
59.570300 2.102000
59.646900 2.647900
59.723400 2.166400
59.799900 1.435700
59.876500 1.662500
59.953000 2.755900
60.029500 2.731200
60.106100 2.800200
60.182600 2.721000
60.259100 1.884800
60.335700 1.978800
60.412200 2.124700
60.488700 2.379400
60.565200 1.889300
60.641800 1.886400
60.718300 2.541400
60.794800 2.694900
60.871400 2.646200
60.947900 2.510900
61.024400 1.849800
61.101000 1.984600
61.177500 2.206800
61.254000 2.449200
61.330500 2.124600
61.407100 2.255200
61.483600 2.547300
61.560100 2.585000
61.636700 2.147500
61.713200 1.948100
61.789700 2.108500
61.866300 2.153900
61.942800 2.325200
62.019300 2.573400
62.095900 2.010500
62.172400 2.236100
62.248900 2.318000
62.325400 2.526200
62.402000 2.512300
62.478500 2.295300
62.555000 1.952800
62.631600 2.138600
62.708100 2.286800
62.784600 2.419500
62.861200 2.451000
62.937700 2.157400
63.014200 1.897100
63.090700 1.652300
63.167300 2.580600
63.243800 2.517300
63.320300 1.751100
63.396900 1.937300
63.473400 2.207100
63.549900 1.998300
63.626500 1.995300
63.703000 2.732600
63.779500 2.909400
63.856100 2.863500
63.932600 2.129500
64.009100 1.854400
64.085600 1.999000
64.162200 2.283000
64.238700 2.652300
64.315200 2.312500
64.391800 2.831600
64.468300 2.162100
64.544800 2.449700
64.621400 2.476900
64.697900 1.854200
64.774400 2.329100
64.850900 2.986400
64.927500 2.942100
65.004000 2.970200
65.080500 3.020700
65.157100 2.326700
65.233600 1.912300
65.310100 1.694200
65.386700 2.145700
65.463200 2.338900
65.539700 2.468200
65.616200 2.394000
65.692800 2.318800
65.769300 2.095700
65.845800 2.049100
65.922400 2.591600
65.998900 2.243900
66.075400 2.418100
66.152000 3.242000
66.228500 3.006000
66.305000 2.560900
66.381600 2.227600
66.458100 2.178300
66.534600 2.494400
66.611100 2.566100
66.687700 1.666200
66.764200 2.138400
66.840700 2.299200
66.917300 2.043300
66.993800 1.830200
67.070300 2.522900
67.146900 2.999100
67.223400 2.188700
67.299900 2.451500
67.376400 2.406700
67.453000 2.148000
67.529500 2.233700
67.606000 2.344700
67.682600 2.902600
67.759100 2.689200
67.835600 2.407400
67.912200 2.547200
67.988700 2.655300
68.065200 2.065000
68.141800 2.237100
68.218300 2.420700
68.294800 2.523900
68.371300 2.532500
68.447900 1.694100
68.524400 2.084600
68.600900 2.073700
68.677500 2.384300
68.754000 2.545900
68.830500 2.442600
68.907100 2.031100
68.983600 2.033200
69.060100 2.267000
69.136600 3.077300
69.213200 3.027200
69.289700 2.018400
69.366200 2.165700
69.442800 2.836400
69.519300 2.634600
69.595800 2.828400
69.672400 2.832000
69.748900 2.430400
69.825400 2.189500
69.901900 2.049500
69.978500 2.616500
70.055000 2.434000
70.131500 2.684800
70.208100 2.234800
70.284600 2.293900
70.361100 2.526400
70.437700 2.168200
70.514200 2.266000
70.590700 2.459600
70.667300 2.141900
70.743800 2.494000
70.820300 2.915000
70.896800 2.626400
70.973400 2.131700
71.049900 2.333800
71.126400 1.624900
71.203000 2.387900
71.279500 2.844500
71.356000 2.403600
71.432600 2.496900
71.509100 1.992700
71.585600 1.564900
71.662100 1.963500
71.738700 2.839200
71.815200 2.896600
71.891700 2.510400
71.968300 3.026900
72.044800 2.840800
72.121300 2.683400
72.197900 2.621600
72.274400 3.197300
72.350900 3.073000
72.427500 3.591200
72.504000 3.230000
72.580500 3.085200
72.657000 2.926900
72.733600 2.854300
72.810100 2.346700
72.886600 2.471500
72.963200 2.249300
73.039700 2.473600
73.116200 2.609300
73.192800 2.930800
73.269300 2.983900
73.345800 2.260300
73.422300 2.560300
73.498900 2.892800
73.575400 2.873800
73.651900 2.588200
73.728500 2.193700
73.805000 2.446800
73.881500 3.001400
73.958100 3.296900
74.034600 2.386900
74.111100 2.099000
74.187700 2.164400
74.264200 2.610700
74.340700 2.604500
74.417200 2.257400
74.493800 2.296600
74.570300 2.061200
74.646800 2.521900
74.723400 3.008800
74.799900 2.223700
74.876400 1.899200
74.953000 2.453600
75.029500 2.383500
75.106000 2.980000
75.182500 3.035700
75.259100 2.454300
75.335600 2.260800
75.412100 2.448300
75.488700 1.766400
75.565200 2.027100
75.641700 1.834000
75.718300 2.181100
75.794800 2.471700
75.871300 2.707200
75.947800 2.542600
76.024400 2.695500
76.100900 2.814800
76.177400 2.601400
76.254000 3.250900
76.330500 2.999500
76.407000 2.400500
76.483600 2.570200
76.560100 3.153800
76.636600 2.445100
76.713200 2.307900
76.789700 2.265900
76.866200 2.592300
76.942700 3.074600
77.019300 2.802900
77.095800 2.688500
77.172300 2.331300
77.248900 2.637000
77.325400 2.650900
77.401900 2.947500
77.478500 3.495700
77.555000 2.957900
77.631500 2.397400
77.708000 2.801600
77.784600 3.864200
77.861100 3.630700
77.937600 2.715600
78.014200 2.330400
78.090700 2.428900
78.167200 2.497300
78.243800 2.514700
78.320300 2.978900
78.396800 2.863100
78.473400 3.295600
78.549900 3.004300
78.626400 2.116600
78.702900 2.223200
78.779500 3.244900
78.856000 3.270100
78.932500 2.691400
79.009100 2.679000
79.085600 2.183400
79.162100 2.418000
79.238700 2.902200
79.315200 2.783000
79.391700 2.372800
79.468200 2.197300
79.544800 2.267300
79.621300 3.024400
79.697800 3.181000
79.774400 3.592600
79.850900 2.512000
79.927400 2.710800
80.004000 1.665600
80.080500 1.961200
80.157000 2.534900
80.233600 2.464100
80.310100 2.042100
80.386600 2.009000
80.463100 1.764000
80.539700 1.730100
80.616200 2.064100
80.692700 2.232400
80.769300 2.498300
80.845800 2.997500
80.922300 2.934700
80.998900 2.932500
81.075400 2.130800
81.151900 2.125500
81.228400 2.096300
81.305000 2.031300
81.381500 2.374700
81.458000 2.502200
81.534600 2.981000
81.611100 3.306700
81.687600 2.636000
81.764200 3.178800
81.840700 3.146400
81.917200 2.624000
81.993700 2.681100
82.070300 2.854400
82.146800 2.923900
82.223300 2.326100
82.299900 2.099000
82.376400 2.074700
82.452900 2.654500
82.529500 2.511400
82.606000 2.956200
82.682500 2.354200
82.759100 1.831000
82.835600 2.699300
82.912100 3.044000
82.988600 2.815400
83.065200 2.355800
83.141700 1.563900
83.218200 1.912600
83.294800 2.235300
83.371300 2.086200
83.447800 2.123900
83.524400 2.553900
83.600900 2.824300
83.677400 3.331800
83.753900 2.748000
83.830500 2.904200
83.907000 3.284600
83.983500 2.753500
84.060100 2.393000
84.136600 2.712200
84.213100 2.626200
84.289700 2.934700
84.366200 2.603800
84.442700 2.632300
84.519300 2.565500
84.595800 2.164500
84.672300 2.258700
84.748800 2.573300
84.825400 2.704600
84.901900 2.489000
84.978400 2.666000
85.055000 2.769500
85.131500 3.146700
85.208000 2.849700
85.284600 2.340900
85.361100 2.910000
85.437600 2.796400
85.514100 3.029000
85.590700 3.199300
85.667200 2.858600
85.743700 2.758000
85.820300 2.872900
85.896800 2.207800
85.973300 2.456900
86.049900 2.896900
86.126400 2.301300
86.202900 2.816000
86.279500 2.570200
86.356000 2.449800
86.432500 2.714600
86.509000 2.629800
86.585600 2.760800
86.662100 2.295400
86.738600 3.214900
86.815200 3.275800
86.891700 2.468400
86.968200 2.791800
87.044800 2.346200
87.121300 2.056400
87.197800 2.528000
87.274300 3.346800
87.350900 2.875400
87.427400 2.524100
87.503900 2.461700
87.580500 2.497300
87.657000 2.026000
87.733500 2.710900
87.810100 3.327200
87.886600 3.118400
87.963100 2.467000
88.039600 3.073200
88.116200 2.994900
88.192700 2.864100
88.269200 2.808000
88.345800 2.707400
88.422300 3.318600
88.498800 2.545200
88.575400 2.282300
88.651900 2.765200
88.728400 2.239900
88.805000 2.541200
88.881500 2.604600
88.958000 2.778000
89.034500 2.573800
89.111100 2.226800
89.187600 1.980300
89.264100 2.312100
89.340700 2.514200
89.417200 2.166800
89.493700 2.414900
89.570300 2.547800
89.646800 3.379000
89.723300 2.821500
89.799800 2.805800
89.876400 2.579800
89.952900 2.951200
90.029400 3.086800
90.106000 2.435700
90.182500 2.349700
90.259000 2.571700
90.335600 2.395900
90.412100 2.407500
90.488600 2.430600
90.565200 2.434500
90.641700 3.077600
90.718200 3.063900
90.794700 2.712200
90.871300 2.411900
90.947800 2.137500
91.024300 2.240600
91.100900 2.883200
91.177400 2.668800
91.253900 2.731000
91.330500 2.932700
91.407000 2.928200
91.483500 2.871900
91.560000 2.246900
91.636600 2.427100
91.713100 2.524900
91.789600 2.816300
91.866200 2.589900
91.942700 3.021400
92.019200 2.452100
92.095800 2.647800
92.172300 2.875700
92.248800 2.354200
92.325300 2.493200
92.401900 2.834900
92.478400 3.412200
92.554900 2.732400
92.631500 2.334700
92.708000 2.738800
92.784500 2.975500
92.861100 2.670900
92.937600 2.572400
93.014100 2.148900
93.090700 2.338000
93.167200 2.218200
93.243700 2.948500
93.320200 2.970900
93.396800 2.531500
93.473300 3.172900
93.549800 2.545000
93.626400 2.474600
93.702900 2.700500
93.779400 2.837000
93.856000 2.631800
93.932500 2.196300
94.009000 2.172800
94.085500 2.695800
94.162100 2.486000
94.238600 2.077100
94.315100 2.831200
94.391700 2.764200
94.468200 2.767600
94.544700 2.640500
94.621300 2.675800
94.697800 2.769100
94.774300 3.045800
94.850900 2.667800
94.927400 3.355800
95.003900 3.074300
95.080400 2.592600
95.157000 1.899900
95.233500 2.753600
95.310000 3.072400
95.386600 2.603100
95.463100 2.156900
95.539600 2.136800
95.616200 2.548300
95.692700 2.542000
95.769200 2.888900
95.845700 2.848600
95.922300 2.447000
95.998800 2.710300
96.075300 1.996300
96.151900 2.506400
96.228400 3.353400
96.304900 2.963200
96.381500 2.728200
96.458000 2.416900
96.534500 2.347800
96.611100 3.132200
96.687600 2.824200
96.764100 2.719800
96.840600 2.543900
96.917200 2.257300
96.993700 2.239000
97.070200 2.287500
97.146800 2.717300
97.223300 2.604900
97.299800 3.000700
97.376400 3.288500
97.452900 2.939400
97.529400 3.023500
97.605900 2.964400
97.682500 3.329900
97.759000 2.493800
97.835500 2.664000
97.912100 2.677900
97.988600 2.896400
98.065100 3.005100
98.141700 2.430100
98.218200 2.590000
98.294700 2.276700
98.371200 2.482100
98.447800 2.852000
98.524300 2.632000
98.600800 2.474900
98.677400 2.828000
98.753900 3.282300
98.830400 2.814500
98.907000 2.693800
98.983500 2.563500
99.060000 2.507400
99.136600 2.724200
99.213100 2.532900
99.289600 2.062500
99.366100 2.068900
99.442700 2.841300
99.519200 3.737100
99.595700 2.928500
99.672300 2.674400
99.748800 2.194600
99.825300 2.073100
99.901900 2.533600
99.978400 2.917200
100.054900 2.886100
100.131400 3.122600
100.208000 2.902000
100.284500 3.202200
100.361000 2.917600
100.437600 2.113600
100.514100 2.336300
100.590600 2.263700
100.667200 2.052400
100.743700 2.459900
100.820200 2.731500
100.896800 2.948300
100.973300 3.415100
101.049800 2.844300
101.126300 2.193300
101.202900 2.543800
101.279400 2.634000
101.355900 3.108400
101.432500 3.305000
101.509000 3.840900
101.585500 3.103100
101.662100 3.131200
101.738600 2.580100
101.815100 2.283200
101.891600 2.585600
101.968200 2.716800
102.044700 3.517600
102.121200 2.802400
102.197800 2.691000
102.274300 2.752700
102.350800 2.509800
102.427400 3.123700
102.503900 2.925000
102.580400 3.042600
102.657000 2.528700
102.733500 3.040300
102.810000 2.104000
102.886500 1.883900
102.963100 2.346800
103.039600 2.449200
103.116100 3.134800
103.192700 2.397300
103.269200 3.033100
103.345700 3.100500
103.422300 2.704700
103.498800 2.704400
103.575300 2.200100
103.651800 2.789000
103.728400 3.478700
103.804900 3.728700
103.881400 3.198400
103.958000 2.868200
104.034500 2.896700
104.111000 2.494700
104.187600 2.796800
104.264100 2.993400
104.340600 2.685100
104.417100 2.614300
104.493700 3.032500
104.570200 2.890200
104.646700 3.189000
104.723300 3.134100
104.799800 2.807100
104.876300 2.673800
104.952900 2.913300
105.029400 3.279400
105.105900 3.346800
105.182500 2.868200
105.259000 2.840700
105.335500 2.733500
105.412000 2.563000
105.488600 2.922600
105.565100 2.588400
105.641600 2.628800
105.718200 2.736900
105.794700 2.511000
105.871200 2.749000
105.947800 2.834900
106.024300 3.437200
106.100800 2.821200
106.177300 3.224400
106.253900 3.626500
106.330400 3.160500
106.406900 2.937200
106.483500 2.236400
106.560000 2.555700
106.636500 2.142700
106.713100 2.179800
106.789600 2.871300
106.866100 3.407300
106.942700 3.018000
107.019200 3.251100
107.095700 3.207000
107.172200 2.728600
107.248800 2.506200
107.325300 2.413600
107.401800 2.495400
107.478400 2.989400
107.554900 3.264100
107.631400 3.727000
107.708000 3.541500
107.784500 3.244900
107.861000 2.984700
107.937500 3.125300
108.014100 2.788700
108.090600 3.150100
108.167100 2.696400
108.243700 3.034300
108.320200 2.302000
108.396700 2.883400
108.473300 3.112100
108.549800 3.022400
108.626300 3.451100
108.702900 3.421700
108.779400 3.525300
108.855900 3.272600
108.932400 2.836100
109.009000 2.328600
109.085500 2.321600
109.162000 2.962300
109.238600 3.019700
109.315100 2.279500
109.391600 2.881500
109.468200 3.138500
109.544700 2.831800
109.621200 3.164900
109.697700 3.201800
109.774300 3.660100
109.850800 3.305700
109.927300 2.657200
110.003900 2.986900
110.080400 2.742400
110.156900 2.803800
110.233500 2.537100
110.310000 2.670600
110.386500 2.748500
110.463000 2.779000
110.539600 2.815600
110.616100 3.216500
110.692600 3.397900
110.769200 3.162800
110.845700 2.543700
110.922200 3.003400
110.998800 2.456100
111.075300 2.699000
111.151800 2.806100
111.228400 2.819700
111.304900 2.884200
111.381400 2.992500
111.457900 3.019200
111.534500 2.985500
111.611000 3.207800
111.687500 2.833600
111.764100 3.081200
111.840600 2.729800
111.917100 2.688700
111.993700 3.062100
112.070200 3.044400
112.146700 2.756000
112.223200 2.887700
112.299800 2.848500
112.376300 2.911000
112.452800 2.661600
112.529400 3.042700
112.605900 2.625400
112.682400 2.671400
112.759000 1.914000
112.835500 1.990800
112.912000 2.609200
112.988600 2.278100
113.065100 2.724000
113.141600 2.840600
113.218100 3.195400
113.294700 2.786800
113.371200 2.154600
113.447700 1.788300
113.524300 2.381600
113.600800 3.081400
113.677300 2.782200
113.753900 2.835900
113.830400 2.050900
113.906900 1.603800
113.983400 2.238100
114.060000 1.944800
114.136500 2.227000
114.213000 2.652700
114.289600 2.229000
114.366100 1.478200
114.442600 2.387800
114.519200 2.319800
114.595700 1.765300
114.672200 2.222700
114.748800 1.993600
114.825300 1.565900
114.901800 1.322700
114.978300 1.162500
115.054900 1.830000
115.131400 1.751700
115.207900 1.020200
115.284500 0.981800
115.361000 0.728900
115.437500 0.954100
115.514100 1.295300
115.590600 1.258400
115.667100 1.346800
115.743600 0.841100
115.820200 0.487200
115.896700 0.545900
115.973200 0.433400
116.049800 0.339700
116.126300 0.158000
116.202800 0.364400
116.279400 0.269400
116.355900 0.155600
116.432400 0.145000
116.508900 0.067500
116.585500 0.060500
116.662000 0.057700
116.738500 0.036600
116.815100 0.001400
116.891600 0.023100
116.968100 0.049100
117.044700 0.004400
117.121200 0.031500
117.197700 0.042100
117.274300 0.001900
117.350800 0.000000
117.427300 0.000000
117.503800 0.000000
117.580400 0.000000
117.656900 0.000000
117.733400 0.000000
117.810000 0.000000
117.886500 0.000000
117.963000 0.000000
118.039600 0.000000
118.116100 0.000000
118.192600 0.000000
118.269100 0.000000
118.345700 0.000000
118.422200 0.000000
118.498700 0.000000
118.575300 0.000000
118.651800 0.000000
118.728300 0.000000
118.804900 0.000000
118.881400 0.000000
118.957900 0.000000
119.034500 0.000000
119.111000 0.000000
119.187500 0.000000
119.264000 0.000000
119.340600 0.000000
119.417100 0.000000
119.493600 0.000000
119.570200 0.000000
119.646700 0.000000
119.723200 0.000000
119.799800 0.000000
119.876300 0.000000
119.952800 0.000000
120.029300 0.000000
120.105900 0.000000
120.182400 0.000000
120.258900 0.000000
120.335500 0.000000
120.412000 0.000000
120.488500 0.000000
120.565100 0.000000
120.641600 0.000000
120.718100 0.000000
120.794600 0.000000
120.871200 0.000000
120.947700 0.000000
121.024200 0.000000
121.100800 0.000000
121.177300 0.000000
121.253800 0.000000
121.330400 0.000000
121.406900 0.000000
121.483400 0.000000
121.560000 0.000000
121.636500 0.000000
121.713000 0.000000
121.789500 0.000000
121.866100 0.000000
121.942600 0.000000
122.019100 0.000000
122.095700 0.000000
122.172200 0.000000
122.248700 0.000000
122.325300 0.000000
122.401800 0.000000
122.478300 0.000000
122.554800 0.000000
122.631400 0.000000
122.707900 0.000000
122.784400 0.000000
122.861000 0.000000
122.937500 0.000000
123.014000 0.000000
123.090600 0.000000
123.167100 0.000000
123.243600 0.000000
123.320200 0.000000
123.396700 0.000000
123.473200 0.000000
123.549700 0.000000
123.626300 0.000000
123.702800 0.000000
123.779300 0.000000
123.855900 0.000000
123.932400 0.000000
124.008900 0.000000
124.085500 0.000000
e
