set title 'mp-973736 - Density of States'
set xlabel 'Energy (eV)'
set ylabel 'DOS (states/eV)'
set grid
set xrange [-10:10]
set yrange [0:3.652]
set xzeroaxis lt -1
set terminal png size 800,600
set output 'mp-973736_dos_gnuplot.png'
plot '-' using 1:2 with lines title 'DOS'
-21.013900 0.000000
-20.985400 0.000000
-20.956900 0.000000
-20.928400 0.000000
-20.899900 0.000000
-20.871400 0.000000
-20.842900 0.000000
-20.814400 0.000000
-20.785900 0.000000
-20.757400 0.000000
-20.728900 0.000000
-20.700400 0.000000
-20.671900 0.000000
-20.643400 0.000000
-20.614900 0.000000
-20.586400 0.000000
-20.557900 0.000000
-20.529400 0.000000
-20.500900 0.000000
-20.472300 0.000000
-20.443800 0.000000
-20.415300 0.000000
-20.386800 0.000000
-20.358300 0.000000
-20.329800 0.000000
-20.301300 0.000000
-20.272800 0.000000
-20.244300 0.000000
-20.215800 0.000000
-20.187300 0.000000
-20.158800 0.000000
-20.130300 0.000000
-20.101800 0.000000
-20.073300 0.000000
-20.044800 0.000000
-20.016300 0.000000
-19.987800 0.000000
-19.959300 0.000000
-19.930800 0.000000
-19.902200 0.000000
-19.873700 0.000000
-19.845200 0.000000
-19.816700 0.000000
-19.788200 0.000000
-19.759700 0.000000
-19.731200 0.000000
-19.702700 0.000000
-19.674200 0.000000
-19.645700 0.000000
-19.617200 0.000000
-19.588700 0.000000
-19.560200 0.000000
-19.531700 0.000000
-19.503200 0.000000
-19.474700 0.000000
-19.446200 0.000000
-19.417700 0.000000
-19.389200 0.000000
-19.360700 0.000000
-19.332100 0.000000
-19.303600 0.000000
-19.275100 0.000000
-19.246600 0.000000
-19.218100 0.000000
-19.189600 0.000000
-19.161100 0.000000
-19.132600 0.000000
-19.104100 0.000000
-19.075600 0.000000
-19.047100 0.000000
-19.018600 0.000000
-18.990100 0.000000
-18.961600 0.000000
-18.933100 0.000000
-18.904600 0.000000
-18.876100 0.000000
-18.847600 0.000000
-18.819100 0.000000
-18.790600 0.000000
-18.762000 0.000000
-18.733500 0.000000
-18.705000 0.000000
-18.676500 0.000000
-18.648000 0.000000
-18.619500 0.000000
-18.591000 0.000000
-18.562500 0.000000
-18.534000 0.000000
-18.505500 0.000000
-18.477000 0.000000
-18.448500 0.000000
-18.420000 196.265000
-18.391500 845.189800
-18.363000 85.508100
-18.334500 175.839500
-18.306000 0.000000
-18.277500 0.000000
-18.249000 0.000000
-18.220400 0.000000
-18.191900 0.000000
-18.163400 0.000000
-18.134900 0.000000
-18.106400 0.000000
-18.077900 0.000000
-18.049400 0.000000
-18.020900 0.000000
-17.992400 0.000000
-17.963900 0.000000
-17.935400 0.000000
-17.906900 0.000000
-17.878400 0.000000
-17.849900 0.000000
-17.821400 0.000000
-17.792900 0.000000
-17.764400 0.000000
-17.735900 0.000000
-17.707400 0.000000
-17.678900 0.000000
-17.650300 0.000000
-17.621800 0.000000
-17.593300 0.000000
-17.564800 0.000000
-17.536300 0.000000
-17.507800 0.000000
-17.479300 0.000000
-17.450800 0.000000
-17.422300 0.000000
-17.393800 0.000000
-17.365300 0.000000
-17.336800 0.000000
-17.308300 0.000000
-17.279800 0.000000
-17.251300 0.000000
-17.222800 0.000000
-17.194300 0.000000
-17.165800 0.000000
-17.137300 0.000000
-17.108800 0.000000
-17.080200 0.000000
-17.051700 0.000000
-17.023200 0.000000
-16.994700 0.000000
-16.966200 0.000000
-16.937700 0.000000
-16.909200 0.000000
-16.880700 0.000000
-16.852200 0.000000
-16.823700 0.000000
-16.795200 0.000000
-16.766700 0.000000
-16.738200 0.000000
-16.709700 0.000000
-16.681200 0.000000
-16.652700 0.000000
-16.624200 0.000000
-16.595700 0.000000
-16.567200 0.000000
-16.538700 0.000000
-16.510100 0.000000
-16.481600 0.000000
-16.453100 0.000000
-16.424600 0.000000
-16.396100 0.000000
-16.367600 0.000000
-16.339100 0.000000
-16.310600 0.000000
-16.282100 0.000000
-16.253600 0.000000
-16.225100 0.000000
-16.196600 0.000000
-16.168100 0.000000
-16.139600 0.000000
-16.111100 0.000000
-16.082600 0.000000
-16.054100 0.000000
-16.025600 0.000000
-15.997100 0.000000
-15.968600 0.000000
-15.940000 0.000000
-15.911500 0.000000
-15.883000 0.000000
-15.854500 0.000000
-15.826000 0.000000
-15.797500 0.000000
-15.769000 0.000000
-15.740500 0.000000
-15.712000 0.000000
-15.683500 0.000000
-15.655000 0.000000
-15.626500 0.000000
-15.598000 0.000000
-15.569500 0.000000
-15.541000 0.000000
-15.512500 0.000000
-15.484000 0.000000
-15.455500 0.000000
-15.427000 0.000000
-15.398400 0.000000
-15.369900 0.000000
-15.341400 0.000000
-15.312900 0.000000
-15.284400 0.000000
-15.255900 0.000000
-15.227400 0.000000
-15.198900 0.000000
-15.170400 0.000000
-15.141900 0.000000
-15.113400 0.000000
-15.084900 0.000000
-15.056400 0.000000
-15.027900 0.000000
-14.999400 0.000000
-14.970900 0.000000
-14.942400 0.000000
-14.913900 0.000000
-14.885400 0.000000
-14.856900 0.000000
-14.828300 0.000000
-14.799800 0.000000
-14.771300 0.000000
-14.742800 0.000000
-14.714300 0.000000
-14.685800 0.000000
-14.657300 0.000000
-14.628800 0.000000
-14.600300 0.000000
-14.571800 0.000000
-14.543300 0.000000
-14.514800 0.000000
-14.486300 0.000000
-14.457800 0.000000
-14.429300 0.000000
-14.400800 0.000000
-14.372300 0.000000
-14.343800 0.000000
-14.315300 0.000000
-14.286800 0.000000
-14.258200 0.000000
-14.229700 0.000000
-14.201200 0.000000
-14.172700 0.000000
-14.144200 0.000000
-14.115700 0.000000
-14.087200 0.000000
-14.058700 0.000000
-14.030200 0.000000
-14.001700 0.000000
-13.973200 0.000000
-13.944700 0.000000
-13.916200 0.000000
-13.887700 0.000000
-13.859200 0.000000
-13.830700 0.000000
-13.802200 0.000000
-13.773700 0.000000
-13.745200 0.000000
-13.716700 0.000000
-13.688100 0.000000
-13.659600 0.000000
-13.631100 0.000000
-13.602600 0.000000
-13.574100 0.000000
-13.545600 0.000000
-13.517100 0.000000
-13.488600 0.000000
-13.460100 0.000000
-13.431600 0.000000
-13.403100 0.000000
-13.374600 0.000000
-13.346100 0.000000
-13.317600 0.000000
-13.289100 0.000000
-13.260600 0.000000
-13.232100 0.000000
-13.203600 0.000000
-13.175100 0.000000
-13.146600 0.000000
-13.118000 0.000000
-13.089500 0.000000
-13.061000 0.000000
-13.032500 0.000000
-13.004000 0.000000
-12.975500 0.000000
-12.947000 0.000000
-12.918500 0.000000
-12.890000 0.000000
-12.861500 0.000000
-12.833000 0.000000
-12.804500 0.000000
-12.776000 0.000000
-12.747500 0.000000
-12.719000 0.000000
-12.690500 0.000000
-12.662000 0.000000
-12.633500 0.000000
-12.605000 0.000000
-12.576500 0.000000
-12.547900 0.000000
-12.519400 0.000000
-12.490900 0.000000
-12.462400 0.000000
-12.433900 0.000000
-12.405400 0.000000
-12.376900 0.000000
-12.348400 0.000000
-12.319900 0.000000
-12.291400 0.000000
-12.262900 0.000000
-12.234400 0.000000
-12.205900 0.000000
-12.177400 0.000000
-12.148900 0.000000
-12.120400 0.000000
-12.091900 0.000000
-12.063400 0.000000
-12.034900 0.000000
-12.006300 0.000000
-11.977800 0.000000
-11.949300 0.000000
-11.920800 0.000000
-11.892300 0.000000
-11.863800 0.000000
-11.835300 0.000000
-11.806800 0.000000
-11.778300 0.000000
-11.749800 0.000000
-11.721300 0.000000
-11.692800 0.000000
-11.664300 0.000000
-11.635800 0.000000
-11.607300 0.000000
-11.578800 0.000000
-11.550300 0.000000
-11.521800 0.000000
-11.493300 0.000000
-11.464800 0.000000
-11.436200 0.000000
-11.407700 0.000000
-11.379200 0.000000
-11.350700 0.000000
-11.322200 0.000000
-11.293700 0.000000
-11.265200 0.000000
-11.236700 0.000000
-11.208200 0.000000
-11.179700 0.000000
-11.151200 0.000000
-11.122700 0.000000
-11.094200 0.000000
-11.065700 0.000000
-11.037200 0.000000
-11.008700 0.000000
-10.980200 0.000000
-10.951700 0.000000
-10.923200 0.000000
-10.894700 0.000000
-10.866100 0.000000
-10.837600 0.000000
-10.809100 0.000000
-10.780600 0.000000
-10.752100 0.000000
-10.723600 0.000000
-10.695100 0.000000
-10.666600 0.000000
-10.638100 0.000000
-10.609600 0.000000
-10.581100 0.000000
-10.552600 0.000000
-10.524100 0.000000
-10.495600 0.000000
-10.467100 0.000000
-10.438600 0.000000
-10.410100 0.000000
-10.381600 0.000000
-10.353100 0.000000
-10.324600 0.000000
-10.296000 0.000000
-10.267500 0.000000
-10.239000 0.000000
-10.210500 0.000000
-10.182000 0.000000
-10.153500 0.000000
-10.125000 0.000000
-10.096500 0.000000
-10.068000 0.000000
-10.039500 0.000000
-10.011000 0.000000
-9.982500 0.000000
-9.954000 0.000000
-9.925500 0.000000
-9.897000 0.000000
-9.868500 0.000000
-9.840000 0.000000
-9.811500 0.000000
-9.783000 0.000000
-9.754500 0.000000
-9.725900 0.000000
-9.697400 0.000000
-9.668900 0.000000
-9.640400 0.000000
-9.611900 0.000000
-9.583400 0.000000
-9.554900 0.000000
-9.526400 0.000000
-9.497900 0.000000
-9.469400 0.000000
-9.440900 0.000000
-9.412400 0.000000
-9.383900 0.000000
-9.355400 0.000000
-9.326900 0.000000
-9.298400 0.000000
-9.269900 0.000000
-9.241400 0.000000
-9.212900 0.000000
-9.184400 0.000000
-9.155800 0.000000
-9.127300 0.000000
-9.098800 0.000000
-9.070300 0.000000
-9.041800 0.000000
-9.013300 0.000000
-8.984800 0.000000
-8.956300 0.000000
-8.927800 0.000000
-8.899300 0.000000
-8.870800 0.000000
-8.842300 0.000000
-8.813800 0.000000
-8.785300 0.000000
-8.756800 0.000000
-8.728300 0.000000
-8.699800 0.000000
-8.671300 0.000000
-8.642800 0.000000
-8.614200 0.000000
-8.585700 0.000000
-8.557200 0.000000
-8.528700 0.000000
-8.500200 0.006600
-8.471700 0.057100
-8.443200 0.124100
-8.414700 0.193900
-8.386200 0.232200
-8.357700 0.243600
-8.329200 0.256300
-8.300700 0.283800
-8.272200 0.313000
-8.243700 0.337800
-8.215200 0.366000
-8.186700 0.395900
-8.158200 0.415600
-8.129700 0.429700
-8.101200 0.443600
-8.072700 0.458500
-8.044100 0.477300
-8.015600 0.497600
-7.987100 0.518600
-7.958600 0.540200
-7.930100 0.562500
-7.901600 0.616900
-7.873100 0.650800
-7.844600 0.667200
-7.816100 0.667000
-7.787600 0.670300
-7.759100 0.660700
-7.730600 0.663500
-7.702100 0.665100
-7.673600 0.667800
-7.645100 0.669900
-7.616600 0.671100
-7.588100 0.666700
-7.559600 0.660200
-7.531100 0.656700
-7.502600 0.656400
-7.474000 0.659300
-7.445500 0.662500
-7.417000 0.666100
-7.388500 0.669500
-7.360000 0.672900
-7.331500 0.676300
-7.303000 0.679700
-7.274500 0.682800
-7.246000 0.685100
-7.217500 0.684400
-7.189000 0.681700
-7.160500 0.678100
-7.132000 0.675600
-7.103500 0.676300
-7.075000 0.677300
-7.046500 0.678500
-7.018000 0.679800
-6.989500 0.726100
-6.961000 0.747600
-6.932500 0.777200
-6.903900 0.801400
-6.875400 0.820200
-6.846900 0.834200
-6.818400 0.846200
-6.789900 0.864700
-6.761400 0.883900
-6.732900 0.903600
-6.704400 0.919000
-6.675900 0.927800
-6.647400 0.941100
-6.618900 0.955500
-6.590400 0.970300
-6.561900 0.986000
-6.533400 1.004800
-6.504900 1.028000
-6.476400 1.059100
-6.447900 1.095900
-6.419400 1.136900
-6.390900 1.237100
-6.362400 1.286800
-6.333800 1.322100
-6.305300 1.343000
-6.276800 1.349700
-6.248300 1.301100
-6.219800 1.293400
-6.191300 1.286600
-6.162800 1.281500
-6.134300 1.278000
-6.105800 1.262900
-6.077300 1.245500
-6.048800 1.230000
-6.020300 1.216300
-5.991800 1.204400
-5.963300 1.194700
-5.934800 1.175800
-5.906300 1.256900
-5.877800 1.304000
-5.849300 1.365700
-5.820800 1.413200
-5.792200 1.445900
-5.763700 1.492800
-5.735200 1.487400
-5.706700 1.486600
-5.678200 1.490900
-5.649700 1.500700
-5.621200 1.498000
-5.592700 1.526600
-5.564200 1.564600
-5.535700 1.612200
-5.507200 1.668500
-5.478700 1.718900
-5.450200 1.692300
-5.421700 1.676400
-5.393200 1.660200
-5.364700 1.643800
-5.336200 1.634000
-5.307700 1.628700
-5.279200 1.617400
-5.250700 1.597800
-5.222100 1.570300
-5.193600 1.547600
-5.165100 1.528200
-5.136600 1.524700
-5.108100 1.517600
-5.079600 1.505600
-5.051100 1.490400
-5.022600 1.469700
-4.994100 1.443500
-4.965600 1.428300
-4.937100 1.462800
-4.908600 1.486400
-4.880100 1.504800
-4.851600 1.508400
-4.823100 1.419700
-4.794600 1.437400
-4.766100 1.469100
-4.737600 1.523800
-4.709100 1.626300
-4.680600 1.740400
-4.652000 1.866000
-4.623500 1.880000
-4.595000 1.824600
-4.566500 1.844800
-4.538000 2.003800
-4.509500 2.128500
-4.481000 2.067500
-4.452500 1.852400
-4.424000 1.791500
-4.395500 1.938700
-4.367000 2.147200
-4.338500 2.467500
-4.310000 2.624600
-4.281500 2.617800
-4.253000 2.441800
-4.224500 2.085900
-4.196000 1.814600
-4.167500 1.495300
-4.139000 1.200700
-4.110500 1.020500
-4.081900 0.898000
-4.053400 0.787100
-4.024900 0.693100
-3.996400 0.613700
-3.967900 0.604300
-3.939400 0.595000
-3.910900 0.585600
-3.882400 0.576200
-3.853900 0.566800
-3.825400 0.557400
-3.796900 0.548100
-3.768400 0.538700
-3.739900 0.529300
-3.711400 0.519900
-3.682900 0.510500
-3.654400 0.501100
-3.625900 0.491700
-3.597400 0.484200
-3.568900 0.481200
-3.540400 0.480500
-3.511800 0.481900
-3.483300 0.486000
-3.454800 0.490100
-3.426300 0.487500
-3.397800 0.464300
-3.369300 0.450900
-3.340800 0.440300
-3.312300 0.428900
-3.283800 0.417400
-3.255300 0.401200
-3.226800 0.388300
-3.198300 0.385400
-3.169800 0.380600
-3.141300 0.375200
-3.112800 0.369700
-3.084300 0.364300
-3.055800 0.365000
-3.027300 0.480100
-2.998800 0.703100
-2.970300 0.851800
-2.941700 0.930300
-2.913200 0.986500
-2.884700 0.957100
-2.856200 0.985500
-2.827700 1.013400
-2.799200 1.040600
-2.770700 1.088400
-2.742200 1.093600
-2.713700 1.089400
-2.685200 1.089700
-2.656700 1.106900
-2.628200 1.130200
-2.599700 1.159900
-2.571200 1.204200
-2.542700 1.256900
-2.514200 1.311600
-2.485700 1.423100
-2.457200 1.782300
-2.428700 1.935600
-2.400100 2.019200
-2.371600 2.096200
-2.343100 2.084300
-2.314600 2.009100
-2.286100 2.024800
-2.257600 2.011900
-2.229100 1.966300
-2.200600 2.053800
-2.172100 2.094100
-2.143600 2.117900
-2.115100 1.835000
-2.086600 1.478900
-2.058100 1.257000
-2.029600 1.054000
-2.001100 0.931800
-1.972600 0.903200
-1.944100 0.878700
-1.915600 0.855300
-1.887100 0.832900
-1.858600 0.811700
-1.830000 0.791600
-1.801500 0.772700
-1.773000 0.755000
-1.744500 0.738900
-1.716000 0.726600
-1.687500 0.717200
-1.659000 0.709400
-1.630500 0.696200
-1.602000 0.672600
-1.573500 0.632900
-1.545000 0.631600
-1.516500 0.633600
-1.488000 0.635800
-1.459500 0.637600
-1.431000 0.639100
-1.402500 0.640200
-1.374000 0.640600
-1.345500 0.628400
-1.317000 0.607500
-1.288500 0.580800
-1.259900 0.544900
-1.231400 0.523300
-1.202900 0.503500
-1.174400 0.483800
-1.145900 0.464300
-1.117400 0.445200
-1.088900 0.426400
-1.060400 0.407900
-1.031900 0.389800
-1.003400 0.372000
-0.974900 0.354500
-0.946400 0.337400
-0.917900 0.321300
-0.889400 0.311900
-0.860900 0.309000
-0.832400 0.306200
-0.803900 0.303400
-0.775400 0.300600
-0.746900 0.297900
-0.718400 0.295200
-0.689800 0.292500
-0.661300 0.287400
-0.632800 0.279700
-0.604300 0.276100
-0.575800 0.291400
-0.547300 0.307100
-0.518800 0.310600
-0.490300 0.306900
-0.461800 0.302600
-0.433300 0.297700
-0.404800 0.294900
-0.376300 0.304800
-0.347800 0.319200
-0.319300 0.340000
-0.290800 0.372300
-0.262300 0.418700
-0.233800 0.479000
-0.205300 0.532000
-0.176800 0.479200
-0.148300 0.466100
-0.119700 0.488400
-0.091200 0.528700
-0.062700 0.621700
-0.034200 0.605700
-0.005700 0.540500
0.022800 0.549300
0.051300 0.547400
0.079800 0.580500
0.108300 0.626300
0.136800 0.717500
0.165300 0.859500
0.193800 0.923100
0.222300 0.976300
0.250800 1.019600
0.279300 1.060300
0.307800 1.109500
0.336300 1.151500
0.364800 1.204400
0.393300 1.303800
0.421800 1.392000
0.450400 1.454400
0.478900 1.512700
0.507400 1.537300
0.535900 1.410400
0.564400 1.392600
0.592900 1.412300
0.621400 1.416500
0.649900 1.420200
0.678400 1.414200
0.706900 1.411900
0.735400 1.396100
0.763900 1.393700
0.792400 1.375800
0.820900 1.378800
0.849400 1.401900
0.877900 1.469500
0.906400 1.466100
0.934900 1.432400
0.963400 1.417400
0.992000 1.507700
1.020500 1.556600
1.049000 1.602800
1.077500 1.647400
1.106000 1.688100
1.134500 1.727400
1.163000 1.745600
1.191500 1.761900
1.220000 1.879600
1.248500 1.725100
1.277000 1.700300
1.305500 1.693000
1.334000 1.694700
1.362500 1.698400
1.391000 1.708100
1.419500 1.719200
1.448000 1.724700
1.476500 1.720000
1.505000 1.718000
1.533500 1.715200
1.562100 1.710200
1.590600 1.713500
1.619100 1.729300
1.647600 1.746600
1.676100 1.766000
1.704600 1.788100
1.733100 1.841700
1.761600 1.863600
1.790100 1.908500
1.818600 1.970500
1.847100 1.989300
1.875600 1.954000
1.904100 1.934600
1.932600 1.931500
1.961100 1.938000
1.989600 2.017200
2.018100 2.092200
2.046600 2.132500
2.075100 2.127300
2.103600 2.207900
2.132200 2.285000
2.160700 2.311800
2.189200 2.319800
2.217700 2.332600
2.246200 2.344600
2.274700 2.475500
2.303200 2.480400
2.331700 2.423100
2.360200 2.394200
2.388700 2.365700
2.417200 2.353000
2.445700 2.355500
2.474200 2.298800
2.502700 2.270600
2.531200 2.265600
2.559700 2.258900
2.588200 2.257600
2.616700 2.193000
2.645200 2.204300
2.673700 2.173400
2.702300 2.211100
2.730800 2.333900
2.759300 2.735300
2.787800 2.082300
2.816300 2.013100
2.844800 1.958000
2.873300 1.913000
2.901800 1.875500
2.930300 1.844900
2.958800 1.820000
2.987300 1.791900
3.015800 1.762300
3.044300 1.733600
3.072800 1.723400
3.101300 1.705200
3.129800 1.691200
3.158300 1.680800
3.186800 1.675300
3.215300 1.671200
3.243800 1.672500
3.272400 1.678900
3.300900 1.693500
3.329400 1.727100
3.357900 1.772900
3.386400 1.828600
3.414900 1.843000
3.443400 1.844300
3.471900 1.846700
3.500400 1.842000
3.528900 1.852300
3.557400 1.858000
3.585900 1.850100
3.614400 1.839600
3.642900 1.825200
3.671400 1.816200
3.699900 1.819300
3.728400 1.832000
3.756900 1.887800
3.785400 1.953900
3.813900 2.015600
3.842500 2.072800
3.871000 2.152100
3.899500 2.201400
3.928000 2.212900
3.956500 2.226500
3.985000 2.238700
4.013500 2.224600
4.042000 2.145800
4.070500 2.070800
4.099000 2.047400
4.127500 2.084400
4.156000 2.113100
4.184500 2.098100
4.213000 2.015600
4.241500 2.048200
4.270000 2.224700
4.298500 2.059000
4.327000 2.025800
4.355500 2.000500
4.384100 2.014800
4.412600 2.058700
4.441100 2.100800
4.469600 2.115300
4.498100 2.149100
4.526600 2.193500
4.555100 2.197400
4.583600 2.182000
4.612100 2.158600
4.640600 2.169100
4.669100 2.180200
4.697600 2.185600
4.726100 2.187600
4.754600 2.205900
4.783100 2.261000
4.811600 2.225100
4.840100 2.298200
4.868600 2.334900
4.897100 2.380700
4.925600 2.413400
4.954200 2.410000
4.982700 2.369500
5.011200 2.319600
5.039700 2.288800
5.068200 2.216400
5.096700 2.245700
5.125200 2.279800
5.153700 2.304600
5.182200 2.313100
5.210700 2.356700
5.239200 2.416800
5.267700 2.444200
5.296200 2.369600
5.324700 2.295400
5.353200 2.217400
5.381700 2.129100
5.410200 2.019600
5.438700 1.939400
5.467200 1.858000
5.495700 1.771700
5.524300 1.706200
5.552800 1.662800
5.581300 1.685000
5.609800 1.794800
5.638300 1.968200
5.666800 2.309600
5.695300 2.095900
5.723800 1.850900
5.752300 1.850400
5.780800 1.892800
5.809300 1.920100
5.837800 1.939400
5.866300 1.974300
5.894800 2.014800
5.923300 2.136500
5.951800 2.139700
5.980300 2.162800
6.008800 2.125900
6.037300 2.066100
6.065800 2.060600
6.094400 2.042400
6.122900 2.032000
6.151400 2.057600
6.179900 2.153200
6.208400 2.375500
6.236900 2.408400
6.265400 2.408700
6.293900 2.198600
6.322400 2.174600
6.350900 2.259500
6.379400 2.467100
6.407900 2.467700
6.436400 2.488200
6.464900 2.366300
6.493400 2.244400
6.521900 2.128300
6.550400 2.070700
6.578900 2.035500
6.607400 2.093400
6.635900 2.306600
6.664500 2.328600
6.693000 2.420500
6.721500 2.546500
6.750000 2.617000
6.778500 2.598400
6.807000 2.698300
6.835500 2.789200
6.864000 2.864600
6.892500 2.910100
6.921000 2.914400
6.949500 2.901500
6.978000 3.026000
7.006500 3.219000
7.035000 3.319700
7.063500 3.151200
7.092000 3.087500
7.120500 3.087400
7.149000 3.108500
7.177500 3.019700
7.206100 2.864600
7.234600 2.731500
7.263100 2.616600
7.291600 2.525500
7.320100 2.438500
7.348600 2.301700
7.377100 2.229300
7.405600 2.240700
7.434100 2.215600
7.462600 2.253600
7.491100 2.300700
7.519600 2.442100
7.548100 2.484400
7.576600 2.648300
7.605100 2.805400
7.633600 2.770800
7.662100 2.729100
7.690600 2.721800
7.719100 2.709600
7.747600 2.687000
7.776200 2.675900
7.804700 2.703600
7.833200 2.724400
7.861700 2.779200
7.890200 2.828600
7.918700 2.676400
7.947200 2.593800
7.975700 2.588600
8.004200 2.563700
8.032700 2.534200
8.061200 2.485100
8.089700 2.436400
8.118200 2.386700
8.146700 2.281300
8.175200 2.204000
8.203700 2.112000
8.232200 2.020100
8.260700 1.878300
8.289200 1.748600
8.317700 1.729900
8.346300 1.737200
8.374800 1.751100
8.403300 1.776800
8.431800 1.814500
8.460300 1.848200
8.488800 1.879700
8.517300 1.906300
8.545800 1.877100
8.574300 1.795400
8.602800 1.774900
8.631300 1.782500
8.659800 1.790600
8.688300 1.797300
8.716800 1.805200
8.745300 1.817100
8.773800 1.837400
8.802300 1.867100
8.830800 1.877000
8.859300 1.873400
8.887800 1.815300
8.916400 1.818600
8.944900 1.712200
8.973400 1.684200
9.001900 1.657400
9.030400 1.644400
9.058900 1.661700
9.087400 1.764000
9.115900 1.699200
9.144400 1.628900
9.172900 1.574100
9.201400 1.561100
9.229900 1.545100
9.258400 1.439100
9.286900 1.423200
9.315400 1.414200
9.343900 1.414000
9.372400 1.400900
9.400900 1.396000
9.429400 1.393700
9.457900 1.391000
9.486500 1.387400
9.515000 1.382200
9.543500 1.376100
9.572000 1.369100
9.600500 1.360500
9.629000 1.352100
9.657500 1.344500
9.686000 1.337200
9.714500 1.325000
9.743000 1.312400
9.771500 1.300700
9.800000 1.289700
9.828500 1.278600
9.857000 1.265200
9.885500 1.253600
9.914000 1.247900
9.942500 1.245800
9.971000 1.243500
9.999500 1.241300
10.028000 1.241500
10.056600 1.243300
10.085100 1.244000
10.113600 1.243400
10.142100 1.242500
10.170600 1.241400
10.199100 1.242700
10.227600 1.266000
10.256100 1.278400
10.284600 1.287200
10.313100 1.300900
10.341600 1.314600
10.370100 1.327800
10.398600 1.335300
10.427100 1.394200
10.455600 1.434700
10.484100 1.407500
10.512600 1.389100
10.541100 1.422000
10.569600 1.495500
10.598200 1.503800
10.626700 1.571900
10.655200 1.627600
10.683700 1.690700
10.712200 1.720700
10.740700 1.705200
10.769200 1.577000
10.797700 1.521500
10.826200 1.480800
10.854700 1.457700
10.883200 1.433800
10.911700 1.421300
10.940200 1.419000
10.968700 1.421600
10.997200 1.432700
11.025700 1.432400
11.054200 1.431100
11.082700 1.426100
11.111200 1.423000
11.139700 1.419700
11.168300 1.439600
11.196800 1.450400
11.225300 1.456600
11.253800 1.457300
11.282300 1.454600
11.310800 1.455500
11.339300 1.467800
11.367800 1.464700
11.396300 1.465000
11.424800 1.467900
11.453300 1.473500
11.481800 1.479300
11.510300 1.481500
11.538800 1.483000
11.567300 1.494300
11.595800 1.514200
11.624300 1.525500
11.652800 1.537300
11.681300 1.559400
11.709800 1.581100
11.738400 1.619400
11.766900 1.703900
11.795400 2.025000
11.823900 1.983900
11.852400 1.972000
11.880900 1.932300
11.909400 1.933100
11.937900 1.950300
11.966400 2.022900
11.994900 2.053400
12.023400 2.042000
12.051900 2.027100
12.080400 2.026800
12.108900 2.008000
12.137400 2.006000
12.165900 1.964400
12.194400 1.937000
12.222900 1.924500
12.251400 1.930400
12.279900 1.944400
12.308500 1.954400
12.337000 1.970500
12.365500 2.032200
12.394000 2.095500
12.422500 2.211700
12.451000 2.297900
12.479500 2.232100
12.508000 2.237300
12.536500 2.236000
12.565000 2.250100
12.593500 2.281100
12.622000 2.300100
12.650500 2.295800
12.679000 2.353600
12.707500 2.398900
12.736000 2.451000
12.764500 2.416400
12.793000 2.477400
12.821500 2.479200
12.850000 2.538500
12.878600 2.653800
12.907100 2.716800
12.935600 2.900700
12.964100 2.787400
12.992600 2.751300
13.021100 2.854800
13.049600 2.737200
13.078100 2.677000
13.106600 2.592400
13.135100 2.535300
13.163600 2.492800
13.192100 2.580100
13.220600 2.584600
13.249100 2.594500
13.277600 2.768500
13.306100 2.602600
13.334600 2.201800
13.363100 2.149900
13.391600 2.159500
13.420100 2.192500
13.448700 2.164000
13.477200 2.185900
13.505700 2.216200
13.534200 2.248600
13.562700 2.276200
13.591200 2.312100
13.619700 2.332200
13.648200 2.355800
13.676700 2.384100
13.705200 2.361000
13.733700 2.320800
13.762200 2.287700
13.790700 2.271700
13.819200 2.287900
13.847700 2.303100
13.876200 2.369900
13.904700 2.398500
13.933200 2.480200
13.961700 2.583300
13.990300 2.561700
14.018800 2.561400
14.047300 2.586100
14.075800 2.625000
14.104300 2.715500
14.132800 2.816500
14.161300 2.813100
14.189800 2.772000
14.218300 2.775600
14.246800 2.717100
14.275300 2.666000
14.303800 2.620900
14.332300 2.615000
14.360800 2.571100
14.389300 2.567400
14.417800 2.707500
14.446300 2.536600
14.474800 2.499000
14.503300 2.406000
14.531800 2.308600
14.560400 2.262400
14.588900 2.238800
14.617400 2.221600
14.645900 2.210300
14.674400 2.220600
14.702900 2.177400
14.731400 2.073300
14.759900 2.008600
14.788400 1.957800
14.816900 1.997600
14.845400 1.961100
14.873900 1.977900
14.902400 1.958900
14.930900 2.035400
14.959400 2.074000
14.987900 2.144300
15.016400 2.209600
15.044900 2.267300
15.073400 2.381100
15.101900 2.383200
15.130500 2.315800
15.159000 2.240800
15.187500 2.185100
15.216000 2.167700
15.244500 2.160100
15.273000 2.096900
15.301500 2.007500
15.330000 1.956300
15.358500 1.893300
15.387000 1.830200
15.415500 1.799000
15.444000 1.815400
15.472500 1.854200
15.501000 1.879000
15.529500 1.848300
15.558000 1.857600
15.586500 1.877300
15.615000 1.907700
15.643500 1.930300
15.672000 1.945700
15.700600 1.940100
15.729100 1.988200
15.757600 1.926600
15.786100 1.935800
15.814600 1.950000
15.843100 1.968300
15.871600 1.989700
15.900100 2.204600
15.928600 2.160100
15.957100 2.159500
15.985600 2.201500
16.014100 2.271200
16.042600 2.290300
16.071100 2.370700
16.099600 2.420000
16.128100 2.451400
16.156600 2.475500
16.185100 2.476500
16.213600 2.512400
16.242100 2.534600
16.270700 2.570300
16.299200 2.546700
16.327700 2.560400
16.356200 2.550700
16.384700 2.572200
16.413200 2.570300
16.441700 2.520700
16.470200 2.525400
16.498700 2.522400
16.527200 2.502100
16.555700 2.485100
16.584200 2.472000
16.612700 2.466300
16.641200 2.457600
16.669700 2.451800
16.698200 2.452700
16.726700 2.419400
16.755200 2.396600
16.783700 2.424900
16.812300 2.457600
16.840800 2.497500
16.869300 2.544900
16.897800 2.547500
16.926300 2.511200
16.954800 2.457500
16.983300 2.447900
17.011800 2.446100
17.040300 2.440300
17.068800 2.443100
17.097300 2.456100
17.125800 2.467900
17.154300 2.421800
17.182800 2.361600
17.211300 2.333900
17.239800 2.276500
17.268300 2.241300
17.296800 2.217500
17.325300 2.201900
17.353800 2.190000
17.382400 2.182000
17.410900 2.182100
17.439400 2.192000
17.467900 2.226600
17.496400 2.301400
17.524900 2.532200
17.553400 2.582300
17.581900 2.611900
17.610400 2.657600
17.638900 2.629500
17.667400 2.602500
17.695900 2.610500
17.724400 2.613100
17.752900 2.621100
17.781400 2.654300
17.809900 2.703200
17.838400 2.762400
17.866900 2.884800
17.895400 2.550000
17.923900 2.518300
17.952500 2.544300
17.981000 2.588400
18.009500 2.661800
18.038000 2.736200
18.066500 2.865100
18.095000 2.978500
18.123500 3.014800
18.152000 2.900400
18.180500 2.785400
18.209000 2.722200
18.237500 2.653100
18.266000 2.585600
18.294500 2.525700
18.323000 2.455000
18.351500 2.393600
18.380000 2.352300
18.408500 2.352400
18.437000 2.381200
18.465500 2.490100
18.494000 2.636200
18.522600 2.681600
18.551100 2.743400
18.579600 2.802200
18.608100 2.780300
18.636600 2.817400
18.665100 2.847800
18.693600 2.858800
18.722100 2.891600
18.750600 2.892600
18.779100 2.903900
18.807600 2.914900
18.836100 2.928300
18.864600 2.942100
18.893100 3.020300
18.921600 3.063600
18.950100 3.101100
18.978600 3.116200
19.007100 3.145900
19.035600 3.133400
19.064100 3.378200
19.092700 3.206700
19.121200 3.289700
19.149700 3.325500
19.178200 3.339400
19.206700 3.324500
19.235200 3.170900
19.263700 3.108800
19.292200 3.110100
19.320700 3.092100
19.349200 2.982100
19.377700 2.962500
19.406200 3.010400
19.434700 3.016400
19.463200 2.938400
19.491700 2.929900
19.520200 3.078600
19.548700 3.101700
19.577200 3.111000
19.605700 3.070300
19.634200 3.021700
19.662800 3.005500
19.691300 2.895200
19.719800 2.872300
19.748300 2.796100
19.776800 2.710200
19.805300 2.643200
19.833800 2.550900
19.862300 2.486400
19.890800 2.511200
19.919300 2.683500
19.947800 2.566200
19.976300 2.561300
20.004800 2.655300
20.033300 2.722900
20.061800 2.746100
20.090300 2.716000
20.118800 2.689600
20.147300 2.666300
20.175800 2.662600
20.204400 2.664700
20.232900 2.697000
20.261400 2.771100
20.289900 2.678600
20.318400 2.644600
20.346900 2.614500
20.375400 2.627000
20.403900 2.643500
20.432400 2.612500
20.460900 2.581800
20.489400 2.577000
20.517900 2.571700
20.546400 2.564800
20.574900 2.570000
20.603400 2.572700
20.631900 2.592300
20.660400 2.618600
20.688900 2.651600
20.717400 2.622500
20.745900 2.583100
20.774500 2.514900
20.803000 2.475400
20.831500 2.485300
20.860000 2.590200
20.888500 2.670400
20.917000 2.753000
20.945500 2.914900
20.974000 3.003400
21.002500 3.080800
21.031000 3.139800
21.059500 3.174200
21.088000 3.143800
21.116500 3.087500
21.145000 3.024200
21.173500 2.999000
21.202000 3.018600
21.230500 3.042300
21.259000 2.988700
21.287500 2.926400
21.316000 2.831900
21.344600 2.814300
21.373100 2.980500
21.401600 2.852700
21.430100 2.814200
21.458600 2.809200
21.487100 2.823500
21.515600 2.903800
21.544100 2.931700
21.572600 2.906400
21.601100 2.884500
21.629600 2.878100
21.658100 2.871600
21.686600 2.865400
21.715100 3.014900
21.743600 3.127100
21.772100 3.248800
21.800600 3.334600
21.829100 3.153200
21.857600 2.848600
21.886100 2.665000
21.914700 2.601700
21.943200 2.535900
21.971700 2.536100
22.000200 2.619400
22.028700 2.800400
22.057200 2.878800
22.085700 2.965400
22.114200 2.927000
22.142700 2.863200
22.171200 2.892900
22.199700 2.968500
22.228200 2.925900
22.256700 2.847000
22.285200 2.809600
22.313700 2.822400
22.342200 2.960800
22.370700 3.094400
22.399200 3.462300
22.427700 3.740600
22.456200 3.822700
22.484800 3.720600
22.513300 3.584800
22.541800 3.446900
22.570300 3.215600
22.598800 2.998500
22.627300 2.916500
22.655800 2.952800
22.684300 3.169600
22.712800 3.263700
22.741300 3.262500
22.769800 3.231200
22.798300 3.147800
22.826800 3.130300
22.855300 3.154400
22.883800 3.322900
22.912300 3.259600
22.940800 3.271700
22.969300 3.461400
22.997800 3.291100
23.026300 3.263800
23.054900 3.179900
23.083400 3.084300
23.111900 3.014800
23.140400 3.027500
23.168900 3.085200
23.197400 3.117100
23.225900 3.246700
23.254400 3.209400
23.282900 3.288300
23.311400 3.389300
23.339900 3.451600
23.368400 3.520400
23.396900 3.517000
23.425400 3.524800
23.453900 3.563400
23.482400 3.636200
23.510900 3.708300
23.539400 3.743000
23.567900 3.819100
23.596500 3.880200
23.625000 3.972200
23.653500 4.104700
23.682000 4.108700
23.710500 3.941200
23.739000 3.900800
23.767500 3.793400
23.796000 3.558600
23.824500 3.412600
23.853000 3.375600
23.881500 3.303200
23.910000 3.234900
23.938500 3.166200
23.967000 3.079800
23.995500 3.092700
24.024000 3.138900
24.052500 3.195500
24.081000 3.166400
24.109500 3.223700
24.138000 3.223000
24.166600 3.229100
24.195100 3.386700
24.223600 3.674900
24.252100 3.688300
24.280600 3.773600
24.309100 3.947700
24.337600 3.848900
24.366100 3.798700
24.394600 3.745800
24.423100 3.708800
24.451600 3.761000
24.480100 3.751700
24.508600 3.749300
24.537100 3.672900
24.565600 3.699900
24.594100 3.583100
24.622600 3.489700
24.651100 3.421600
24.679600 3.366100
24.708100 3.336500
24.736700 3.641400
24.765200 3.254700
24.793700 3.141300
24.822200 3.085700
24.850700 3.044800
24.879200 3.098400
24.907700 3.219000
24.936200 3.167400
24.964700 3.087200
24.993200 3.009600
25.021700 2.940200
25.050200 2.906000
25.078700 2.892800
25.107200 2.841400
25.135700 2.769000
25.164200 2.679100
25.192700 2.613500
25.221200 2.548200
25.249700 2.512400
25.278200 2.506300
25.306800 2.545000
25.335300 2.522400
25.363800 2.482000
25.392300 2.448700
25.420800 2.446800
25.449300 2.522700
25.477800 2.640100
25.506300 2.755300
25.534800 2.887300
25.563300 3.115700
25.591800 3.047100
25.620300 3.138300
25.648800 3.271700
25.677300 3.310000
25.705800 3.185400
25.734300 3.047700
25.762800 2.916700
25.791300 2.828900
25.819800 2.789300
25.848300 2.817400
25.876900 2.886400
25.905400 2.977600
25.933900 3.042200
25.962400 2.932000
25.990900 3.007700
26.019400 3.059200
26.047900 3.162200
26.076400 3.249000
26.104900 3.385500
26.133400 3.507300
26.161900 3.577800
26.190400 3.646700
26.218900 3.687300
26.247400 3.732900
26.275900 3.769600
26.304400 3.631600
26.332900 3.513900
26.361400 3.408700
26.389900 3.481000
26.418500 3.348800
26.447000 3.089700
26.475500 3.044200
26.504000 2.999500
26.532500 2.832300
26.561000 2.801400
26.589500 2.813400
26.618000 2.856300
26.646500 2.936900
26.675000 3.089400
26.703500 3.475200
26.732000 3.588400
26.760500 3.772400
26.789000 3.771200
26.817500 3.675700
26.846000 3.717800
26.874500 3.701700
26.903000 3.563400
26.931500 3.355900
26.960000 3.233700
26.988600 3.210600
27.017100 3.129500
27.045600 3.050200
27.074100 2.978600
27.102600 2.934600
27.131100 2.909300
27.159600 2.899400
27.188100 2.907700
27.216600 2.924200
27.245100 2.943600
27.273600 3.062700
27.302100 3.096500
27.330600 3.076700
27.359100 3.092900
27.387600 3.162100
27.416100 3.254200
27.444600 3.215400
27.473100 3.248100
27.501600 3.273400
27.530100 3.278900
27.558700 3.319100
27.587200 3.347800
27.615700 3.391900
27.644200 3.406200
27.672700 3.471300
27.701200 3.227200
27.729700 3.144100
27.758200 3.143100
27.786700 3.130500
27.815200 3.139200
27.843700 3.149000
27.872200 3.162400
27.900700 3.211500
27.929200 3.299600
27.957700 3.169000
27.986200 3.064400
28.014700 3.111500
28.043200 3.144800
28.071700 3.174600
28.100200 3.214700
28.128800 3.243800
28.157300 3.315500
28.185800 3.341500
28.214300 3.462400
28.242800 3.442700
28.271300 3.471800
28.299800 3.469800
28.328300 3.522500
28.356800 3.501100
28.385300 3.426000
28.413800 3.381700
28.442300 3.366200
28.470800 3.326100
28.499300 3.315200
28.527800 3.306000
28.556300 3.294800
28.584800 3.288400
28.613300 3.287500
28.641800 3.271000
28.670300 3.253800
28.698900 3.279100
28.727400 3.370000
28.755900 3.456600
28.784400 3.565900
28.812900 3.621300
28.841400 3.699700
28.869900 3.728100
28.898400 3.777300
28.926900 3.900800
28.955400 3.842800
28.983900 3.725300
29.012400 3.697500
29.040900 3.731400
29.069400 3.732400
29.097900 3.734200
29.126400 3.739500
29.154900 3.765200
29.183400 3.718900
29.211900 3.672900
29.240400 3.621700
29.269000 3.609400
29.297500 3.616400
29.326000 3.636100
29.354500 3.615600
29.383000 3.634800
29.411500 3.646300
29.440000 3.675600
29.468500 3.686100
29.497000 3.663300
29.525500 3.666600
29.554000 3.696900
29.582500 3.678500
29.611000 3.633400
29.639500 3.465300
29.668000 3.304800
29.696500 3.224600
29.725000 3.158900
29.753500 3.102000
29.782000 3.023500
29.810600 2.989200
29.839100 2.995700
29.867600 3.032900
29.896100 3.036900
29.924600 3.038400
29.953100 3.041300
29.981600 3.036700
30.010100 3.052200
30.038600 3.071500
30.067100 3.103300
30.095600 3.121700
30.124100 2.957800
30.152600 2.886200
30.181100 2.823600
30.209600 2.763600
30.238100 2.704900
30.266600 2.663300
30.295100 2.635900
30.323600 2.611600
30.352100 2.606900
30.380700 2.804800
30.409200 2.696100
30.437700 2.528100
30.466200 2.375900
30.494700 2.310600
30.523200 2.248400
30.551700 2.191400
30.580200 2.137400
30.608700 2.088000
30.637200 2.045400
30.665700 2.008000
30.694200 1.973200
30.722700 1.975600
30.751200 1.925100
30.779700 1.888200
30.808200 1.870000
30.836700 1.868100
30.865200 1.885000
30.893700 1.913600
30.922200 1.912900
30.950800 1.860100
30.979300 1.814700
31.007800 1.765100
31.036300 1.715900
31.064800 1.657800
31.093300 1.568700
31.121800 1.487800
31.150300 1.442500
31.178800 1.400800
31.207300 1.365700
31.235800 1.338200
31.264300 1.315400
31.292800 1.308800
31.321300 1.277200
31.349800 1.244400
31.378300 1.198200
31.406800 1.111100
31.435300 1.032800
31.463800 0.960200
31.492300 0.892800
31.520900 0.849100
31.549400 0.807600
31.577900 0.767500
31.606400 0.730600
31.634900 0.706600
31.663400 0.695200
31.691900 0.670100
31.720400 0.638100
31.748900 0.611900
31.777400 0.589800
31.805900 0.570400
31.834400 0.552900
31.862900 0.534600
31.891400 0.514900
31.919900 0.495500
31.948400 0.478700
31.976900 0.463200
32.005400 0.447800
32.033900 0.432700
32.062400 0.418800
32.091000 0.400800
32.119500 0.390100
32.148000 0.382600
32.176500 0.384400
32.205000 0.385800
32.233500 0.365400
32.262000 0.345400
32.290500 0.311600
32.319000 0.291200
32.347500 0.272900
32.376000 0.260900
32.404500 0.249200
32.433000 0.237800
32.461500 0.226800
32.490000 0.199600
32.518500 0.174200
32.547000 0.155700
32.575500 0.144200
32.604000 0.133500
32.632500 0.123600
32.661100 0.114300
32.689600 0.105800
32.718100 0.098000
32.746600 0.090800
32.775100 0.084300
32.803600 0.078000
32.832100 0.072000
32.860600 0.066200
32.889100 0.060800
32.917600 0.054400
32.946100 0.047000
32.974600 0.046800
33.003100 0.040300
33.031600 0.034500
33.060100 0.029200
33.088600 0.024500
33.117100 0.020300
33.145600 0.016700
33.174100 0.013600
33.202700 0.011000
33.231200 0.008400
33.259700 0.005900
33.288200 0.003800
33.316700 0.002200
33.345200 0.001000
33.373700 0.000300
33.402200 0.000000
33.430700 0.000000
33.459200 0.000000
33.487700 0.000000
33.516200 0.000000
33.544700 0.000000
33.573200 0.000000
33.601700 0.000000
33.630200 0.000000
33.658700 0.000000
33.687200 0.000000
33.715700 0.000000
33.744200 0.000000
33.772800 0.000000
33.801300 0.000000
33.829800 0.000000
33.858300 0.000000
33.886800 0.000000
33.915300 0.000000
33.943800 0.000000
33.972300 0.000000
34.000800 0.000000
34.029300 0.000000
34.057800 0.000000
34.086300 0.000000
34.114800 0.000000
34.143300 0.000000
34.171800 0.000000
34.200300 0.000000
34.228800 0.000000
34.257300 0.000000
34.285800 0.000000
34.314300 0.000000
34.342900 0.000000
34.371400 0.000000
34.399900 0.000000
34.428400 0.000000
34.456900 0.000000
34.485400 0.000000
34.513900 0.000000
34.542400 0.000000
34.570900 0.000000
34.599400 0.000000
34.627900 0.000000
34.656400 0.000000
34.684900 0.000000
34.713400 0.000000
34.741900 0.000000
34.770400 0.000000
34.798900 0.000000
34.827400 0.000000
34.855900 0.000000
34.884400 0.000000
34.913000 0.000000
34.941500 0.000000
34.970000 0.000000
34.998500 0.000000
35.027000 0.000000
35.055500 0.000000
35.084000 0.000000
35.112500 0.000000
35.141000 0.000000
35.169500 0.000000
35.198000 0.000000
35.226500 0.000000
35.255000 0.000000
35.283500 0.000000
35.312000 0.000000
35.340500 0.000000
35.369000 0.000000
35.397500 0.000000
35.426000 0.000000
35.454500 0.000000
35.483100 0.000000
35.511600 0.000000
35.540100 0.000000
35.568600 0.000000
35.597100 0.000000
35.625600 0.000000
35.654100 0.000000
35.682600 0.000000
35.711100 0.000000
35.739600 0.000000
35.768100 0.000000
35.796600 0.000000
35.825100 0.000000
35.853600 0.000000
35.882100 0.000000
35.910600 0.000000
35.939100 0.000000
35.967600 0.000000
35.996100 0.000000
e
