set title 'mp-20483 - Density of States'
set xlabel 'Energy (eV)'
set ylabel 'DOS (states/eV)'
set grid
set xrange [-10:10]
set yrange [0:1.190]
set xzeroaxis lt -1
set terminal png size 800,600
set output 'mp-20483_dos_gnuplot.png'
plot '-' using 1:2 with lines title 'DOS'
-12.560400 0.000000
-12.538400 0.000000
-12.516500 0.000000
-12.494500 0.000000
-12.472600 0.000000
-12.450700 0.000000
-12.428700 0.000000
-12.406800 0.000000
-12.384800 0.000000
-12.362900 0.000000
-12.340900 0.000000
-12.319000 0.000000
-12.297000 0.000000
-12.275100 0.000000
-12.253100 0.000000
-12.231200 0.000000
-12.209200 0.000000
-12.187300 0.000000
-12.165300 0.000000
-12.143400 0.000000
-12.121400 0.000000
-12.099500 0.000000
-12.077500 0.000000
-12.055600 0.000000
-12.033600 0.000000
-12.011700 0.000000
-11.989700 0.000000
-11.967800 0.000000
-11.945800 0.000000
-11.923900 0.000000
-11.901900 0.000000
-11.880000 0.000000
-11.858000 0.000000
-11.836100 0.000000
-11.814100 0.000000
-11.792200 0.000000
-11.770200 0.000000
-11.748300 0.000000
-11.726400 0.000000
-11.704400 0.000000
-11.682500 0.000000
-11.660500 0.000000
-11.638600 0.000000
-11.616600 0.000000
-11.594700 0.000000
-11.572700 0.000000
-11.550800 0.000000
-11.528800 0.000000
-11.506900 0.000000
-11.484900 0.000000
-11.463000 0.000000
-11.441000 0.000000
-11.419100 0.000000
-11.397100 0.000000
-11.375200 0.000000
-11.353200 0.000000
-11.331300 0.000000
-11.309300 0.000000
-11.287400 0.000000
-11.265400 0.000000
-11.243500 0.000000
-11.221500 0.000000
-11.199600 0.000000
-11.177600 0.000000
-11.155700 0.000000
-11.133700 0.000000
-11.111800 0.000000
-11.089800 0.000000
-11.067900 0.000000
-11.045900 0.000000
-11.024000 0.000000
-11.002100 0.000000
-10.980100 0.000000
-10.958200 0.000000
-10.936200 0.000000
-10.914300 0.000000
-10.892300 0.000000
-10.870400 0.000000
-10.848400 0.000000
-10.826500 0.000000
-10.804500 0.000000
-10.782600 0.000000
-10.760600 0.000000
-10.738700 0.000000
-10.716700 0.000000
-10.694800 0.000000
-10.672800 0.000000
-10.650900 0.000000
-10.628900 0.000000
-10.607000 0.000000
-10.585000 0.000000
-10.563100 0.489900
-10.541100 3.403000
-10.519200 5.826400
-10.497200 9.019000
-10.475300 16.746300
-10.453300 28.629400
-10.431400 33.648700
-10.409400 55.648000
-10.387500 30.715400
-10.365500 15.699300
-10.343600 22.336500
-10.321600 31.895700
-10.299700 19.512200
-10.277800 44.310300
-10.255800 32.690000
-10.233900 33.247200
-10.211900 38.325500
-10.190000 16.722200
-10.168000 0.000000
-10.146100 0.000000
-10.124100 0.000000
-10.102200 0.000000
-10.080200 0.000000
-10.058300 0.000000
-10.036300 0.000000
-10.014400 0.000000
-9.992400 0.000000
-9.970500 0.000000
-9.948500 0.000000
-9.926600 0.000000
-9.904600 0.000000
-9.882700 0.000000
-9.860700 0.000000
-9.838800 0.000000
-9.816800 0.000000
-9.794900 0.000000
-9.772900 0.000000
-9.751000 0.000000
-9.729000 0.000000
-9.707100 0.000000
-9.685100 0.000000
-9.663200 0.000000
-9.641200 0.000000
-9.619300 0.000000
-9.597400 0.000000
-9.575400 0.000000
-9.553500 0.000000
-9.531500 0.000000
-9.509600 0.000000
-9.487600 0.000000
-9.465700 0.000000
-9.443700 0.000000
-9.421800 0.000000
-9.399800 0.000000
-9.377900 0.000000
-9.355900 0.000000
-9.334000 0.000000
-9.312000 0.000000
-9.290100 0.000000
-9.268100 0.000000
-9.246200 0.000000
-9.224200 0.000000
-9.202300 0.000000
-9.180300 0.000000
-9.158400 0.000000
-9.136400 0.000000
-9.114500 0.000000
-9.092500 0.000000
-9.070600 0.000000
-9.048600 0.000000
-9.026700 0.000000
-9.004700 0.000000
-8.982800 0.000000
-8.960800 0.000000
-8.938900 0.000000
-8.916900 0.000000
-8.895000 0.000000
-8.873100 0.000000
-8.851100 0.000000
-8.829200 0.000000
-8.807200 0.000000
-8.785300 0.000000
-8.763300 0.000000
-8.741400 0.000000
-8.719400 0.000000
-8.697500 0.000000
-8.675500 0.000000
-8.653600 0.000000
-8.631600 0.000000
-8.609700 0.000000
-8.587700 0.000000
-8.565800 0.000000
-8.543800 0.000000
-8.521900 0.000000
-8.499900 0.000000
-8.478000 0.000000
-8.456000 0.000000
-8.434100 0.000000
-8.412100 0.000000
-8.390200 0.000000
-8.368200 0.000000
-8.346300 0.000000
-8.324300 0.000000
-8.302400 0.000000
-8.280400 0.000000
-8.258500 0.000000
-8.236500 0.000000
-8.214600 0.000000
-8.192600 0.000000
-8.170700 0.000000
-8.148800 0.000000
-8.126800 0.000000
-8.104900 0.000000
-8.082900 0.000000
-8.061000 0.000000
-8.039000 0.000000
-8.017100 0.000000
-7.995100 0.000000
-7.973200 0.000000
-7.951200 0.000000
-7.929300 0.000000
-7.907300 0.000000
-7.885400 0.000000
-7.863400 0.000000
-7.841500 0.000000
-7.819500 0.000000
-7.797600 0.000000
-7.775600 0.000000
-7.753700 0.000000
-7.731700 0.000000
-7.709800 0.000000
-7.687800 0.000000
-7.665900 0.000000
-7.643900 0.000000
-7.622000 0.000000
-7.600000 0.000000
-7.578100 0.000000
-7.556100 0.000000
-7.534200 0.000000
-7.512200 0.000000
-7.490300 0.000000
-7.468300 0.000000
-7.446400 0.000000
-7.424500 0.000000
-7.402500 0.000000
-7.380600 0.000000
-7.358600 0.000000
-7.336700 0.000000
-7.314700 0.000000
-7.292800 0.000000
-7.270800 0.000000
-7.248900 0.000000
-7.226900 0.000000
-7.205000 0.000000
-7.183000 0.000000
-7.161100 0.000000
-7.139100 0.000000
-7.117200 0.000000
-7.095200 0.000000
-7.073300 0.000000
-7.051300 0.000000
-7.029400 0.000000
-7.007400 0.000000
-6.985500 0.000000
-6.963500 0.000000
-6.941600 0.000000
-6.919600 0.000000
-6.897700 0.000000
-6.875700 0.000000
-6.853800 0.000000
-6.831800 0.000000
-6.809900 0.000000
-6.787900 0.000000
-6.766000 0.000000
-6.744000 0.000000
-6.722100 0.000000
-6.700200 0.000000
-6.678200 0.000000
-6.656300 0.000000
-6.634300 0.000000
-6.612400 0.000000
-6.590400 0.000000
-6.568500 0.000000
-6.546500 0.000000
-6.524600 0.000000
-6.502600 0.000000
-6.480700 0.000000
-6.458700 0.000000
-6.436800 0.000000
-6.414800 0.000000
-6.392900 0.000000
-6.370900 0.000000
-6.349000 0.000000
-6.327000 0.000000
-6.305100 0.000000
-6.283100 0.000000
-6.261200 0.000000
-6.239200 0.000000
-6.217300 0.000000
-6.195300 0.000000
-6.173400 0.000000
-6.151400 0.000000
-6.129500 0.000000
-6.107500 0.000000
-6.085600 0.000000
-6.063600 0.000000
-6.041700 0.000000
-6.019700 0.000000
-5.997800 0.000000
-5.975900 0.000000
-5.953900 0.000000
-5.932000 0.000000
-5.910000 0.000000
-5.888100 0.000000
-5.866100 0.000000
-5.844200 0.000000
-5.822200 0.000000
-5.800300 0.000000
-5.778300 0.000000
-5.756400 0.000000
-5.734400 0.000000
-5.712500 0.000000
-5.690500 0.000000
-5.668600 0.000000
-5.646600 0.000000
-5.624700 0.000000
-5.602700 0.000000
-5.580800 0.000000
-5.558800 0.000000
-5.536900 0.000000
-5.514900 0.000000
-5.493000 0.000000
-5.471000 0.000000
-5.449100 0.000000
-5.427100 0.000000
-5.405200 0.000000
-5.383200 0.000000
-5.361300 0.000000
-5.339300 0.000000
-5.317400 0.000000
-5.295500 0.000000
-5.273500 0.000000
-5.251600 0.000000
-5.229600 0.000000
-5.207700 0.000000
-5.185700 0.000000
-5.163800 0.000000
-5.141800 0.000000
-5.119900 0.000000
-5.097900 0.000000
-5.076000 0.000000
-5.054000 0.000000
-5.032100 0.000000
-5.010100 0.000000
-4.988200 0.000000
-4.966200 0.000000
-4.944300 0.000000
-4.922300 0.000000
-4.900400 0.000000
-4.878400 0.000000
-4.856500 0.000000
-4.834500 0.000000
-4.812600 0.000000
-4.790600 0.000000
-4.768700 0.000000
-4.746700 0.000000
-4.724800 0.000000
-4.702800 0.000000
-4.680900 0.000000
-4.658900 0.002000
-4.637000 0.021000
-4.615000 0.048500
-4.593100 0.048600
-4.571200 0.057800
-4.549200 0.067600
-4.527300 0.077800
-4.505300 0.084300
-4.483400 0.086100
-4.461400 0.090500
-4.439500 0.096100
-4.417500 0.101800
-4.395600 0.107600
-4.373600 0.113600
-4.351700 0.119800
-4.329700 0.121500
-4.307800 0.125000
-4.285800 0.128300
-4.263900 0.131500
-4.241900 0.134900
-4.220000 0.138700
-4.198000 0.142900
-4.176100 0.147200
-4.154100 0.151500
-4.132200 0.155800
-4.110200 0.159300
-4.088300 0.161400
-4.066300 0.163600
-4.044400 0.166400
-4.022400 0.169300
-4.000500 0.172200
-3.978500 0.175200
-3.956600 0.178100
-3.934600 0.181200
-3.912700 0.184500
-3.890700 0.187800
-3.868800 0.191100
-3.846900 0.194500
-3.824900 0.197900
-3.803000 0.200000
-3.781000 0.202400
-3.759100 0.204800
-3.737100 0.207000
-3.715200 0.209300
-3.693200 0.211800
-3.671300 0.214400
-3.649300 0.217100
-3.627400 0.219800
-3.605400 0.222500
-3.583500 0.225200
-3.561500 0.227900
-3.539600 0.230700
-3.517600 0.233600
-3.495700 0.236500
-3.473700 0.239400
-3.451800 0.242000
-3.429800 0.244100
-3.407900 0.246300
-3.385900 0.248600
-3.364000 0.251000
-3.342000 0.253300
-3.320100 0.255600
-3.298100 0.258000
-3.276200 0.260400
-3.254200 0.262900
-3.232300 0.265500
-3.210300 0.268100
-3.188400 0.270700
-3.166400 0.273300
-3.144500 0.276000
-3.122600 0.278700
-3.100600 0.281300
-3.078700 0.284000
-3.056700 0.286800
-3.034800 0.289200
-3.012800 0.291600
-2.990900 0.294000
-2.968900 0.296400
-2.947000 0.298800
-2.925000 0.301300
-2.903100 0.303900
-2.881100 0.306500
-2.859200 0.309100
-2.837200 0.311700
-2.815300 0.314300
-2.793300 0.317000
-2.771400 0.319700
-2.749400 0.322400
-2.727500 0.325200
-2.705500 0.328000
-2.683600 0.330800
-2.661600 0.333700
-2.639700 0.336500
-2.617700 0.339400
-2.595800 0.342300
-2.573800 0.345200
-2.551900 0.348000
-2.529900 0.351000
-2.508000 0.354000
-2.486000 0.357000
-2.464100 0.360000
-2.442100 0.363100
-2.420200 0.366300
-2.398300 0.369500
-2.376300 0.372700
-2.354400 0.376000
-2.332400 0.379300
-2.310500 0.382700
-2.288500 0.386000
-2.266600 0.389500
-2.244600 0.392900
-2.222700 0.396500
-2.200700 0.400100
-2.178800 0.403700
-2.156800 0.407400
-2.134900 0.411200
-2.112900 0.415000
-2.091000 0.418900
-2.069000 0.423200
-2.047100 0.427600
-2.025100 0.432000
-2.003200 0.436600
-1.981200 0.441300
-1.959300 0.446100
-1.937300 0.451000
-1.915400 0.456100
-1.893400 0.461200
-1.871500 0.466600
-1.849500 0.472100
-1.827600 0.477800
-1.805600 0.483600
-1.783700 0.489700
-1.761700 0.495800
-1.739800 0.502200
-1.717900 0.508700
-1.695900 0.515400
-1.674000 0.522600
-1.652000 0.530200
-1.630100 0.538200
-1.608100 0.546700
-1.586200 0.555700
-1.564200 0.566500
-1.542300 0.578000
-1.520300 0.590100
-1.498400 0.603100
-1.476400 0.617600
-1.454500 0.635800
-1.432500 0.658200
-1.410600 0.691300
-1.388600 0.724900
-1.366700 0.743800
-1.344700 0.754000
-1.322800 0.840700
-1.300800 0.774700
-1.278900 0.759500
-1.256900 0.753200
-1.235000 0.747600
-1.213000 0.742200
-1.191100 0.737800
-1.169100 0.734200
-1.147200 0.730800
-1.125200 0.726200
-1.103300 0.723700
-1.081300 0.740800
-1.059400 0.744200
-1.037400 0.743500
-1.015500 0.739400
-0.993600 0.730800
-0.971600 0.724200
-0.949700 0.720500
-0.927700 0.717700
-0.905800 0.715300
-0.883800 0.713500
-0.861900 0.711700
-0.839900 0.710100
-0.818000 0.708000
-0.796000 0.705500
-0.774100 0.702400
-0.752100 0.697600
-0.730200 0.696400
-0.708200 0.699600
-0.686300 0.704100
-0.664300 0.706400
-0.642400 0.706900
-0.620400 0.707100
-0.598500 0.706300
-0.576500 0.705100
-0.554600 0.703100
-0.532600 0.701900
-0.510700 0.701500
-0.488700 0.701000
-0.466800 0.701600
-0.444800 0.703300
-0.422900 0.706200
-0.400900 0.710500
-0.379000 0.717500
-0.357000 0.721700
-0.335100 0.727700
-0.313100 0.736400
-0.291200 0.747900
-0.269300 0.758800
-0.247300 0.768700
-0.225400 0.777500
-0.203400 0.788200
-0.181500 0.805100
-0.159500 0.832000
-0.137600 0.908500
-0.115600 1.069500
-0.093700 1.082100
-0.071700 0.696100
-0.049800 0.447800
-0.027800 0.357300
-0.005900 0.000000
0.016100 0.000000
0.038000 0.000000
0.060000 0.000000
0.081900 0.000000
0.103900 0.000000
0.125800 0.000000
0.147800 0.000000
0.169700 0.000000
0.191700 0.000000
0.213600 0.000000
0.235600 0.000000
0.257500 0.000000
0.279500 0.000000
0.301400 0.000000
0.323400 0.000000
0.345300 0.000000
0.367300 0.000000
0.389200 0.000000
0.411200 0.000000
0.433100 0.000000
0.455000 0.000000
0.477000 0.000000
0.498900 0.000000
0.520900 0.000000
0.542800 0.000000
0.564800 0.000000
0.586700 0.000000
0.608700 0.000000
0.630600 0.000000
0.652600 0.000000
0.674500 0.000000
0.696500 0.000000
0.718400 0.000000
0.740400 0.000000
0.762300 0.000000
0.784300 0.000000
0.806200 0.000000
0.828200 0.000000
0.850100 0.000000
0.872100 0.000000
0.894000 0.000000
0.916000 0.000000
0.937900 0.000000
0.959900 0.000000
0.981800 0.000000
1.003800 0.000000
1.025700 0.000000
1.047700 0.000000
1.069600 0.000000
1.091600 0.000000
1.113500 0.000000
1.135500 0.000000
1.157400 0.000000
1.179300 0.000000
1.201300 0.000000
1.223200 0.000000
1.245200 0.000000
1.267100 0.000000
1.289100 0.000000
1.311000 0.000000
1.333000 0.000000
1.354900 0.000000
1.376900 0.000000
1.398800 0.000000
1.420800 0.000000
1.442700 0.000000
1.464700 0.000000
1.486600 0.000000
1.508600 0.000000
1.530500 0.000000
1.552500 0.000000
1.574400 0.000000
1.596400 0.000000
1.618300 0.000000
1.640300 0.000000
1.662200 0.000000
1.684200 0.000000
1.706100 0.000000
1.728100 0.000000
1.750000 0.000000
1.772000 0.000000
1.793900 0.000000
1.815900 0.000000
1.837800 0.000000
1.859800 0.000000
1.881700 0.000000
1.903600 0.000000
1.925600 0.000000
1.947500 0.000000
1.969500 0.000000
1.991400 0.000000
2.013400 0.000000
2.035300 0.000000
2.057300 0.000000
2.079200 0.000000
2.101200 0.000000
2.123100 0.000000
2.145100 0.000000
2.167000 0.000000
2.189000 0.000000
2.210900 0.000000
2.232900 0.000000
2.254800 0.000000
2.276800 0.000000
2.298700 0.000000
2.320700 0.000000
2.342600 0.000000
2.364600 0.000000
2.386500 0.000000
2.408500 0.000000
2.430400 0.000000
2.452400 0.000000
2.474300 0.000000
2.496300 0.000000
2.518200 0.000000
2.540200 0.000000
2.562100 0.000000
2.584000 0.000000
2.606000 0.000000
2.627900 0.000000
2.649900 0.000000
2.671800 0.000000
2.693800 0.000000
2.715700 0.000000
2.737700 0.000000
2.759600 0.000000
2.781600 0.000000
2.803500 0.051000
2.825500 0.046300
2.847400 0.057700
2.869400 0.070300
2.891300 0.084000
2.913300 0.098900
2.935200 0.114800
2.957200 0.131900
2.979100 0.141300
3.001100 0.140300
3.023000 0.145800
3.045000 0.152000
3.066900 0.157300
3.088900 0.162000
3.110800 0.165900
3.132800 0.172600
3.154700 0.179300
3.176700 0.185900
3.198600 0.193200
3.220600 0.201400
3.242500 0.210100
3.264500 0.219200
3.286400 0.228100
3.308300 0.233500
3.330300 0.236900
3.352200 0.241000
3.374200 0.245200
3.396100 0.248900
3.418100 0.252400
3.440000 0.258300
3.462000 0.263400
3.483900 0.268400
3.505900 0.273500
3.527800 0.278700
3.549800 0.284300
3.571700 0.290300
3.593700 0.296400
3.615600 0.302600
3.637600 0.308900
3.659500 0.316000
3.681500 0.347700
3.703400 0.368400
3.725400 0.378500
3.747300 0.388900
3.769300 0.404900
3.791200 0.423100
3.813200 0.474500
3.835100 0.446500
3.857100 0.457400
3.879000 0.474700
3.901000 0.487200
3.922900 0.497500
3.944900 0.508600
3.966800 0.520700
3.988800 0.533700
4.010700 0.547900
4.032600 0.563200
4.054600 0.579800
4.076500 0.595200
4.098500 0.609200
4.120400 0.623600
4.142400 0.638200
4.164300 0.653600
4.186300 0.670600
4.208200 0.689000
4.230200 0.709200
4.252100 0.731100
4.274100 0.754900
4.296000 0.786700
4.318000 0.828400
4.339900 0.885800
4.361900 0.951200
4.383800 0.986700
4.405800 0.987600
4.427700 0.988800
4.449700 0.998600
4.471600 1.011200
4.493600 1.010400
4.515500 0.992200
4.537500 0.978700
4.559400 0.975300
4.581400 0.972300
4.603300 0.956000
4.625300 0.933500
4.647200 0.921300
4.669200 0.921500
4.691100 0.925200
4.713100 0.928400
4.735000 0.932400
4.756900 0.940100
4.778900 0.939400
4.800800 0.943600
4.822800 0.941300
4.844700 0.929500
4.866700 0.921800
4.888600 0.884800
4.910600 0.839100
4.932500 0.780600
4.954500 0.707400
4.976400 0.643000
4.998400 0.595200
5.020300 0.559000
5.042300 0.533900
5.064200 0.514800
5.086200 0.497800
5.108100 0.482800
5.130100 0.470000
5.152000 0.459600
5.174000 0.442600
5.195900 0.427600
5.217900 0.404400
5.239800 0.384300
5.261800 0.365600
5.283700 0.361900
5.305700 0.360000
5.327600 0.359900
5.349600 0.361600
5.371500 0.365000
5.393500 0.369100
5.415400 0.374100
5.437400 0.383100
5.459300 0.396600
5.481200 0.414600
5.503200 0.444800
5.525100 0.465900
5.547100 0.483900
5.569000 0.498600
5.591000 0.504000
5.612900 0.513800
5.634900 0.520800
5.656800 0.521000
5.678800 0.518700
5.700700 0.516500
5.722700 0.514600
5.744600 0.510100
5.766600 0.503800
5.788500 0.503300
5.810500 0.504000
5.832400 0.506000
5.854400 0.509100
5.876300 0.513000
5.898300 0.517200
5.920200 0.521800
5.942200 0.525500
5.964100 0.527300
5.986100 0.529700
6.008000 0.532500
6.030000 0.534900
6.051900 0.536800
6.073900 0.538500
6.095800 0.539700
6.117800 0.543700
6.139700 0.543600
6.161600 0.542700
6.183600 0.542100
6.205500 0.541500
6.227500 0.540900
6.249400 0.540200
6.271400 0.539400
6.293300 0.538600
6.315300 0.537800
6.337200 0.535700
6.359200 0.531000
6.381100 0.529200
6.403100 0.528600
6.425000 0.528200
6.447000 0.527500
6.468900 0.527800
6.490900 0.529500
6.512800 0.532600
6.534800 0.533300
6.556700 0.533800
6.578700 0.534300
6.600600 0.534700
6.622600 0.535100
6.644500 0.535500
6.666500 0.535800
6.688400 0.536000
6.710400 0.536200
6.732300 0.536400
6.754300 0.536400
6.776200 0.536400
6.798200 0.541100
6.820100 0.547000
6.842100 0.542900
6.864000 0.536100
6.885900 0.536600
6.907900 0.537000
6.929800 0.537900
6.951800 0.539000
6.973700 0.537200
6.995700 0.531300
7.017600 0.528300
7.039600 0.528500
7.061500 0.527900
7.083500 0.526900
7.105400 0.525400
7.127400 0.522800
7.149300 0.551800
7.171300 0.552300
7.193200 0.553600
7.215200 0.555900
7.237100 0.560000
7.259100 0.563600
7.281000 0.567300
7.303000 0.571300
7.324900 0.575600
7.346900 0.580200
7.368800 0.584900
7.390800 0.596700
7.412700 0.605200
7.434700 0.589700
7.456600 0.592000
7.478600 0.594600
7.500500 0.597300
7.522500 0.600200
7.544400 0.603200
7.566400 0.605900
7.588300 0.608700
7.610200 0.647200
7.632200 0.616500
7.654100 0.622200
7.676100 0.630200
7.698000 0.640300
7.720000 0.649500
7.741900 0.641000
7.763900 0.637900
7.785800 0.638900
7.807800 0.640500
7.829700 0.641900
7.851700 0.644100
7.873600 0.661500
7.895600 0.664000
7.917500 0.652800
7.939500 0.657100
7.961400 0.662200
7.983400 0.665400
8.005300 0.671300
8.027300 0.678100
8.049200 0.684900
8.071200 0.679400
8.093100 0.671200
8.115100 0.669800
8.137000 0.670100
8.159000 0.671800
8.180900 0.674300
8.202900 0.677100
8.224800 0.680100
8.246800 0.683400
8.268700 0.687100
8.290700 0.691100
8.312600 0.709100
8.334500 0.727200
8.356500 0.717000
8.378400 0.733700
8.400400 0.768400
8.422300 0.774700
8.444300 0.773500
8.466200 0.769700
8.488200 0.779200
8.510100 0.792300
8.532100 0.807800
8.554000 0.822400
8.576000 0.818600
8.597900 0.826300
8.619900 0.838000
8.641800 0.851100
8.663800 0.865800
8.685700 0.861300
8.707700 0.860100
8.729600 0.861900
8.751600 0.866100
8.773500 0.863800
8.795500 0.847100
8.817400 0.842100
8.839400 0.848600
8.861300 0.844000
8.883300 0.839500
8.905200 0.835300
8.927200 0.831100
8.949100 0.826500
8.971100 0.822300
8.993000 0.818600
9.015000 0.831800
9.036900 0.825500
9.058800 0.820400
9.080800 0.816400
9.102700 0.813200
9.124700 0.810800
9.146600 0.808000
9.168600 0.802800
9.190500 0.801300
9.212500 0.800200
9.234400 0.799300
9.256400 0.798500
9.278300 0.796600
9.300300 0.794900
9.322200 0.794800
9.344200 0.793100
9.366100 0.791200
9.388100 0.789400
9.410000 0.787600
9.432000 0.785900
9.453900 0.784100
9.475900 0.782100
9.497800 0.779800
9.519800 0.777300
9.541700 0.774500
9.563700 0.771500
9.585600 0.768200
9.607600 0.764700
9.629500 0.761000
9.651500 0.757400
9.673400 0.754100
9.695400 0.751100
9.717300 0.748800
9.739300 0.747200
9.761200 0.746700
9.783100 0.744900
9.805100 0.742700
9.827000 0.740400
9.849000 0.737900
9.870900 0.735400
9.892900 0.733000
9.914800 0.730600
9.936800 0.728500
9.958700 0.726000
9.980700 0.723900
10.002600 0.722100
10.024600 0.720700
10.046500 0.719100
10.068500 0.716800
10.090400 0.713800
10.112400 0.710800
10.134300 0.707700
10.156300 0.704600
10.178200 0.701500
10.200200 0.698600
10.222100 0.696000
10.244100 0.693800
10.266000 0.691800
10.288000 0.690000
10.309900 0.688300
10.331900 0.686900
10.353800 0.685600
10.375800 0.684600
10.397700 0.684400
10.419700 0.683900
10.441600 0.683200
10.463500 0.682100
10.485500 0.680600
10.507400 0.678800
10.529400 0.676700
10.551300 0.674200
10.573300 0.671400
10.595200 0.668400
10.617200 0.665000
10.639100 0.666400
10.661100 0.662800
10.683000 0.659500
10.705000 0.656100
10.726900 0.653400
10.748900 0.651600
10.770800 0.650200
10.792800 0.648900
10.814700 0.647800
10.836700 0.646900
10.858600 0.646100
10.880600 0.644600
10.902500 0.643300
10.924500 0.641800
10.946400 0.639400
10.968400 0.638000
10.990300 0.636600
11.012300 0.635000
11.034200 0.633500
11.056200 0.632100
11.078100 0.630700
11.100100 0.628400
11.122000 0.625800
11.144000 0.623000
11.165900 0.620100
11.187800 0.617100
11.209800 0.614000
11.231700 0.610800
11.253700 0.607200
11.275600 0.602600
11.297600 0.599000
11.319500 0.596400
11.341500 0.593800
11.363400 0.591900
11.385400 0.590600
11.407300 0.590400
11.429300 0.595400
11.451200 0.595900
11.473200 0.595800
11.495100 0.595700
11.517100 0.595400
11.539000 0.594900
11.561000 0.593100
11.582900 0.590200
11.604900 0.587900
11.626800 0.585400
11.648800 0.583000
11.670700 0.580800
11.692700 0.578600
11.714600 0.576100
11.736600 0.576600
11.758500 0.573800
11.780500 0.570500
11.802400 0.567800
11.824400 0.565900
11.846300 0.559400
11.868300 0.548600
11.890200 0.534300
11.912100 0.517700
11.934100 0.498600
11.956000 0.488600
11.978000 0.475600
11.999900 0.459500
12.021900 0.454500
12.043800 0.450000
12.065800 0.446200
12.087700 0.442800
12.109700 0.439200
12.131600 0.435100
12.153600 0.430800
12.175500 0.427700
12.197500 0.425200
12.219400 0.423500
12.241400 0.422400
12.263300 0.426000
12.285300 0.424900
12.307200 0.423700
12.329200 0.422200
12.351100 0.420700
12.373100 0.419700
12.395000 0.420100
12.417000 0.420200
12.438900 0.418500
12.460900 0.418600
12.482800 0.419100
12.504800 0.419900
12.526700 0.420800
12.548700 0.422400
12.570600 0.424000
12.592600 0.425800
12.614500 0.428000
12.636400 0.430400
12.658400 0.433000
12.680300 0.435600
12.702300 0.438300
12.724200 0.441200
12.746200 0.444200
12.768100 0.447300
12.790100 0.450300
12.812000 0.453700
12.834000 0.457300
12.855900 0.459200
12.877900 0.457800
12.899800 0.460000
12.921800 0.462200
12.943700 0.464500
12.965700 0.466900
12.987600 0.469500
13.009600 0.472800
13.031500 0.482000
13.053500 0.484500
13.075400 0.486900
13.097400 0.489200
13.119300 0.491800
13.141300 0.496000
13.163200 0.501200
13.185200 0.507600
13.207100 0.515300
13.229100 0.523600
13.251000 0.534600
13.273000 0.545500
13.294900 0.555000
13.316900 0.568600
13.338800 0.580500
13.360700 0.586600
13.382700 0.589900
13.404600 0.591200
13.426600 0.588800
13.448500 0.588200
13.470500 0.586200
13.492400 0.582400
13.514400 0.576700
13.536300 0.570400
13.558300 0.563600
13.580200 0.538000
13.602200 0.516900
13.624100 0.504000
13.646100 0.487000
13.668000 0.476500
13.690000 0.478700
13.711900 0.484900
13.733900 0.491300
13.755800 0.498200
13.777800 0.504900
13.799700 0.511300
13.821700 0.517700
13.843600 0.524400
13.865600 0.531200
13.887500 0.538100
13.909500 0.545000
13.931400 0.552100
13.953400 0.559200
13.975300 0.566400
13.997300 0.573300
14.019200 0.579900
14.041200 0.586600
14.063100 0.593900
14.085000 0.602300
14.107000 0.608600
14.128900 0.614200
14.150900 0.619300
14.172800 0.624500
14.194800 0.630000
14.216700 0.635900
14.238700 0.642200
14.260600 0.648700
14.282600 0.655300
14.304500 0.662100
14.326500 0.668800
14.348400 0.675500
14.370400 0.682500
14.392300 0.689900
14.414300 0.697400
14.436200 0.704900
14.458200 0.712300
14.480100 0.720100
14.502100 0.728200
14.524000 0.736400
14.546000 0.744900
14.567900 0.753800
14.589900 0.762900
14.611800 0.772400
14.633800 0.782400
14.655700 0.792700
14.677700 0.803200
14.699600 0.813900
14.721600 0.824800
14.743500 0.842900
14.765400 0.865800
14.787400 0.893000
14.809300 0.925300
14.831300 0.961600
14.853200 0.980300
14.875200 0.996100
14.897100 1.012600
14.919100 1.027800
14.941000 1.043200
14.963000 1.062500
14.984900 1.086200
15.006900 1.114000
15.028800 1.169100
15.050800 1.072800
15.072700 1.065200
15.094700 1.056800
15.116600 1.044900
15.138600 1.029500
15.160500 1.010700
15.182500 0.995500
15.204400 0.987200
15.226400 0.985700
15.248300 0.998900
15.270300 1.018200
15.292200 1.013700
15.314200 1.007400
15.336100 1.012800
15.358100 1.041200
15.380000 1.090100
15.402000 1.127200
15.423900 1.142900
15.445900 1.150900
15.467800 1.160600
15.489700 1.153900
15.511700 1.140200
15.533600 1.119400
15.555600 1.092000
15.577500 1.060000
15.599500 1.022200
15.621400 0.976300
15.643400 0.921900
15.665300 0.898800
15.687300 0.888200
15.709200 0.872400
15.731200 0.849800
15.753100 0.825100
15.775100 0.798200
15.797000 0.774600
15.819000 0.760900
15.840900 0.758600
15.862900 0.772900
15.884800 0.785900
15.906800 0.767500
15.928700 0.738700
15.950700 0.700800
15.972600 0.673200
15.994600 0.660300
16.016500 0.641800
16.038500 0.621400
16.060400 0.600900
16.082400 0.589600
16.104300 0.579400
16.126300 0.567200
16.148200 0.553800
16.170200 0.539400
16.192100 0.531100
16.214000 0.522500
16.236000 0.511100
16.257900 0.501400
16.279900 0.493400
16.301800 0.486900
16.323800 0.481900
16.345700 0.478200
16.367700 0.475800
16.389600 0.474300
16.411600 0.473000
16.433500 0.471400
16.455500 0.469000
16.477400 0.467900
16.499400 0.468800
16.521300 0.470600
16.543300 0.474400
16.565200 0.479200
16.587200 0.484800
16.609100 0.493200
16.631100 0.505900
16.653000 0.526200
16.675000 0.548300
16.696900 0.570300
16.718900 0.588600
16.740800 0.586100
16.762800 0.596500
16.784700 0.606300
16.806700 0.615400
16.828600 0.623900
16.850600 0.632300
16.872500 0.645200
16.894500 0.669100
16.916400 0.701000
16.938300 0.744900
16.960300 0.785500
16.982200 0.820300
17.004200 0.846000
17.026100 0.933200
17.048100 0.895500
17.070000 0.878500
17.092000 0.866400
17.113900 0.860900
17.135900 0.854500
17.157800 0.847200
17.179800 0.854900
17.201700 0.875800
17.223700 0.905100
17.245600 0.924300
17.267600 0.926400
17.289500 0.911900
17.311500 0.895500
17.333400 0.879800
17.355400 0.865000
17.377300 0.869900
17.399300 0.863700
17.421200 0.840800
17.443200 0.815100
17.465100 0.793100
17.487100 0.776000
17.509000 0.922500
17.531000 0.786200
17.552900 0.763900
17.574900 0.747500
17.596800 0.741700
17.618800 0.742400
17.640700 0.739100
17.662600 0.730000
17.684600 0.723000
17.706500 0.718900
17.728500 0.717500
17.750400 0.718500
17.772400 0.721800
17.794300 0.727300
17.816300 0.732900
17.838200 0.737500
17.860200 0.742200
17.882100 0.747300
17.904100 0.752900
17.926000 0.759300
17.948000 0.766800
17.969900 0.778900
17.991900 0.802900
18.013800 0.837600
18.035800 0.882600
18.057700 1.130700
18.079700 0.905100
18.101600 0.886600
18.123600 0.868700
18.145500 0.837200
18.167500 0.819100
18.189400 0.808700
18.211400 0.797900
18.233300 0.793400
18.255300 0.827500
18.277200 0.824200
18.299200 0.816100
18.321100 0.820500
18.343000 0.823600
18.365000 0.835800
18.386900 0.863500
18.408900 0.894800
18.430800 0.929700
18.452800 0.968700
18.474700 1.000200
18.496700 1.034500
18.518600 1.226700
18.540600 1.016700
18.562500 0.995300
18.584500 0.995700
18.606400 1.003000
18.628400 0.991200
18.650300 0.990700
18.672300 1.001300
18.694200 1.022300
18.716200 1.054700
18.738100 1.098400
18.760100 1.137500
18.782000 1.189400
18.804000 1.275800
18.825900 1.347100
18.847900 1.264000
18.869800 1.220800
18.891800 1.235800
18.913700 1.213400
18.935700 1.210200
18.957600 1.202400
18.979600 1.190200
19.001500 1.175300
19.023500 1.157800
19.045400 1.138400
19.067300 1.117700
19.089300 1.097000
19.111200 1.161900
19.133200 1.144500
19.155100 1.132400
19.177100 1.127100
19.199000 1.132700
19.221000 1.142600
19.242900 1.158300
19.264900 1.180700
19.286800 1.212500
19.308800 1.243000
19.330700 1.292500
19.352700 1.305100
19.374600 1.270700
19.396600 1.219100
19.418500 1.195900
19.440500 1.189200
19.462400 1.169500
19.484400 1.164900
19.506300 1.160000
19.528300 1.147300
19.550200 1.138200
19.572200 1.132600
19.594100 1.131400
19.616100 1.133600
19.638000 1.138300
19.660000 1.144800
19.681900 1.154000
19.703900 1.167600
19.725800 1.204100
19.747800 1.262800
19.769700 1.239000
19.791600 1.228600
19.813600 1.247100
19.835500 1.266600
19.857500 1.282000
19.879400 1.262100
19.901400 1.221900
19.923300 1.196200
19.945300 1.177800
19.967200 1.164900
19.989200 1.154100
20.011100 1.149200
20.033100 1.165000
20.055000 1.178200
20.077000 1.181100
20.098900 1.174100
20.120900 1.171400
20.142800 1.174000
20.164800 1.181500
20.186700 1.188900
20.208700 1.194900
20.230600 1.199600
20.252600 1.204300
20.274500 1.209300
20.296500 1.214400
20.318400 1.223600
20.340400 1.238900
20.362300 1.257900
20.384300 1.246000
20.406200 1.228200
20.428200 1.221100
20.450100 1.221200
20.472100 1.220000
20.494000 1.217300
20.515900 1.217600
20.537900 1.220900
20.559800 1.227600
20.581800 1.235700
20.603700 1.240700
20.625700 1.244000
20.647600 1.244000
20.669600 1.237200
20.691500 1.222800
20.713500 1.200500
20.735400 1.177000
20.757400 1.160400
20.779300 1.148300
20.801300 1.157400
20.823200 1.167200
20.845200 1.176100
20.867100 1.181500
20.889100 1.186800
20.911000 1.192400
20.933000 1.198300
20.954900 1.220800
20.976900 1.264700
20.998800 1.307200
21.020800 1.337200
21.042700 1.333700
21.064700 1.306400
21.086600 1.293100
21.108600 1.281800
21.130500 1.278100
21.152500 1.285000
21.174400 1.291600
21.196400 1.294400
21.218300 1.296000
21.240200 1.297400
21.262200 1.301800
21.284100 1.295800
21.306100 1.289800
21.328000 1.284800
21.350000 1.281700
21.371900 1.278400
21.393900 1.275900
21.415800 1.275500
21.437800 1.273900
21.459700 1.271600
21.481700 1.269200
21.503600 1.266400
21.525600 1.262800
21.547500 1.290300
21.569500 1.311100
21.591400 1.313200
21.613400 1.304800
21.635300 1.283100
21.657300 1.264800
21.679200 1.240600
21.701200 1.220700
21.723100 1.205100
21.745100 1.193500
21.767000 1.185700
21.789000 1.182300
21.810900 1.196300
21.832900 1.194700
21.854800 1.191800
21.876800 1.189800
21.898700 1.187700
21.920700 1.185000
21.942600 1.182300
21.964500 1.185800
21.986500 1.192600
22.008400 1.198400
22.030400 1.204200
22.052300 1.210800
22.074300 1.218500
22.096200 1.231100
22.118200 1.246200
22.140100 1.251000
22.162100 1.256500
22.184000 1.262100
22.206000 1.267500
22.227900 1.273300
22.249900 1.279600
22.271800 1.287100
22.293800 1.292600
22.315700 1.250200
22.337700 1.224900
22.359600 1.203800
22.381600 1.182500
22.403500 1.164900
22.425500 1.155300
22.447400 1.147400
22.469400 1.138800
22.491300 1.132200
22.513300 1.128300
22.535200 1.127000
22.557200 1.124300
22.579100 1.120000
22.601100 1.119400
22.623000 1.123400
22.644900 1.113800
22.666900 1.117600
22.688800 1.127700
22.710800 1.141700
22.732700 1.150600
22.754700 1.162200
22.776600 1.192800
22.798600 1.222700
22.820500 1.245500
22.842500 1.262000
22.864400 1.272500
22.886400 1.278500
22.908300 1.295000
22.930300 1.305500
22.952200 1.306700
22.974200 1.299500
22.996100 1.284600
23.018100 1.271600
23.040000 1.263800
23.062000 1.254100
23.083900 1.244300
23.105900 1.237000
23.127800 1.233200
23.149800 1.230600
23.171700 1.223100
23.193700 1.215600
23.215600 1.208100
23.237600 1.200800
23.259500 1.193600
23.281500 1.189500
23.303400 1.190600
23.325400 1.192100
23.347300 1.191800
23.369200 1.189900
23.391200 1.185900
23.413100 1.182200
23.435100 1.181400
23.457000 1.181400
23.479000 1.182200
23.500900 1.183500
23.522900 1.178100
23.544800 1.169700
23.566800 1.163200
23.588700 1.158700
23.610700 1.156400
23.632600 1.156000
23.654600 1.158700
23.676500 1.166700
23.698500 1.180500
23.720400 1.192000
23.742400 1.192100
23.764300 1.191500
23.786300 1.189900
23.808200 1.189000
23.830200 1.189700
23.852100 1.190000
23.874100 1.188400
23.896000 1.186800
23.918000 1.186600
23.939900 1.187500
23.961900 1.186000
23.983800 1.187700
24.005800 1.182100
24.027700 1.331000
24.049700 1.274100
24.071600 1.240100
24.093500 1.192300
24.115500 1.175100
24.137400 1.163000
24.159400 1.171300
24.181300 1.167100
24.203300 1.167100
24.225200 1.165700
24.247200 1.163200
24.269100 1.160500
24.291100 1.157500
24.313000 1.153900
24.335000 1.149400
24.356900 1.143400
24.378900 1.140900
24.400800 1.138100
24.422800 1.133700
24.444700 1.126800
24.466700 1.117800
24.488600 1.107600
24.510600 1.100000
24.532500 1.097400
24.554500 1.100800
24.576400 1.107500
24.598400 1.115500
24.620300 1.126100
24.642300 1.134000
24.664200 1.140000
24.686200 1.144100
24.708100 1.148500
24.730100 1.154000
24.752000 1.157600
24.774000 1.162500
24.795900 1.170200
24.817800 1.179700
24.839800 1.188800
24.861700 1.198500
24.883700 1.208900
24.905600 1.219800
24.927600 1.231200
24.949500 1.244000
24.971500 1.264300
24.993400 1.295200
25.015400 1.330800
25.037300 1.371600
25.059300 1.416000
25.081200 1.459500
25.103200 1.493100
25.125100 1.518700
25.147100 1.537300
25.169000 1.555400
25.191000 1.573000
25.212900 1.579700
25.234900 1.572600
25.256800 1.553000
25.278800 1.544600
25.300700 1.544300
25.322700 1.533700
25.344600 1.510800
25.366600 1.487400
25.388500 1.467100
25.410500 1.439200
25.432400 1.405100
25.454400 1.367200
25.476300 1.344600
25.498300 1.339900
25.520200 1.338100
25.542100 1.328800
25.564100 1.313500
25.586000 1.300200
25.608000 1.288600
25.629900 1.287000
25.651900 1.265900
25.673800 1.235100
25.695800 1.201500
25.717700 1.175700
25.739700 1.151100
25.761600 1.125600
25.783600 1.096900
25.805500 1.065000
25.827500 1.030100
25.849400 0.992300
25.871400 0.957100
25.893300 0.926300
25.915300 0.897600
25.937200 0.875400
25.959200 0.861900
25.981100 0.843800
26.003100 0.820900
26.025000 0.800800
26.047000 0.798200
26.068900 0.796000
26.090900 0.790300
26.112800 0.815000
26.134800 0.832800
26.156700 0.796500
26.178700 0.779800
26.200600 0.776800
26.222500 0.784200
26.244500 0.790000
26.266400 0.810400
26.288400 0.800700
26.310300 0.768800
26.332300 0.786800
26.354200 0.761900
26.376200 0.738300
26.398100 0.727300
26.420100 0.717000
26.442000 0.710600
26.464000 0.705900
26.485900 0.695100
26.507900 0.730300
26.529800 0.537700
26.551800 0.520400
26.573700 0.513700
26.595700 0.505100
26.617600 0.493800
26.639600 0.482100
26.661500 0.470200
26.683500 0.462000
26.705400 0.463100
26.727400 0.473000
26.749300 0.491500
26.771300 0.449300
26.793200 0.394200
26.815200 0.373800
26.837100 0.353800
26.859100 0.333400
26.881000 0.313900
26.903000 0.298600
26.924900 0.288900
26.946800 0.244600
26.968800 0.239800
26.990700 0.236800
27.012700 0.238000
27.034600 0.235300
27.056600 0.230700
27.078500 0.225100
27.100500 0.220500
27.122400 0.216500
27.144400 0.212900
27.166300 0.209700
27.188300 0.207000
27.210200 0.204700
27.232200 0.203100
27.254100 0.200800
27.276100 0.196400
27.298000 0.192200
27.320000 0.188300
27.341900 0.184500
27.363900 0.181000
27.385800 0.177700
27.407800 0.174700
27.429700 0.172200
27.451700 0.170200
27.473600 0.168500
27.495600 0.167300
27.517500 0.168600
27.539500 0.172600
27.561400 0.173500
27.583400 0.174200
27.605300 0.170300
27.627300 0.165800
27.649200 0.161600
27.671100 0.157500
27.693100 0.153500
27.715000 0.149800
27.737000 0.146200
27.758900 0.142700
27.780900 0.139900
27.802800 0.139200
27.824800 0.138400
27.846700 0.137300
27.868700 0.136000
27.890600 0.134600
27.912600 0.133000
27.934500 0.131100
27.956500 0.129100
27.978400 0.127000
28.000400 0.124600
28.022300 0.122000
28.044300 0.118700
28.066200 0.117000
28.088200 0.116900
28.110100 0.116300
28.132100 0.110500
28.154000 0.105100
28.176000 0.100300
28.197900 0.096000
28.219900 0.092100
28.241800 0.088800
28.263800 0.073400
28.285700 0.074300
28.307700 0.073900
28.329600 0.072200
28.351600 0.069300
28.373500 0.065000
28.395400 0.059500
28.417400 0.056000
28.439300 0.054400
28.461300 0.053000
28.483200 0.051600
28.505200 0.050300
28.527100 0.049100
28.549100 0.048200
28.571000 0.047700
28.593000 0.047800
28.614900 0.048300
28.636900 0.049300
28.658800 0.048000
28.680800 0.045900
28.702700 0.043800
28.724700 0.041900
28.746600 0.040100
28.768600 0.038400
28.790500 0.036800
28.812500 0.035400
28.834400 0.037400
28.856400 0.040700
28.878300 0.041700
28.900300 0.040300
28.922200 0.036700
28.944200 0.030700
28.966100 0.026100
28.988100 0.024300
29.010000 0.022500
29.032000 0.020800
29.053900 0.019200
29.075900 0.017700
29.097800 0.016300
29.119700 0.014900
29.141700 0.013600
29.163600 0.013400
29.185600 0.013800
29.207500 0.013700
29.229500 0.012900
29.251400 0.011600
29.273400 0.009700
29.295300 0.007200
29.317300 0.004100
29.339200 0.000400
29.361200 0.000000
29.383100 0.000000
29.405100 0.000000
29.427000 0.000000
29.449000 0.000000
29.470900 0.000000
29.492900 0.000000
29.514800 0.000000
29.536800 0.000000
29.558700 0.000000
29.580700 0.000000
29.602600 0.000000
29.624600 0.000000
29.646500 0.000000
29.668500 0.000000
29.690400 0.000000
29.712400 0.000000
29.734300 0.000000
29.756300 0.000000
29.778200 0.000000
29.800200 0.000000
29.822100 0.000000
29.844000 0.000000
29.866000 0.000000
29.887900 0.000000
29.909900 0.000000
29.931800 0.000000
29.953800 0.000000
29.975700 0.000000
29.997700 0.000000
30.019600 0.000000
30.041600 0.000000
30.063500 0.000000
30.085500 0.000000
30.107400 0.000000
30.129400 0.000000
30.151300 0.000000
30.173300 0.000000
30.195200 0.000000
30.217200 0.000000
30.239100 0.000000
30.261100 0.000000
30.283000 0.000000
30.305000 0.000000
30.326900 0.000000
30.348900 0.000000
30.370800 0.000000
30.392800 0.000000
30.414700 0.000000
30.436700 0.000000
30.458600 0.000000
30.480600 0.000000
30.502500 0.000000
30.524400 0.000000
30.546400 0.000000
30.568300 0.000000
30.590300 0.000000
30.612200 0.000000
30.634200 0.000000
30.656100 0.000000
30.678100 0.000000
30.700000 0.000000
30.722000 0.000000
30.743900 0.000000
30.765900 0.000000
30.787800 0.000000
30.809800 0.000000
30.831700 0.000000
30.853700 0.000000
30.875600 0.000000
30.897600 0.000000
30.919500 0.000000
30.941500 0.000000
30.963400 0.000000
30.985400 0.000000
31.007300 0.000000
31.029300 0.000000
31.051200 0.000000
31.073200 0.000000
31.095100 0.000000
31.117100 0.000000
31.139000 0.000000
31.161000 0.000000
31.182900 0.000000
31.204900 0.000000
31.226800 0.000000
31.248700 0.000000
31.270700 0.000000
31.292600 0.000000
31.314600 0.000000
31.336500 0.000000
e
