set title 'mp-1206713 - Density of States'
set xlabel 'Energy (eV)'
set ylabel 'DOS (states/eV)'
set grid
set xrange [-10:10]
set yrange [0:27.467]
set xzeroaxis lt -1
set terminal png size 800,600
set output 'mp-1206713_dos_gnuplot.png'
plot '-' using 1:2 with lines title 'DOS'
-7.211300 0.000000
-7.181300 0.000000
-7.151200 0.000000
-7.121100 0.000000
-7.091100 0.000000
-7.061000 0.000000
-7.030900 0.000000
-7.000900 0.000000
-6.970800 0.000000
-6.940800 0.000000
-6.910700 0.000000
-6.880600 0.000000
-6.850600 0.000000
-6.820500 0.000000
-6.790500 0.000000
-6.760400 0.000000
-6.730300 0.000000
-6.700300 0.000000
-6.670200 0.000000
-6.640100 0.000000
-6.610100 0.000000
-6.580000 0.000000
-6.550000 0.000000
-6.519900 0.000000
-6.489800 0.000000
-6.459800 0.000000
-6.429700 0.000000
-6.399700 0.000000
-6.369600 0.000000
-6.339500 0.000000
-6.309500 0.000000
-6.279400 0.000000
-6.249300 0.000000
-6.219300 0.000000
-6.189200 0.000000
-6.159200 0.000000
-6.129100 0.000000
-6.099000 0.000000
-6.069000 0.000000
-6.038900 0.000000
-6.008900 0.000000
-5.978800 0.000000
-5.948700 0.000000
-5.918700 0.000000
-5.888600 0.000000
-5.858500 0.000000
-5.828500 0.000000
-5.798400 0.000000
-5.768400 0.000000
-5.738300 0.000000
-5.708200 0.000000
-5.678200 0.000000
-5.648100 0.000000
-5.618100 0.000000
-5.588000 0.000000
-5.557900 0.000000
-5.527900 0.000000
-5.497800 0.000000
-5.467700 0.000000
-5.437700 0.000000
-5.407600 0.000000
-5.377600 0.000000
-5.347500 0.000000
-5.317400 0.000000
-5.287400 0.000000
-5.257300 0.000000
-5.227300 0.000000
-5.197200 0.000000
-5.167100 0.000000
-5.137100 0.000000
-5.107000 0.000000
-5.076900 0.000000
-5.046900 0.000000
-5.016800 0.000000
-4.986800 0.000000
-4.956700 0.000000
-4.926600 0.000000
-4.896600 0.000000
-4.866500 0.000000
-4.836500 0.000000
-4.806400 0.000000
-4.776300 0.000000
-4.746300 0.000000
-4.716200 0.000000
-4.686100 0.000000
-4.656100 0.000000
-4.626000 0.000000
-4.596000 0.000000
-4.565900 0.000000
-4.535800 0.000000
-4.505800 0.000000
-4.475700 0.000100
-4.445700 0.016000
-4.415600 0.058800
-4.385500 0.096200
-4.355500 0.105100
-4.325400 0.112800
-4.295300 0.130000
-4.265300 0.148100
-4.235200 0.166300
-4.205200 0.179100
-4.175100 0.185300
-4.145000 0.191800
-4.115000 0.201700
-4.084900 0.213000
-4.054900 0.224300
-4.024800 0.235700
-3.994700 0.247300
-3.964700 0.280500
-3.934600 0.311800
-3.904500 0.292600
-3.874500 0.295000
-3.844400 0.297900
-3.814400 0.300100
-3.784300 0.301600
-3.754200 0.300800
-3.724200 0.297900
-3.694100 0.296100
-3.664100 0.298400
-3.634000 0.300800
-3.603900 0.303100
-3.573900 0.305400
-3.543800 0.307200
-3.513700 0.307300
-3.483700 0.306400
-3.453600 0.302500
-3.423600 0.302600
-3.393500 0.302800
-3.363400 0.303100
-3.333400 0.303500
-3.303300 0.311000
-3.273300 0.341200
-3.243200 0.374800
-3.213100 0.357600
-3.183100 0.365800
-3.153000 0.374200
-3.122900 0.382900
-3.092900 0.391100
-3.062800 0.396500
-3.032800 0.399400
-3.002700 0.402400
-2.972600 0.408900
-2.942600 0.415700
-2.912500 0.422500
-2.882500 0.429400
-2.852400 0.436700
-2.822300 0.444300
-2.792300 0.451900
-2.762200 0.455200
-2.732100 0.460900
-2.702100 0.467000
-2.672000 0.473100
-2.642000 0.479200
-2.611900 0.485100
-2.581800 0.492100
-2.551800 0.499300
-2.521700 0.506900
-2.491700 0.514700
-2.461600 0.522800
-2.431500 0.531000
-2.401500 0.539000
-2.371400 0.546800
-2.341300 0.555400
-2.311300 0.565200
-2.281200 0.575300
-2.251200 0.585900
-2.221100 0.597100
-2.191000 0.609500
-2.161000 0.624500
-2.130900 0.641500
-2.100900 0.658900
-2.070800 0.679400
-2.040700 0.700500
-2.010700 0.721700
-1.980600 0.743800
-1.950500 0.768900
-1.920500 0.798600
-1.890400 0.830500
-1.860400 0.866500
-1.830300 0.905800
-1.800200 0.958000
-1.770200 1.017600
-1.740100 1.078400
-1.710100 1.156600
-1.680000 1.262900
-1.649900 1.403800
-1.619900 1.647800
-1.589800 2.172300
-1.559700 8.263400
-1.529700 4.536500
-1.499600 4.850400
-1.469600 5.398000
-1.439500 7.184600
-1.409400 13.404700
-1.379400 13.932600
-1.349300 11.645300
-1.319300 13.797000
-1.289200 12.099400
-1.259100 9.123700
-1.229100 7.405800
-1.199000 4.323100
-1.168900 4.596800
-1.138900 5.755300
-1.108800 11.658100
-1.078800 10.682700
-1.048700 11.272200
-1.018600 13.126700
-0.988600 17.128900
-0.958500 8.018100
-0.928500 13.840100
-0.898400 16.525900
-0.868300 24.969700
-0.838300 13.183600
-0.808200 7.922200
-0.778100 14.618100
-0.748100 5.964100
-0.718000 5.097500
-0.688000 4.655600
-0.657900 4.070000
-0.627800 3.963400
-0.597800 3.875300
-0.567700 4.137900
-0.537700 4.238500
-0.507600 1.231500
-0.477500 1.127500
-0.447500 1.079000
-0.417400 1.051600
-0.387300 1.035400
-0.357300 1.021300
-0.327200 1.008100
-0.297200 0.993300
-0.267100 0.983700
-0.237000 0.977500
-0.207000 0.965600
-0.176900 0.929900
-0.146900 0.907100
-0.116800 0.887800
-0.086700 0.870300
-0.056700 0.855400
-0.026600 0.846200
0.003500 0.840800
0.033500 0.831300
0.063600 0.825100
0.093600 0.819100
0.123700 0.815100
0.153800 0.811900
0.183800 0.809400
0.213900 0.807900
0.244000 0.806700
0.274000 0.805700
0.304100 0.804900
0.334100 0.804500
0.364200 0.804900
0.394300 0.805800
0.424300 0.807100
0.454400 0.808600
0.484400 0.810500
0.514500 0.809000
0.544600 0.808000
0.574600 0.807300
0.604700 0.806200
0.634800 0.805400
0.664800 0.805500
0.694900 0.805900
0.724900 0.806300
0.755000 0.806800
0.785100 0.805900
0.815100 0.805700
0.845200 0.806300
0.875200 0.807300
0.905300 0.808600
0.935400 0.810300
0.965400 0.812000
0.995500 0.814100
1.025600 0.816300
1.055600 0.818600
1.085700 0.820900
1.115700 0.823300
1.145800 0.825700
1.175900 0.828300
1.205900 0.831100
1.236000 0.833900
1.266000 0.848100
1.296100 0.872100
1.326200 0.880600
1.356200 0.886500
1.386300 0.891500
1.416400 0.895600
1.446400 0.898300
1.476500 0.899300
1.506500 0.899300
1.536600 0.898700
1.566700 0.897800
1.596700 0.909500
1.626800 0.897900
1.656800 0.886500
1.686900 0.875200
1.717000 0.879700
1.747000 0.898100
1.777100 0.893600
1.807200 0.887100
1.837200 0.879900
1.867300 0.872100
1.897300 0.863200
1.927400 0.853900
1.957500 0.844600
1.987500 0.839500
2.017600 0.887700
2.047600 0.901100
2.077700 0.880500
2.107800 0.874800
2.137800 0.873200
2.167900 0.876500
2.198000 0.888000
2.228000 0.909100
2.258100 0.933700
2.288100 0.955100
2.318200 0.977200
2.348300 1.002600
2.378300 1.028700
2.408400 1.056500
2.438400 1.086500
2.468500 1.140500
2.498600 1.092700
2.528600 1.019500
2.558700 0.969800
2.588800 0.968700
2.618800 0.965900
2.648900 0.932900
2.678900 0.898200
2.709000 0.866600
2.739100 0.852400
2.769100 0.837400
2.799200 0.830100
2.829200 0.834200
2.859300 0.855900
2.889400 0.850000
2.919400 0.900600
2.949500 0.990600
2.979600 1.056300
3.009600 1.008600
3.039700 0.920200
3.069700 0.865200
3.099800 0.808000
3.129900 0.768200
3.159900 0.741000
3.190000 0.731000
3.220000 0.727100
3.250100 0.724100
3.280200 0.725800
3.310200 0.745700
3.340300 0.794000
3.370400 0.825400
3.400400 0.844400
3.430500 0.857400
3.460500 0.891100
3.490600 0.937600
3.520700 0.943000
3.550700 0.960300
3.580800 0.973800
3.610800 0.985500
3.640900 1.020800
3.671000 1.068100
3.701000 1.039700
3.731100 1.034800
3.761200 1.040000
3.791200 1.038900
3.821300 1.185200
3.851300 1.323100
3.881400 1.173200
3.911500 1.161000
3.941500 1.101500
3.971600 0.972400
4.001600 0.923200
4.031700 0.897600
4.061800 0.884500
4.091800 0.888200
4.121900 0.934300
4.152000 1.016600
4.182000 1.111900
4.212100 1.218800
4.242100 1.259700
4.272200 1.249600
4.302300 1.247600
4.332300 1.234200
4.362400 1.187300
4.392400 1.122600
4.422500 1.098000
4.452600 1.090800
4.482600 1.096100
4.512700 1.091900
4.542800 1.086600
4.572800 1.089300
4.602900 1.093100
4.632900 1.096000
4.663000 1.097700
4.693100 1.098300
4.723100 1.100700
4.753200 1.100900
4.783200 1.101700
4.813300 1.093100
4.843400 1.074200
4.873400 1.052700
4.903500 1.036300
4.933600 1.019500
4.963600 1.005500
4.993700 0.980400
5.023700 0.959200
5.053800 0.957300
5.083900 0.962800
5.113900 0.968500
5.144000 0.968200
5.174000 0.950100
5.204100 1.191700
5.234200 1.072900
5.264200 1.074500
5.294300 1.039400
5.324400 0.996600
5.354400 0.950700
5.384500 0.906600
5.414500 0.880200
5.444600 0.863200
5.474700 0.853900
5.504700 0.857500
5.534800 0.908600
5.564800 0.962900
5.594900 1.019200
5.625000 0.926100
5.655000 0.881200
5.685100 0.846200
5.715200 0.832300
5.745200 0.833800
5.775300 0.841800
5.805300 0.846200
5.835400 0.853600
5.865500 0.867900
5.895500 0.911400
5.925600 0.984300
5.955600 0.988100
5.985700 0.996600
6.015800 1.004100
6.045800 1.010900
6.075900 1.017300
6.106000 1.023100
6.136000 1.028700
6.166100 1.023700
6.196100 1.025800
6.226200 1.028800
6.256300 1.032800
6.286300 1.033800
6.316400 1.035100
6.346400 1.036500
6.376500 1.041400
6.406600 1.051300
6.436600 1.069200
6.466700 1.082500
6.496800 1.090200
6.526800 1.110000
6.556900 1.133500
6.586900 1.129800
6.617000 1.120200
6.647100 1.136300
6.677100 1.167600
6.707200 1.193500
6.737200 1.226000
6.767300 1.251300
6.797400 1.279800
6.827400 1.279200
6.857500 1.266900
6.887600 1.260900
6.917600 1.248800
6.947700 1.233600
6.977700 1.218500
7.007800 1.189100
7.037900 1.167300
7.067900 1.148100
7.098000 1.136700
7.128000 1.127300
7.158100 1.116400
7.188200 1.105900
7.218200 1.094800
7.248300 1.085300
7.278400 1.082500
7.308400 1.091400
7.338500 1.107800
7.368500 1.116600
7.398600 1.124500
7.428700 1.134100
7.458700 1.147100
7.488800 1.164100
7.518800 1.186800
7.548900 1.210000
7.579000 1.235400
7.609000 1.264900
7.639100 1.284300
7.669200 1.284600
7.699200 1.273700
7.729300 1.263200
7.759300 1.257400
7.789400 1.254000
7.819500 1.252000
7.849500 1.251900
7.879600 1.253300
7.909600 1.255400
7.939700 1.258300
7.969800 1.262600
7.999800 1.260500
8.029900 1.262100
8.060000 1.262900
8.090000 1.251200
8.120100 1.249900
8.150100 1.246700
8.180200 1.252000
8.210300 1.257700
8.240300 1.266400
8.270400 1.276600
8.300400 1.278600
8.330500 1.277200
8.360600 1.275300
8.390600 1.278700
8.420700 1.283900
8.450800 1.298000
8.480800 1.284500
8.510900 1.266100
8.540900 1.234000
8.571000 1.174700
8.601100 1.118300
8.631100 1.093400
8.661200 1.078200
8.691300 1.081500
8.721300 1.075800
8.751400 1.071500
8.781400 1.069800
8.811500 1.069500
8.841600 1.070700
8.871600 1.076200
8.901700 1.083200
8.931700 1.091100
8.961800 1.098800
8.991900 1.159000
9.021900 1.103000
9.052000 1.120800
9.082100 1.137200
9.112100 1.153700
9.142200 1.176800
9.172200 1.202700
9.202300 1.224600
9.232400 1.247900
9.262400 1.267700
9.292500 1.288900
9.322500 1.319800
9.352600 1.345700
9.382700 1.345500
9.412700 1.345700
9.442800 1.348300
9.472900 1.346200
9.502900 1.341400
9.533000 1.334100
9.563000 1.333600
9.593100 1.331500
9.623200 1.327100
9.653200 1.319800
9.683300 1.311200
9.713300 1.303400
9.743400 1.316900
9.773500 1.348100
9.803500 1.314500
9.833600 1.333800
9.863700 1.339800
9.893700 1.340800
9.923800 1.345400
9.953800 1.355200
9.983900 1.366900
10.014000 1.384000
10.044000 1.393500
10.074100 1.390200
10.104100 1.384600
10.134200 1.398700
10.164300 1.412100
10.194300 1.400900
10.224400 1.381600
10.254500 1.362000
10.284500 1.343500
10.314600 1.328200
10.344600 1.336900
10.374700 1.406900
10.404800 1.499900
10.434800 1.504400
10.464900 1.434500
10.494900 1.432400
10.525000 1.416000
10.555100 1.378500
10.585100 1.350500
10.615200 1.353800
10.645300 1.354300
10.675300 1.354500
10.705400 1.357600
10.735400 1.363100
10.765500 1.368900
10.795600 1.365600
10.825600 1.351500
10.855700 1.347400
10.885700 1.344300
10.915800 1.340400
10.945900 1.335400
10.975900 1.335200
11.006000 1.341700
11.036100 1.350500
11.066100 1.355100
11.096200 1.368500
11.126200 1.370600
11.156300 1.368700
11.186400 1.367400
11.216400 1.367900
11.246500 1.376200
11.276500 1.386300
11.306600 1.400300
11.336700 1.420200
11.366700 1.431600
11.396800 1.431500
11.426900 1.437800
11.456900 1.441300
11.487000 1.449700
11.517000 1.456700
11.547100 1.463300
11.577200 1.470100
11.607200 1.478400
11.637300 1.484500
11.667300 1.486900
11.697400 1.497600
11.727500 1.509600
11.757500 1.568700
11.787600 1.559800
11.817700 1.538600
11.847700 1.522700
11.877800 1.509600
11.907800 1.501100
11.937900 1.504100
11.968000 1.505300
11.998000 1.506000
12.028100 1.501600
12.058100 1.508100
12.088200 1.511400
12.118300 1.509600
12.148300 1.508800
12.178400 1.510200
12.208500 1.512600
12.238500 1.515900
12.268600 1.520600
12.298600 1.526000
12.328700 1.531100
12.358800 1.535900
12.388800 1.541500
12.418900 1.549000
12.448900 1.558100
12.479000 1.568000
12.509100 1.577100
12.539100 1.588000
12.569200 1.601800
12.599300 1.618100
12.629300 1.624100
12.659400 1.616700
12.689400 1.614100
12.719500 1.611500
12.749600 1.609700
12.779600 1.614000
12.809700 1.630400
12.839700 1.650500
12.869800 1.662700
12.899900 1.666000
12.929900 1.674600
12.960000 1.680200
12.990100 1.686200
13.020100 1.698000
13.050200 1.715100
13.080200 1.722600
13.110300 1.714000
13.140400 1.696000
13.170400 1.669700
13.200500 1.637800
13.230500 1.598600
13.260600 1.579600
13.290700 1.580900
13.320700 1.586200
13.350800 1.637200
13.380900 1.633100
13.410900 1.644400
13.441000 1.659800
13.471000 1.734900
13.501100 1.543700
13.531200 1.519800
13.561200 1.525000
13.591300 1.530400
13.621300 1.537200
13.651400 1.548000
13.681500 1.563700
13.711500 1.583500
13.741600 1.593000
13.771700 1.601300
13.801700 1.609800
13.831800 1.613200
13.861800 1.615900
13.891900 1.618400
13.922000 1.621100
13.952000 1.625600
13.982100 1.637200
14.012100 1.663900
14.042200 1.638800
14.072300 1.629700
14.102300 1.615600
14.132400 1.596600
14.162500 1.577800
14.192500 1.558700
14.222600 1.541000
14.252600 1.519400
14.282700 1.490000
14.312800 1.460100
14.342800 1.430600
14.372900 1.405400
14.402900 1.388200
14.433000 1.377400
14.463100 1.371500
14.493100 1.366200
14.523200 1.334800
14.553300 1.326600
14.583300 1.323800
14.613400 1.318800
14.643400 1.325500
14.673500 1.335300
14.703600 1.341500
14.733600 1.347400
14.763700 1.359700
14.793700 1.379200
14.823800 1.391400
14.853900 1.402900
14.883900 1.456700
14.914000 1.468600
14.944100 1.474500
14.974100 1.472500
15.004200 1.468200
15.034200 1.466900
15.064300 1.464800
15.094400 1.464300
15.124400 1.461200
15.154500 1.461300
15.184500 1.463100
15.214600 1.465000
15.244700 1.469400
15.274700 1.478000
15.304800 1.491400
15.334900 1.507900
15.364900 1.523700
15.395000 1.540500
15.425000 1.557800
15.455100 1.575400
15.485200 1.591700
15.515200 1.681200
15.545300 1.571600
15.575300 1.571800
15.605400 1.567800
15.635500 1.562300
15.665500 1.556200
15.695600 1.554800
15.725700 1.563400
15.755700 1.574700
15.785800 1.577700
15.815800 1.582900
15.845900 1.595800
15.876000 1.601700
15.906000 1.603500
15.936100 1.604100
15.966100 1.599300
15.996200 1.584600
16.026300 1.575200
16.056300 1.570400
16.086400 1.564800
16.116500 1.553700
16.146500 1.537000
16.176600 1.517100
16.206600 1.510400
16.236700 1.517400
16.266800 1.517900
16.296800 1.516000
16.326900 1.514000
16.356900 1.512000
16.387000 1.512600
16.417100 1.536600
16.447100 1.529900
16.477200 1.501200
16.507300 1.470400
16.537300 1.452700
16.567400 1.437600
16.597400 1.427700
16.627500 1.474200
16.657600 1.492400
16.687600 1.488800
16.717700 1.482200
16.747700 1.476700
16.777800 1.472800
16.807900 1.468200
16.837900 1.465300
16.868000 1.467900
16.898100 1.474700
16.928100 1.485200
16.958200 1.490000
16.988200 1.494600
17.018300 1.498900
17.048400 1.503500
17.078400 1.511100
17.108500 1.517900
17.138600 1.525100
17.168600 1.563400
17.198700 1.574800
17.228700 1.479700
17.258800 1.418500
17.288900 1.410100
17.318900 1.423100
17.349000 1.439000
17.379000 1.456600
17.409100 1.478400
17.439200 1.497100
17.469200 1.544600
17.499300 1.575600
17.529400 1.593600
17.559400 1.612900
17.589500 1.656000
17.619500 1.712700
17.649600 1.752800
17.679700 1.786500
17.709700 1.819200
17.739800 1.878300
17.769800 1.948900
17.799900 1.962000
17.830000 1.928400
17.860000 1.880000
17.890100 1.824200
17.920200 1.764300
17.950200 1.686200
17.980300 1.655900
18.010300 1.629400
18.040400 1.607700
18.070500 1.587300
18.100500 1.571900
18.130600 1.562100
18.160600 1.552800
18.190700 1.546300
18.220800 1.571500
18.250800 1.606500
18.280900 1.608100
18.311000 1.575300
18.341000 1.545600
18.371100 1.544300
18.401100 1.575400
18.431200 1.641500
18.461300 1.709500
18.491300 1.781700
18.521400 1.832300
18.551400 1.874600
18.581500 1.935100
18.611600 1.955800
18.641600 1.922100
18.671700 1.916000
18.701800 1.920600
18.731800 1.926400
18.761900 1.921900
18.791900 1.907200
18.822000 1.908800
18.852100 1.905200
18.882100 1.896300
18.912200 1.863500
18.942200 1.819300
18.972300 1.767600
19.002400 1.720300
19.032400 1.658400
19.062500 1.637300
19.092600 1.655000
19.122600 1.670900
19.152700 1.689300
19.182700 1.712900
19.212800 1.731200
19.242900 1.735100
19.272900 1.730200
19.303000 1.696000
19.333000 1.698800
19.363100 1.687300
19.393200 1.673400
19.423200 1.685700
19.453300 1.707200
19.483400 1.731000
19.513400 1.875500
19.543500 1.952500
19.573500 2.077800
19.603600 2.004400
19.633700 1.865800
19.663700 1.714800
19.693800 1.657700
19.723800 1.594800
19.753900 1.541400
19.784000 1.535200
19.814000 1.545900
19.844100 1.565500
19.874200 1.596000
19.904200 1.633600
19.934300 1.673800
19.964300 1.715300
19.994400 1.765900
20.024500 1.820400
20.054500 1.919200
20.084600 1.885800
20.114600 1.901900
20.144700 1.968500
20.174800 2.046800
20.204800 2.081200
20.234900 2.091800
20.265000 2.085200
20.295000 2.077900
20.325100 2.171100
20.355100 2.135300
20.385200 2.121900
20.415300 2.111000
20.445300 2.079500
20.475400 2.042700
20.505400 2.009600
20.535500 1.972400
20.565600 1.968800
20.595600 1.963500
20.625700 1.962200
20.655800 1.945000
20.685800 1.962000
20.715900 1.944500
20.745900 1.922100
20.776000 1.939300
20.806100 1.967300
20.836100 1.828000
20.866200 1.736100
20.896200 1.724400
20.926300 1.726300
20.956400 1.731800
20.986400 1.739300
21.016500 1.746900
21.046600 1.744900
21.076600 1.733400
21.106700 1.755400
21.136700 1.811000
21.166800 1.753600
21.196900 1.674100
21.226900 1.604600
21.257000 1.572200
21.287000 1.546400
21.317100 1.530000
21.347200 1.554300
21.377200 1.586500
21.407300 1.602100
21.437400 1.618600
21.467400 1.662500
21.497500 1.677200
21.527500 1.690700
21.557600 1.706300
21.587700 1.704000
21.617700 1.684400
21.647800 1.654100
21.677800 1.608700
21.707900 1.557600
21.738000 1.508800
21.768000 1.487200
21.798100 1.488600
21.828200 1.496200
21.858200 1.516000
21.888300 1.557600
21.918300 1.568900
21.948400 1.578700
21.978500 1.593000
22.008500 1.604100
22.038600 1.619600
22.068600 1.753600
22.098700 1.785800
22.128800 1.776700
22.158800 1.798100
22.188900 1.805500
22.219000 1.800600
22.249000 1.789300
22.279100 1.788600
22.309100 1.803600
22.339200 1.895100
22.369300 1.873100
22.399300 1.785700
22.429400 1.764600
22.459400 1.802300
22.489500 1.902500
22.519600 1.924800
22.549600 1.951000
22.579700 1.985000
22.609800 2.021300
22.639800 2.069600
22.669900 2.115500
22.699900 2.156800
22.730000 2.220700
22.760100 2.261400
22.790100 2.291600
22.820200 2.305600
22.850200 2.293400
22.880300 2.250500
22.910400 2.171300
22.940400 2.100300
22.970500 2.052100
23.000600 2.006600
23.030600 1.971200
23.060700 1.989500
23.090700 1.968500
23.120800 1.952200
23.150900 1.912000
23.180900 1.900100
23.211000 1.929300
23.241000 1.965200
23.271100 1.982000
23.301200 1.957600
23.331200 1.942700
23.361300 2.003900
23.391400 1.958900
23.421400 1.900800
23.451500 1.899100
23.481500 1.925100
23.511600 1.957900
23.541700 1.989900
23.571700 2.011900
23.601800 2.037000
23.631800 1.972800
23.661900 1.932600
23.692000 1.905200
23.722000 1.883700
23.752100 1.846800
23.782200 1.839900
23.812200 1.821400
23.842300 1.798400
23.872300 1.784600
23.902400 1.771700
23.932500 1.786500
23.962500 1.770300
23.992600 1.775000
24.022600 1.792500
24.052700 1.828100
24.082800 1.875700
24.112800 1.892400
24.142900 1.732600
24.173000 1.674700
24.203000 1.710800
24.233100 1.840100
24.263100 2.016600
24.293200 2.174800
24.323300 2.327700
24.353300 2.232100
24.383400 2.132300
24.413400 2.075800
24.443500 2.014200
24.473600 1.921800
24.503600 1.879500
24.533700 1.913200
24.563800 1.937900
24.593800 1.919200
24.623900 1.937800
24.653900 1.957900
24.684000 1.941700
24.714100 1.932800
24.744100 1.945600
24.774200 1.960000
24.804200 1.982300
24.834300 2.014000
24.864400 2.009700
24.894400 2.001900
24.924500 2.013300
24.954600 2.019000
24.984600 2.025200
25.014700 2.035600
25.044700 2.058500
25.074800 2.090200
25.104900 2.132200
25.134900 2.158400
25.165000 2.201300
25.195000 2.247500
25.225100 2.296000
25.255200 2.308200
25.285200 2.317100
25.315300 2.326700
25.345400 2.310800
25.375400 2.326200
25.405500 2.355000
25.435500 2.369800
25.465600 2.351400
25.495700 2.292000
25.525700 2.229200
25.555800 2.172800
25.585900 2.102300
25.615900 2.065700
25.646000 2.061400
25.676000 1.959700
25.706100 1.968200
25.736200 1.991100
25.766200 1.975700
25.796300 1.966200
25.826300 1.972100
25.856400 2.016700
25.886500 2.050300
25.916500 2.068000
25.946600 2.105200
25.976700 2.133500
26.006700 2.161100
26.036800 2.201000
26.066800 2.232800
26.096900 2.245800
26.127000 2.225800
26.157000 2.172800
26.187100 2.175700
26.217100 2.080700
26.247200 2.001700
26.277300 1.932800
26.307300 1.818100
26.337400 1.761100
26.367500 1.721800
26.397500 1.690000
26.427600 1.670700
26.457600 1.655900
26.487700 1.647900
26.517800 1.644100
26.547800 1.642200
26.577900 1.648400
26.607900 1.647800
26.638000 1.646700
26.668100 1.664300
26.698100 1.702400
26.728200 1.741200
26.758300 1.765400
26.788300 1.787600
26.818400 1.819400
26.848400 1.841900
26.878500 1.853900
26.908600 1.857600
26.938600 1.864700
26.968700 1.882500
26.998700 1.894300
27.028800 1.912700
27.058900 1.924000
27.088900 1.944500
27.119000 1.993400
27.149100 2.086400
27.179100 2.105200
27.209200 2.107600
27.239200 2.098400
27.269300 2.086300
27.299400 2.057800
27.329400 2.023800
27.359500 2.004800
27.389500 1.990700
27.419600 1.988200
27.449700 2.001700
27.479700 2.029300
27.509800 2.074900
27.539900 2.096700
27.569900 2.120700
27.600000 2.138900
27.630000 2.157900
27.660100 2.225000
27.690200 2.245200
27.720200 2.256300
27.750300 2.274500
27.780300 2.270100
27.810400 2.280600
27.840500 2.281900
27.870500 2.294200
27.900600 2.275200
27.930700 2.348400
27.960700 2.348800
27.990800 2.313700
28.020800 2.271600
28.050900 2.227400
28.081000 2.186500
28.111000 2.140100
28.141100 2.106300
28.171100 2.080900
28.201200 2.109700
28.231300 2.124200
28.261300 2.176900
28.291400 2.232100
28.321500 2.158000
28.351500 2.113300
28.381600 2.076600
28.411600 2.062000
28.441700 2.054400
28.471800 2.055100
28.501800 2.058500
28.531900 2.066100
28.561900 2.069000
28.592000 2.076500
28.622100 2.083600
28.652100 2.073100
28.682200 2.098800
28.712300 2.077300
28.742300 2.043100
28.772400 2.002600
28.802400 1.955400
28.832500 1.935700
28.862600 1.902000
28.892600 1.845100
28.922700 1.838500
28.952700 1.839000
28.982800 1.845100
29.012900 1.855200
29.042900 1.867200
29.073000 1.878300
29.103100 1.891100
29.133100 1.910800
29.163200 1.944300
29.193200 1.963500
29.223300 1.929500
29.253400 1.885600
29.283400 1.911100
29.313500 1.907900
29.343500 1.910400
29.373600 1.966200
29.403700 2.074800
29.433700 2.095200
29.463800 2.087900
29.493900 2.061600
29.523900 2.064100
29.554000 2.095700
29.584000 2.143000
29.614100 2.162100
29.644200 2.194400
29.674200 2.160400
29.704300 2.071100
29.734300 2.063800
29.764400 2.083600
29.794500 2.098800
29.824500 2.108000
29.854600 2.091700
29.884700 2.061100
29.914700 2.052700
29.944800 2.050900
29.974800 2.044100
30.004900 2.035700
30.035000 2.025400
30.065000 1.995900
30.095100 1.982600
30.125100 1.980200
30.155200 1.982200
30.185300 1.995400
30.215300 2.017600
30.245400 2.051900
30.275500 2.104800
30.305500 2.179000
30.335600 2.252800
30.365600 2.276300
30.395700 2.311800
30.425800 2.281200
30.455800 2.294000
30.485900 2.309100
30.515900 2.340600
30.546000 2.428200
30.576100 2.516000
30.606100 2.519900
30.636200 2.469100
30.666300 2.369100
30.696300 2.292600
30.726400 2.211400
30.756400 2.151600
30.786500 2.090300
30.816600 2.035600
30.846600 1.986700
30.876700 1.935400
30.906700 1.894400
30.936800 1.865900
30.966900 1.850800
30.996900 1.841400
31.027000 1.842000
31.057100 1.855500
31.087100 1.866400
31.117200 1.869600
31.147200 1.839700
31.177300 1.835100
31.207400 1.897300
31.237400 1.858800
31.267500 1.878200
31.297500 1.894800
31.327600 1.895300
31.357700 1.880100
31.387700 1.855700
31.417800 1.830700
31.447900 1.807700
31.477900 1.792500
31.508000 1.782900
31.538000 1.779000
31.568100 1.779200
31.598200 1.780800
31.628200 1.765100
31.658300 1.753200
31.688300 1.742000
31.718400 1.729900
31.748500 1.717900
31.778500 1.708400
31.808600 1.704400
31.838700 1.700800
31.868700 1.694400
31.898800 1.696600
31.928800 1.712600
31.958900 1.731800
31.989000 1.747300
32.019000 1.760200
32.049100 1.770100
32.079100 1.783200
32.109200 1.799500
32.139300 1.822400
32.169300 1.848900
32.199400 1.881000
32.229500 1.944700
32.259500 1.993700
32.289600 2.023000
32.319600 2.052600
32.349700 2.064900
32.379800 2.059600
32.409800 2.085800
32.439900 2.079200
32.469900 2.114000
32.500000 2.095400
32.530100 2.074300
32.560100 2.043000
32.590200 2.011300
32.620300 1.982600
32.650300 2.045800
32.680400 1.870800
32.710400 1.848100
32.740500 1.823900
32.770600 1.803500
32.800600 1.814100
32.830700 1.815400
32.860700 1.822400
32.890800 1.827200
32.920900 1.822600
32.950900 1.816900
32.981000 1.817300
33.011100 1.819500
33.041100 1.832100
33.071200 1.865900
33.101200 1.870000
33.131300 1.865500
33.161400 1.897200
33.191400 1.910100
33.221500 1.906700
33.251500 1.898000
33.281600 1.881000
33.311700 1.901800
33.341700 1.866000
33.371800 1.794600
33.401900 1.821000
33.431900 1.862700
33.462000 1.899700
33.492000 1.946300
33.522100 1.983200
33.552200 1.998300
33.582200 1.980400
33.612300 1.951600
33.642300 1.931000
33.672400 1.918100
33.702500 1.900700
33.732500 1.880600
33.762600 1.857500
33.792700 1.815000
33.822700 1.781300
33.852800 1.749700
33.882800 1.791900
33.912900 1.664900
33.943000 1.579100
33.973000 1.529000
34.003100 1.504600
34.033200 1.488100
34.063200 1.479800
34.093300 1.465800
34.123300 1.451600
34.153400 1.431000
34.183500 1.411500
34.213500 1.395900
34.243600 1.386000
34.273600 1.390500
34.303700 1.402300
34.333800 1.419700
34.363800 1.458300
34.393900 1.510700
34.424000 1.538000
34.454000 1.571400
34.484100 1.636100
34.514100 1.668600
34.544200 1.684000
34.574300 1.706900
34.604300 1.730600
34.634400 1.757500
34.664400 1.775000
34.694500 1.772300
34.724600 1.763200
34.754600 1.766000
34.784700 1.772100
34.814800 1.786400
34.844800 1.821800
34.874900 1.858600
34.904900 1.899400
34.935000 1.946600
34.965100 1.965800
34.995100 1.962700
35.025200 1.958100
35.055200 1.957000
35.085300 1.971900
35.115400 1.997100
35.145400 2.038600
35.175500 2.112100
35.205600 2.105300
35.235600 2.111600
35.265700 2.111800
35.295700 2.113000
35.325800 2.089800
35.355900 2.045300
35.385900 2.005900
35.416000 1.995100
35.446000 1.961400
35.476100 1.923500
35.506200 1.908600
35.536200 1.842900
35.566300 1.799700
35.596400 1.792200
35.626400 1.786900
35.656500 1.776200
35.686500 1.771000
35.716600 1.768600
35.746700 1.766900
35.776700 1.765800
35.806800 1.766100
35.836800 1.772500
35.866900 1.785300
35.897000 1.802700
35.927000 1.821100
35.957100 1.839000
35.987200 1.850300
36.017200 1.862900
36.047300 1.880800
36.077300 1.906000
36.107400 1.932800
36.137500 1.951600
36.167500 1.973800
36.197600 1.986800
36.227600 1.991200
36.257700 1.996200
36.287800 2.005300
36.317800 2.020800
36.347900 2.040800
36.378000 2.060900
36.408000 2.066900
36.438100 2.070800
36.468100 2.075500
36.498200 2.083600
36.528300 2.092800
36.558300 2.095400
36.588400 2.096200
36.618400 2.092800
36.648500 2.089600
36.678600 2.080000
36.708600 2.066600
36.738700 2.055900
36.768800 2.047900
36.798800 2.043200
36.828900 2.041400
36.858900 2.043300
36.889000 2.045400
36.919100 2.048600
36.949100 2.052400
36.979200 2.058800
37.009200 2.071100
37.039300 2.080900
37.069400 2.093200
37.099400 2.110600
37.129500 2.132600
37.159600 2.143600
37.189600 2.145900
37.219700 2.150100
37.249700 2.146400
37.279800 2.132700
37.309900 2.128400
37.339900 2.082300
37.370000 2.076500
37.400000 2.061900
37.430100 2.060600
37.460200 2.065100
37.490200 2.054500
37.520300 2.063200
37.550400 2.074000
37.580400 2.083800
37.610500 2.090500
37.640500 2.103300
37.670600 2.113500
37.700700 2.125400
37.730700 2.133300
37.760800 2.136400
37.790800 2.135200
37.820900 2.128900
37.851000 2.120000
37.881000 2.093000
37.911100 2.063700
37.941200 2.033400
37.971200 2.022400
38.001300 2.002500
38.031300 1.998600
38.061400 1.997900
38.091500 2.000100
38.121500 2.003500
38.151600 2.004000
38.181600 2.008800
38.211700 2.016100
38.241800 2.020300
38.271800 2.036400
38.301900 2.073000
38.332000 2.115600
38.362000 2.186500
38.392100 2.188400
38.422100 2.175500
38.452200 2.186300
38.482300 2.189500
38.512300 2.163800
38.542400 2.142700
38.572400 2.150900
38.602500 2.175500
38.632600 2.205600
38.662600 2.290700
38.692700 2.333800
38.722800 2.302600
38.752800 2.272700
38.782900 2.245800
38.812900 2.233600
38.843000 2.235000
38.873100 2.331200
38.903100 2.253200
38.933200 2.247100
38.963200 2.257900
38.993300 2.273700
39.023400 2.291700
39.053400 2.254300
39.083500 2.235700
39.113600 2.229000
39.143600 2.215600
39.173700 2.202300
39.203700 2.233100
39.233800 2.241900
39.263900 2.220400
39.293900 2.208800
39.324000 2.235600
39.354000 2.238600
39.384100 2.250500
39.414200 2.242200
39.444200 2.227600
39.474300 2.246400
39.504400 2.294800
39.534400 2.351000
39.564500 2.403000
39.594500 2.466300
39.624600 2.563200
39.654700 2.685000
39.684700 2.840400
39.714800 2.879500
39.744800 2.880500
39.774900 2.834500
39.805000 2.769600
39.835000 2.746900
39.865100 2.769000
39.895200 2.936000
39.925200 3.001100
39.955300 2.967200
39.985300 2.920600
40.015400 2.844400
40.045500 2.773400
40.075500 2.689600
40.105600 2.612800
40.135600 2.508200
40.165700 2.432400
40.195800 2.389200
40.225800 2.385200
40.255900 2.421400
40.286000 2.490500
40.316000 2.569700
40.346100 2.661600
40.376100 2.757200
40.406200 2.850900
40.436300 2.938200
40.466300 3.047200
40.496400 3.075400
40.526400 2.869600
40.556500 2.664800
40.586600 2.587600
40.616600 2.557500
40.646700 2.536600
40.676800 2.521600
40.706800 2.530600
40.736900 2.548200
40.766900 2.469700
40.797000 2.414000
40.827100 2.294500
40.857100 2.235200
40.887200 2.227900
40.917200 2.246800
40.947300 2.274700
40.977400 2.300200
41.007400 2.330600
41.037500 2.368400
41.067600 2.418400
41.097600 2.478400
41.127700 2.567100
41.157700 2.667200
41.187800 2.782300
41.217900 2.771800
41.247900 2.783800
41.278000 2.769400
41.308000 2.730800
41.338100 2.697900
41.368200 2.691300
41.398200 2.666500
41.428300 2.599100
41.458400 2.506800
41.488400 2.334600
41.518500 2.296000
41.548500 2.265500
41.578600 2.235100
41.608700 2.244900
41.638700 2.396900
41.668800 2.438600
41.698800 2.401200
41.728900 2.356900
41.759000 2.309000
41.789000 2.260000
41.819100 2.242200
41.849200 2.243100
41.879200 2.318300
41.909300 2.393300
41.939300 2.522100
41.969400 2.611000
41.999500 2.686100
42.029500 2.765300
42.059600 2.851600
42.089600 2.882100
42.119700 2.924800
42.149800 2.981600
42.179800 2.998600
42.209900 3.010200
42.240000 2.983500
42.270000 2.981400
42.300100 2.990300
42.330100 2.870400
42.360200 2.786600
42.390300 2.775200
42.420300 2.839700
42.450400 2.859900
42.480400 2.880500
42.510500 2.886400
42.540600 2.887000
42.570600 2.954300
42.600700 3.042500
42.630800 3.085800
42.660800 2.830600
42.690900 2.570800
42.720900 2.437000
42.751000 2.358500
42.781100 2.317400
42.811100 2.279800
42.841200 2.261900
42.871300 2.261600
42.901300 2.280200
42.931400 2.307300
42.961400 2.360000
42.991500 2.429800
43.021600 2.516700
43.051600 2.566400
43.081700 2.562800
43.111700 2.542900
43.141800 2.524400
43.171900 2.532300
43.201900 2.591400
43.232000 2.660600
43.262100 2.702900
43.292100 2.747600
43.322200 2.813900
43.352200 2.889000
43.382300 2.959600
43.412400 3.003700
43.442400 2.919400
43.472500 2.867900
43.502500 2.811600
43.532600 2.832200
43.562700 2.881000
43.592700 2.897200
43.622800 2.821400
43.652900 2.774500
43.682900 2.729100
43.713000 2.693700
43.743000 2.655800
43.773100 2.727500
43.803200 2.592000
43.833200 2.568700
43.863300 2.497900
43.893300 2.424700
43.923400 2.372300
43.953500 2.310600
43.983500 2.280400
44.013600 2.255100
44.043700 2.240700
44.073700 2.241800
44.103800 2.259800
44.133800 2.295500
44.163900 2.335100
44.194000 2.357100
44.224000 2.387100
44.254100 2.426100
44.284100 2.489700
44.314200 2.548400
44.344300 2.580500
44.374300 2.595800
44.404400 2.604000
44.434500 2.616100
44.464500 2.576300
44.494600 2.499800
44.524600 2.450800
44.554700 2.447600
44.584800 2.524300
44.614800 2.618100
44.644900 2.537400
44.674900 2.502700
44.705000 2.512100
44.735100 2.534100
44.765100 2.556100
44.795200 2.573200
44.825300 2.584600
44.855300 2.556100
44.885400 2.516400
44.915400 2.480900
44.945500 2.443400
44.975600 2.449800
45.005600 2.417900
45.035700 2.423300
45.065700 2.449300
45.095800 2.499200
45.125900 2.561100
45.155900 2.605800
45.186000 2.660300
45.216100 2.662000
45.246100 2.586100
45.276200 2.565400
45.306200 2.553300
45.336300 2.534200
45.366400 2.494900
45.396400 2.453900
45.426500 2.409200
45.456500 2.414700
45.486600 2.393700
45.516700 2.364400
45.546700 2.337900
45.576800 2.336400
45.606900 2.277700
45.636900 2.241000
45.667000 2.212400
45.697000 2.191400
45.727100 2.174700
45.757200 2.161700
45.787200 2.171400
45.817300 2.187000
45.847300 2.212200
45.877400 2.251400
45.907500 2.279500
45.937500 2.177900
45.967600 2.151600
45.997700 2.159400
46.027700 2.183600
46.057800 2.220700
46.087800 2.315300
46.117900 2.443700
46.148000 2.533000
46.178000 2.599400
46.208100 2.626200
46.238100 2.510700
46.268200 2.475000
46.298300 2.450600
46.328300 2.419400
46.358400 2.366000
46.388500 2.316200
46.418500 2.261000
46.448600 2.212800
46.478600 2.179000
46.508700 2.148500
46.538800 2.125000
46.568800 2.103100
46.598900 2.083000
46.628900 2.065400
46.659000 2.051400
46.689100 2.016400
46.719100 1.999200
46.749200 1.983100
46.779300 1.932400
46.809300 1.865400
46.839400 1.746000
46.869400 1.680200
46.899500 1.615600
46.929600 1.552900
46.959600 1.492600
46.989700 1.435200
47.019700 1.381500
47.049800 1.331200
47.079900 1.291400
47.109900 1.263300
47.140000 1.223700
47.170100 1.177800
47.200100 1.140300
47.230200 1.117100
47.260200 1.102000
47.290300 1.093500
47.320400 1.087100
47.350400 1.072600
47.380500 1.049100
47.410500 1.035800
47.440600 0.946800
47.470700 0.906800
47.500700 0.863200
47.530800 0.821900
47.560900 0.776700
47.590900 0.728400
47.621000 0.690200
47.651000 0.655300
47.681100 0.620800
47.711200 0.590000
47.741200 0.564000
47.771300 0.552700
47.801300 0.529400
47.831400 0.510800
47.861500 0.478600
47.891500 0.435700
47.921600 0.407000
47.951700 0.387100
47.981700 0.373600
48.011800 0.366000
48.041800 0.364200
48.071900 0.365800
48.102000 0.368700
48.132000 0.374100
48.162100 0.392500
48.192100 0.438500
48.222200 0.445200
48.252300 0.441500
48.282300 0.432400
48.312400 0.418800
48.342500 0.402100
48.372500 0.380100
48.402600 0.360400
48.432600 0.345800
48.462700 0.332600
48.492800 0.318000
48.522800 0.279100
48.552900 0.213100
48.582900 0.202200
48.613000 0.190900
48.643100 0.179200
48.673100 0.166400
48.703200 0.142700
48.733300 0.134200
48.763300 0.125200
48.793400 0.115900
48.823400 0.107000
48.853500 0.099000
48.883600 0.091900
48.913600 0.085600
48.943700 0.079800
48.973700 0.075300
49.003800 0.071300
49.033900 0.067400
49.063900 0.063700
49.094000 0.060100
49.124100 0.056800
49.154100 0.053600
49.184200 0.050400
49.214200 0.047400
49.244300 0.044400
49.274400 0.041600
49.304400 0.039000
49.334500 0.036600
49.364500 0.034400
49.394600 0.032300
49.424700 0.029200
49.454700 0.024700
49.484800 0.018700
49.514900 0.012900
49.544900 0.011800
49.575000 0.010700
49.605000 0.009600
49.635100 0.008700
49.665200 0.007700
49.695200 0.006800
49.725300 0.006000
49.755300 0.005300
49.785400 0.004500
49.815500 0.003900
49.845500 0.003300
49.875600 0.002700
49.905700 0.002200
49.935700 0.001700
49.965800 0.001300
49.995800 0.001000
50.025900 0.000700
50.056000 0.000400
50.086000 0.000300
50.116100 0.000100
50.146100 0.000000
50.176200 0.000000
50.206300 0.000000
50.236300 0.000000
50.266400 0.000000
50.296500 0.000000
50.326500 0.000000
50.356600 0.000000
50.386600 0.000000
50.416700 0.000000
50.446800 0.000000
50.476800 0.000000
50.506900 0.000000
50.536900 0.000000
50.567000 0.000000
50.597100 0.000000
50.627100 0.000000
50.657200 0.000000
50.687300 0.000000
50.717300 0.000000
50.747400 0.000000
50.777400 0.000000
50.807500 0.000000
50.837600 0.000000
50.867600 0.000000
50.897700 0.000000
50.927700 0.000000
50.957800 0.000000
50.987900 0.000000
51.017900 0.000000
51.048000 0.000000
51.078100 0.000000
51.108100 0.000000
51.138200 0.000000
51.168200 0.000000
51.198300 0.000000
51.228400 0.000000
51.258400 0.000000
51.288500 0.000000
51.318600 0.000000
51.348600 0.000000
51.378700 0.000000
51.408700 0.000000
51.438800 0.000000
51.468900 0.000000
51.498900 0.000000
51.529000 0.000000
51.559000 0.000000
51.589100 0.000000
51.619200 0.000000
51.649200 0.000000
51.679300 0.000000
51.709400 0.000000
51.739400 0.000000
51.769500 0.000000
51.799500 0.000000
51.829600 0.000000
51.859700 0.000000
51.889700 0.000000
51.919800 0.000000
51.949800 0.000000
51.979900 0.000000
52.010000 0.000000
52.040000 0.000000
52.070100 0.000000
52.100200 0.000000
52.130200 0.000000
52.160300 0.000000
52.190300 0.000000
52.220400 0.000000
52.250500 0.000000
52.280500 0.000000
52.310600 0.000000
52.340600 0.000000
52.370700 0.000000
52.400800 0.000000
52.430800 0.000000
52.460900 0.000000
52.491000 0.000000
52.521000 0.000000
52.551100 0.000000
52.581100 0.000000
52.611200 0.000000
52.641300 0.000000
52.671300 0.000000
52.701400 0.000000
52.731400 0.000000
52.761500 0.000000
52.791600 0.000000
52.821600 0.000000
52.851700 0.000000
52.881800 0.000000
52.911800 0.000000
e
