set title 'mp-1187976 - Density of States'
set xlabel 'Energy (eV)'
set ylabel 'DOS (states/eV)'
set grid
set xrange [-10:10]
set yrange [0:62.359]
set xzeroaxis lt -1
set terminal png size 800,600
set output 'mp-1187976_dos_gnuplot.png'
plot '-' using 1:2 with lines title 'DOS'
-17.613900 0.000000
-17.584600 0.000000
-17.555300 0.000000
-17.526100 0.000000
-17.496800 0.000000
-17.467600 0.000000
-17.438300 0.000000
-17.409000 0.000000
-17.379800 0.000000
-17.350500 0.000000
-17.321200 0.000000
-17.292000 0.000000
-17.262700 0.000000
-17.233500 0.000000
-17.204200 0.000000
-17.174900 0.000000
-17.145700 0.000000
-17.116400 0.000000
-17.087100 0.000000
-17.057900 0.000000
-17.028600 0.000000
-16.999400 0.000000
-16.970100 0.000000
-16.940800 0.000000
-16.911600 0.000000
-16.882300 0.000000
-16.853000 0.000000
-16.823800 0.000000
-16.794500 0.000000
-16.765300 0.000000
-16.736000 0.000000
-16.706700 0.000000
-16.677500 0.000000
-16.648200 0.000000
-16.618900 0.000000
-16.589700 0.000000
-16.560400 0.000000
-16.531200 0.000000
-16.501900 0.000000
-16.472600 0.000000
-16.443400 0.000000
-16.414100 0.000000
-16.384800 0.000000
-16.355600 0.000000
-16.326300 0.000000
-16.297100 0.000000
-16.267800 0.000000
-16.238500 0.000000
-16.209300 0.000000
-16.180000 0.000000
-16.150700 0.000000
-16.121500 0.000000
-16.092200 0.000000
-16.063000 0.000000
-16.033700 0.000000
-16.004400 0.000000
-15.975200 0.000000
-15.945900 0.000000
-15.916600 0.000000
-15.887400 0.000000
-15.858100 0.000000
-15.828900 0.000000
-15.799600 0.000000
-15.770300 0.000000
-15.741100 0.000000
-15.711800 0.000000
-15.682500 0.000000
-15.653300 0.000000
-15.624000 0.000000
-15.594800 0.000000
-15.565500 0.000000
-15.536200 0.000000
-15.507000 0.000000
-15.477700 0.000000
-15.448500 0.000000
-15.419200 0.000000
-15.389900 0.000000
-15.360700 0.000000
-15.331400 0.000000
-15.302100 0.000000
-15.272900 0.000000
-15.243600 0.000000
-15.214400 0.000000
-15.185100 0.000000
-15.155800 0.000000
-15.126600 0.000000
-15.097300 0.000000
-15.068000 0.001100
-15.038800 0.019100
-15.009500 0.177400
-14.980300 0.979200
-14.951000 3.678200
-14.921700 11.526300
-14.892500 32.245000
-14.863200 71.077000
-14.833900 112.704500
-14.804700 130.327600
-14.775400 123.430800
-14.746200 116.981400
-14.716900 119.045500
-14.687600 112.219700
-14.658400 85.188800
-14.629100 51.554100
-14.599800 27.433600
-14.570600 14.092200
-14.541300 7.293200
-14.512100 3.544300
-14.482800 1.320100
-14.453500 0.316700
-14.424300 0.044500
-14.395000 0.003500
-14.365700 0.000100
-14.336500 0.000000
-14.307200 0.000000
-14.278000 0.000000
-14.248700 0.000000
-14.219400 0.000000
-14.190200 0.000000
-14.160900 0.000000
-14.131600 0.000000
-14.102400 0.000000
-14.073100 0.000000
-14.043900 0.000000
-14.014600 0.000000
-13.985300 0.000000
-13.956100 0.000000
-13.926800 0.000000
-13.897500 0.000000
-13.868300 0.000000
-13.839000 0.000000
-13.809800 0.000000
-13.780500 0.000000
-13.751200 0.000000
-13.722000 0.000000
-13.692700 0.000000
-13.663400 0.000000
-13.634200 0.000000
-13.604900 0.000000
-13.575700 0.000000
-13.546400 0.000000
-13.517100 0.000000
-13.487900 0.000000
-13.458600 0.000000
-13.429300 0.000000
-13.400100 0.000000
-13.370800 0.000000
-13.341600 0.000000
-13.312300 0.000000
-13.283000 0.000000
-13.253800 0.000000
-13.224500 0.000000
-13.195200 0.000000
-13.166000 0.000000
-13.136700 0.000000
-13.107500 0.000000
-13.078200 0.000000
-13.048900 0.000000
-13.019700 0.000000
-12.990400 0.000000
-12.961100 0.000000
-12.931900 0.000000
-12.902600 0.000000
-12.873400 0.000000
-12.844100 0.000000
-12.814800 0.000000
-12.785600 0.000000
-12.756300 0.000000
-12.727000 0.000000
-12.697800 0.000000
-12.668500 0.000000
-12.639300 0.000000
-12.610000 0.000000
-12.580700 0.000000
-12.551500 0.000000
-12.522200 0.000000
-12.492900 0.000000
-12.463700 0.000000
-12.434400 0.000000
-12.405200 0.000000
-12.375900 0.000000
-12.346600 0.000000
-12.317400 0.000000
-12.288100 0.000000
-12.258800 0.000000
-12.229600 0.000000
-12.200300 0.000000
-12.171100 0.000000
-12.141800 0.000000
-12.112500 0.000000
-12.083300 0.000000
-12.054000 0.000000
-12.024700 0.000000
-11.995500 0.000000
-11.966200 0.000000
-11.937000 0.000000
-11.907700 0.000000
-11.878400 0.000000
-11.849200 0.000000
-11.819900 0.000000
-11.790600 0.000000
-11.761400 0.000000
-11.732100 0.000000
-11.702900 0.000000
-11.673600 0.000000
-11.644300 0.000000
-11.615100 0.000000
-11.585800 0.000000
-11.556500 0.000000
-11.527300 0.000000
-11.498000 0.000000
-11.468800 0.000000
-11.439500 0.000000
-11.410200 0.000000
-11.381000 0.000000
-11.351700 0.000000
-11.322400 0.000000
-11.293200 0.000000
-11.263900 0.000000
-11.234700 0.000000
-11.205400 0.000000
-11.176100 0.000000
-11.146900 0.000000
-11.117600 0.000000
-11.088300 0.000000
-11.059100 0.000000
-11.029800 0.000000
-11.000600 0.000000
-10.971300 0.000000
-10.942000 0.000000
-10.912800 0.000000
-10.883500 0.000000
-10.854200 0.000000
-10.825000 0.000000
-10.795700 0.000000
-10.766500 0.000000
-10.737200 0.000000
-10.707900 0.000000
-10.678700 0.000000
-10.649400 0.000000
-10.620100 0.000000
-10.590900 0.000000
-10.561600 0.000000
-10.532400 0.000000
-10.503100 0.000000
-10.473800 0.000000
-10.444600 0.000000
-10.415300 0.000000
-10.386000 0.000000
-10.356800 0.000000
-10.327500 0.000000
-10.298300 0.000000
-10.269000 0.000000
-10.239700 0.000000
-10.210500 0.000000
-10.181200 0.000000
-10.151900 0.000000
-10.122700 0.000000
-10.093400 0.000000
-10.064200 0.000000
-10.034900 0.000000
-10.005600 0.000000
-9.976400 0.000000
-9.947100 0.000000
-9.917800 0.000000
-9.888600 0.000000
-9.859300 0.000000
-9.830100 0.000000
-9.800800 0.000000
-9.771500 0.000000
-9.742300 0.000000
-9.713000 0.000000
-9.683700 0.000000
-9.654500 0.000000
-9.625200 0.000000
-9.596000 0.000000
-9.566700 0.000000
-9.537400 0.000000
-9.508200 0.000000
-9.478900 0.000000
-9.449600 0.000000
-9.420400 0.000000
-9.391100 0.000000
-9.361900 0.000000
-9.332600 0.000000
-9.303300 0.000000
-9.274100 0.000000
-9.244800 0.000000
-9.215500 0.000000
-9.186300 0.000000
-9.157000 0.000000
-9.127800 0.000000
-9.098500 0.000000
-9.069200 0.000000
-9.040000 0.000000
-9.010700 0.000000
-8.981400 0.000000
-8.952200 0.000000
-8.922900 0.000000
-8.893700 0.000000
-8.864400 0.000000
-8.835100 0.000000
-8.805900 0.000000
-8.776600 0.000000
-8.747300 0.000000
-8.718100 0.000000
-8.688800 0.000000
-8.659600 0.000000
-8.630300 0.000000
-8.601000 0.000000
-8.571800 0.000000
-8.542500 0.000000
-8.513200 0.000000
-8.484000 0.000000
-8.454700 0.000000
-8.425500 0.000000
-8.396200 0.000000
-8.366900 0.000000
-8.337700 0.000000
-8.308400 0.000000
-8.279100 0.000000
-8.249900 0.000000
-8.220600 0.000000
-8.191400 0.000000
-8.162100 0.000000
-8.132800 0.000000
-8.103600 0.000000
-8.074300 0.000000
-8.045000 0.000000
-8.015800 0.000000
-7.986500 0.000000
-7.957300 0.000000
-7.928000 0.000000
-7.898700 0.000000
-7.869500 0.000000
-7.840200 0.000000
-7.810900 0.000000
-7.781700 0.000000
-7.752400 0.000000
-7.723200 0.000000
-7.693900 0.000000
-7.664600 0.000000
-7.635400 0.000000
-7.606100 0.000000
-7.576800 0.000000
-7.547600 0.000000
-7.518300 0.000000
-7.489100 0.000000
-7.459800 0.000000
-7.430500 0.000000
-7.401300 0.000000
-7.372000 0.000000
-7.342700 0.000000
-7.313500 0.000000
-7.284200 0.000000
-7.255000 0.000000
-7.225700 0.000000
-7.196400 0.000000
-7.167200 0.000000
-7.137900 0.000000
-7.108600 0.000000
-7.079400 0.000000
-7.050100 0.000000
-7.020900 0.000000
-6.991600 0.000000
-6.962300 0.000000
-6.933100 0.000000
-6.903800 0.000000
-6.874500 0.000000
-6.845300 0.000000
-6.816000 0.000000
-6.786800 0.000000
-6.757500 0.000000
-6.728200 0.000000
-6.699000 0.000000
-6.669700 0.000000
-6.640400 0.000000
-6.611200 0.000000
-6.581900 0.000000
-6.552700 0.000000
-6.523400 0.000000
-6.494100 0.000000
-6.464900 0.000000
-6.435600 0.000000
-6.406300 0.000000
-6.377100 0.000000
-6.347800 0.000000
-6.318600 0.000000
-6.289300 0.000000
-6.260000 0.000000
-6.230800 0.000000
-6.201500 0.000000
-6.172200 0.000000
-6.143000 0.000000
-6.113700 0.000000
-6.084500 0.000000
-6.055200 0.000000
-6.025900 0.000000
-5.996700 0.000000
-5.967400 0.000000
-5.938100 0.000000
-5.908900 0.000000
-5.879600 0.000000
-5.850400 0.000000
-5.821100 0.000000
-5.791800 0.000000
-5.762600 0.000000
-5.733300 0.000000
-5.704000 0.000000
-5.674800 0.000000
-5.645500 0.000000
-5.616300 0.000000
-5.587000 0.000000
-5.557700 0.000000
-5.528500 0.000000
-5.499200 0.000000
-5.469900 0.000000
-5.440700 0.000000
-5.411400 0.000000
-5.382200 0.000000
-5.352900 0.000000
-5.323600 0.000000
-5.294400 0.000000
-5.265100 0.000000
-5.235800 0.000000
-5.206600 0.000000
-5.177300 0.000000
-5.148100 0.000000
-5.118800 0.000000
-5.089500 0.000000
-5.060300 0.000000
-5.031000 0.000000
-5.001700 0.000000
-4.972500 0.000000
-4.943200 0.000000
-4.914000 0.000000
-4.884700 0.000000
-4.855400 0.000000
-4.826200 0.000000
-4.796900 0.000000
-4.767600 0.000000
-4.738400 0.000000
-4.709100 0.000000
-4.679900 0.000000
-4.650600 0.000000
-4.621300 0.000000
-4.592100 0.000000
-4.562800 0.000000
-4.533500 0.000000
-4.504300 0.000000
-4.475000 0.000000
-4.445800 0.000000
-4.416500 0.000000
-4.387200 0.000000
-4.358000 0.000000
-4.328700 0.000000
-4.299400 0.000000
-4.270200 0.000000
-4.240900 0.000000
-4.211700 0.000000
-4.182400 0.000000
-4.153100 0.000000
-4.123900 0.000000
-4.094600 0.000200
-4.065400 0.001700
-4.036100 0.009600
-4.006800 0.030200
-3.977600 0.058400
-3.948300 0.092800
-3.919000 0.154600
-3.889800 0.250900
-3.860500 0.340000
-3.831300 0.342300
-3.802000 0.243800
-3.772700 0.165000
-3.743500 0.240900
-3.714200 0.414600
-3.684900 0.488000
-3.655700 0.416600
-3.626400 0.358800
-3.597200 0.451500
-3.567900 0.628700
-3.538600 0.673000
-3.509400 0.519900
-3.480100 0.361000
-3.450800 0.339500
-3.421600 0.456800
-3.392300 0.635400
-3.363100 0.677800
-3.333800 0.510500
-3.304500 0.362700
-3.275300 0.445100
-3.246000 0.681500
-3.216700 0.824800
-3.187500 0.802300
-3.158200 0.820700
-3.129000 0.947500
-3.099700 1.017000
-3.070400 0.897200
-3.041200 0.623200
-3.011900 0.428500
-2.982600 0.488900
-2.953400 0.735000
-2.924100 0.907800
-2.894900 0.853000
-2.865600 0.763000
-2.836300 0.809400
-2.807100 0.920800
-2.777800 0.978900
-2.748500 0.818900
-2.719300 0.562400
-2.690000 0.575000
-2.660800 0.893000
-2.631500 1.149500
-2.602200 1.048200
-2.573000 0.830000
-2.543700 0.862400
-2.514400 1.080400
-2.485200 1.233500
-2.455900 1.108000
-2.426700 0.715600
-2.397400 0.451800
-2.368100 0.583400
-2.338900 0.843700
-2.309600 0.891500
-2.280300 0.834600
-2.251100 0.847100
-2.221800 0.804400
-2.192600 0.715200
-2.163300 0.667800
-2.134000 0.629300
-2.104800 0.719700
-2.075500 1.023600
-2.046200 1.335000
-2.017000 1.377200
-1.987700 1.276900
-1.958500 1.301300
-1.929200 1.404500
-1.899900 1.323300
-1.870700 0.962300
-1.841400 0.695700
-1.812100 0.733500
-1.782900 0.891200
-1.753600 1.037400
-1.724400 1.078600
-1.695100 1.017300
-1.665800 0.998000
-1.636600 0.997200
-1.607300 0.844500
-1.578000 0.569800
-1.548800 0.484400
-1.519500 0.733000
-1.490300 1.197500
-1.461000 1.705700
-1.431700 1.941000
-1.402500 1.729500
-1.373200 1.393500
-1.343900 1.298300
-1.314700 1.319300
-1.285400 1.261600
-1.256200 1.360500
-1.226900 1.739000
-1.197600 1.947700
-1.168400 1.742400
-1.139100 1.506700
-1.109800 1.458500
-1.080600 1.569700
-1.051300 1.790900
-1.022100 1.978800
-0.992800 1.960000
-0.963500 1.714900
-0.934300 1.456700
-0.905000 1.379000
-0.875700 1.441200
-0.846500 1.505700
-0.817200 1.581300
-0.788000 1.646700
-0.758700 1.592200
-0.729400 1.468600
-0.700200 1.490200
-0.670900 1.789600
-0.641600 2.372100
-0.612400 2.902100
-0.583100 2.869000
-0.553900 2.657100
-0.524600 2.975000
-0.495300 3.798600
-0.466100 5.128500
-0.436800 6.984300
-0.407500 8.965400
-0.378300 11.086700
-0.349000 15.187200
-0.319800 25.031400
-0.290500 41.710900
-0.261200 56.690300
-0.232000 55.289300
-0.202700 37.016700
-0.173400 18.533500
-0.144200 9.424000
-0.114900 6.951700
-0.085700 6.372200
-0.056400 5.337400
-0.027100 4.057300
0.002100 3.140200
0.031400 2.563100
0.060700 2.311500
0.089900 2.298700
0.119200 2.406900
0.148400 2.480900
0.177700 2.361900
0.207000 2.188500
0.236200 1.962000
0.265500 1.589100
0.294800 1.443700
0.324000 1.791300
0.353300 2.178600
0.382500 2.197700
0.411800 2.159100
0.441100 2.384800
0.470300 2.652000
0.499600 2.696700
0.528900 2.477500
0.558100 2.029700
0.587400 1.550300
0.616600 1.476200
0.645900 1.841500
0.675200 2.169400
0.704400 2.312500
0.733700 2.278000
0.763000 1.875600
0.792200 1.458700
0.821500 1.547300
0.850700 2.039100
0.880000 2.400300
0.909300 2.471300
0.938500 2.528200
0.967800 2.439100
0.997100 2.080200
1.026300 1.860800
1.055600 1.730300
1.084800 1.416300
1.114100 1.151500
1.143400 1.152100
1.172600 1.248500
1.201900 1.265400
1.231200 1.260700
1.260400 1.270300
1.289700 1.295600
1.318900 1.414400
1.348200 1.503400
1.377500 1.258400
1.406700 0.766600
1.436000 0.457100
1.465300 0.444400
1.494500 0.472300
1.523800 0.421400
1.553000 0.348500
1.582300 0.305100
1.611600 0.383900
1.640800 0.519700
1.670100 0.457800
1.699400 0.250000
1.728600 0.173800
1.757900 0.287200
1.787100 0.503900
1.816400 0.710000
1.845700 0.778200
1.874900 0.729800
1.904200 0.604200
1.933500 0.481300
1.962700 0.456800
1.992000 0.415800
2.021200 0.350400
2.050500 0.389600
2.079800 0.427200
2.109000 0.356000
2.138300 0.255300
2.167600 0.244800
2.196800 0.407600
2.226100 0.620300
2.255300 0.703300
2.284600 0.823700
2.313900 1.190000
2.343100 1.611100
2.372400 1.805800
2.401700 1.739700
2.430900 1.431700
2.460200 1.092700
2.489400 1.058700
2.518700 1.218400
2.548000 1.319800
2.577200 1.288700
2.606500 1.109900
2.635800 1.109300
2.665000 1.659900
2.694300 2.502000
2.723500 3.022400
2.752800 2.817600
2.782100 2.028800
2.811300 1.329600
2.840600 1.160800
2.869900 1.381600
2.899100 1.629700
2.928400 1.620300
2.957600 1.468300
2.986900 1.403200
3.016200 1.338300
3.045400 1.221200
3.074700 1.174500
3.104000 1.419000
3.133200 2.035200
3.162500 2.668700
3.191700 2.822100
3.221000 2.490200
3.250300 2.084400
3.279500 1.965800
3.308800 2.167900
3.338100 2.354300
3.367300 2.124200
3.396600 1.485800
3.425800 1.083100
3.455100 1.224300
3.484400 1.655400
3.513600 1.865500
3.542900 1.493700
3.572200 1.075000
3.601400 1.160400
3.630700 1.435300
3.659900 1.424400
3.689200 1.168500
3.718500 0.981700
3.747700 0.867100
3.777000 0.672200
3.806300 0.708600
3.835500 1.257900
3.864800 1.767900
3.894000 1.752200
3.923300 1.849500
3.952600 2.223500
3.981800 2.016000
4.011100 1.260700
4.040400 0.789200
4.069600 0.988300
4.098900 1.461700
4.128100 1.540500
4.157400 1.271000
4.186700 1.159700
4.215900 1.236000
4.245200 1.362300
4.274500 1.653400
4.303700 2.085800
4.333000 2.456500
4.362200 2.462600
4.391500 2.038500
4.420800 1.584600
4.450000 1.355200
4.479300 1.215500
4.508600 1.249300
4.537800 1.777600
4.567100 2.453700
4.596300 2.601800
4.625600 2.365900
4.654900 2.285300
4.684100 2.221200
4.713400 1.886700
4.742700 1.424200
4.771900 1.213400
4.801200 1.425600
4.830400 1.714800
4.859700 2.043300
4.889000 2.633000
4.918200 3.162500
4.947500 3.205400
4.976800 2.687100
5.006000 2.016700
5.035300 1.657600
5.064500 1.534400
5.093800 1.391800
5.123100 1.350800
5.152300 1.610600
5.181600 1.954700
5.210900 2.117600
5.240100 2.218600
5.269400 2.259400
5.298600 2.030200
5.327900 1.817000
5.357200 1.801600
5.386400 1.728400
5.415700 1.694600
5.445000 1.824200
5.474200 1.911100
5.503500 1.996200
5.532700 2.225300
5.562000 2.326800
5.591300 2.081200
5.620500 1.845000
5.649800 2.026600
5.679100 2.458200
5.708300 2.464000
5.737600 1.999700
5.766800 1.733900
5.796100 1.610500
5.825400 1.268500
5.854600 1.051300
5.883900 1.276600
5.913200 1.880600
5.942400 2.607400
5.971700 2.865000
6.000900 2.309900
6.030200 1.446000
6.059500 1.005200
6.088700 1.199200
6.118000 1.739600
6.147300 2.035800
6.176500 1.923400
6.205800 1.886400
6.235000 1.958900
6.264300 1.897300
6.293600 1.959100
6.322800 2.221200
6.352100 2.437900
6.381400 2.657800
6.410600 2.939000
6.439900 3.054400
6.469100 2.681200
6.498400 2.040100
6.527700 1.701400
6.556900 1.533800
6.586200 1.245400
6.615500 1.192900
6.644700 1.362500
6.674000 1.311500
6.703200 1.187700
6.732500 1.234300
6.761800 1.444000
6.791000 1.967900
6.820300 2.572800
6.849600 2.648700
6.878800 2.283100
6.908100 1.985300
6.937300 1.727400
6.966600 1.375500
6.995900 1.248100
7.025100 1.500300
7.054400 1.726900
7.083600 1.768200
7.112900 1.925300
7.142200 2.340500
7.171400 2.812700
7.200700 3.051500
7.230000 2.907900
7.259200 2.515500
7.288500 2.192600
7.317700 2.229800
7.347000 2.563200
7.376300 2.701400
7.405500 2.435400
7.434800 2.215200
7.464100 2.230500
7.493300 2.185700
7.522600 1.895400
7.551800 1.411300
7.581100 1.221900
7.610400 1.661500
7.639600 2.427400
7.668900 2.915700
7.698200 2.845100
7.727400 2.541900
7.756700 2.382900
7.785900 2.382200
7.815200 2.420100
7.844500 2.353800
7.873700 2.085800
7.903000 1.741100
7.932300 1.605300
7.961500 1.609500
7.990800 1.514400
8.020000 1.430700
8.049300 1.670200
8.078600 2.172400
8.107800 2.394100
8.137100 2.129700
8.166400 1.868200
8.195600 2.034500
8.224900 2.341100
8.254100 2.311800
8.283400 2.153500
8.312700 2.378200
8.341900 2.872000
8.371200 3.173600
8.400500 3.009300
8.429700 2.550000
8.459000 2.089400
8.488200 1.514200
8.517500 1.034200
8.546800 0.927700
8.576000 0.950400
8.605300 1.107000
8.634600 1.657100
8.663800 2.577700
8.693100 3.699500
8.722300 4.343900
8.751600 3.996400
8.780900 3.208400
8.810100 2.536500
8.839400 1.924800
8.868700 1.506000
8.897900 1.837600
8.927200 2.851000
8.956400 3.596800
8.985700 3.483500
9.015000 2.857800
9.044200 2.216600
9.073500 1.837700
9.102800 1.891200
9.132000 2.116300
9.161300 2.055000
9.190500 1.916900
9.219800 2.207100
9.249100 2.766800
9.278300 3.086000
9.307600 3.023700
9.336900 2.771200
9.366100 2.613100
9.395400 2.701300
9.424600 2.914700
9.453900 3.057100
9.483200 3.091900
9.512400 2.890500
9.541700 2.356700
9.571000 1.737700
9.600200 1.428000
9.629500 1.683200
9.658700 2.338400
9.688000 2.857700
9.717300 2.928600
9.746500 2.894900
9.775800 3.135100
9.805100 3.505300
9.834300 3.676000
9.863600 3.414700
9.892800 2.849100
9.922100 2.348800
9.951400 2.115000
9.980600 2.095900
10.009900 2.117900
10.039200 1.888200
10.068400 1.360600
10.097700 1.153500
10.126900 1.653700
10.156200 2.268300
10.185500 2.373500
10.214700 2.238700
10.244000 2.238800
10.273300 2.191200
10.302500 1.987000
10.331800 2.062500
10.361000 2.702400
10.390300 3.294400
10.419600 3.180800
10.448800 2.535200
10.478100 1.930000
10.507400 1.785400
10.536600 2.071500
10.565900 2.314500
10.595100 2.255900
10.624400 2.051000
10.653700 1.854200
10.682900 1.674900
10.712200 1.466100
10.741500 1.432600
10.770700 1.855200
10.800000 2.471600
10.829200 2.604500
10.858500 2.083800
10.887800 1.649400
10.917000 1.830100
10.946300 2.256000
10.975600 2.529800
11.004800 2.844400
11.034100 3.632200
11.063300 4.771700
11.092600 5.295100
11.121900 4.793200
11.151100 3.969000
11.180400 3.131200
11.209700 2.349600
11.238900 1.862500
11.268200 1.664700
11.297400 1.574100
11.326700 1.659300
11.356000 2.055400
11.385200 2.448200
11.414500 2.585700
11.443800 2.714400
11.473000 2.968500
11.502300 2.832600
11.531500 2.168300
11.560800 1.668400
11.590100 1.696700
11.619300 1.993200
11.648600 2.340400
11.677900 2.809600
11.707100 3.310000
11.736400 3.466200
11.765600 3.275800
11.794900 3.090300
11.824200 2.816400
11.853400 2.349800
11.882700 1.968500
11.912000 1.641100
11.941200 1.308600
11.970500 1.191200
11.999700 1.384900
12.029000 1.641700
12.058300 1.782800
12.087500 2.012300
12.116800 2.520900
12.146100 3.038500
12.175300 3.540600
12.204600 4.191500
12.233800 4.292400
12.263100 3.733600
12.292400 3.375800
12.321600 3.276800
12.350900 3.005000
12.380200 2.516100
12.409400 2.048700
12.438700 1.742700
12.467900 1.480900
12.497200 1.332300
12.526500 1.336000
12.555700 1.249400
12.585000 1.106800
12.614300 1.148700
12.643500 1.359300
12.672800 1.558500
12.702000 1.727300
12.731300 1.992000
12.760600 2.421600
12.789800 2.800100
12.819100 2.692800
12.848400 2.117900
12.877600 1.462000
12.906900 1.079600
12.936100 1.214900
12.965400 1.715300
12.994700 2.195800
13.023900 2.351200
13.053200 2.211200
13.082500 2.108400
13.111700 2.138700
13.141000 2.274700
13.170200 2.480500
13.199500 2.439300
13.228800 2.150600
13.258000 1.957300
13.287300 1.934100
13.316600 2.026600
13.345800 2.137500
13.375100 2.238400
13.404300 2.377600
13.433600 2.617400
13.462900 2.787500
13.492100 2.617900
13.521400 2.112400
13.550700 1.641200
13.579900 1.547900
13.609200 1.847100
13.638400 2.202400
13.667700 2.183300
13.697000 1.779400
13.726200 1.361100
13.755500 1.294800
13.784800 1.581400
13.814000 1.808100
13.843300 1.811700
13.872500 1.858900
13.901800 1.833400
13.931100 1.644400
13.960300 1.563100
13.989600 1.541600
14.018900 1.489500
14.048100 1.713800
14.077400 2.678300
14.106600 4.113100
14.135900 4.909000
14.165200 4.376900
14.194400 3.055700
14.223700 2.093700
14.253000 2.047000
14.282200 2.519700
14.311500 2.708300
14.340700 2.297500
14.370000 1.866000
14.399300 1.696200
14.428500 1.586700
14.457800 1.802700
14.487100 2.371600
14.516300 2.701400
14.545600 2.592400
14.574800 2.292300
14.604100 2.101200
14.633400 2.031600
14.662600 1.872200
14.691900 1.747700
14.721200 1.835600
14.750400 1.891700
14.779700 1.812100
14.808900 1.827900
14.838200 2.086200
14.867500 2.677800
14.896700 3.321500
14.926000 3.312000
14.955300 2.637700
14.984500 2.180600
15.013800 2.315700
15.043000 2.621600
15.072300 2.712600
15.101600 2.456800
15.130800 2.056600
15.160100 1.955600
15.189400 2.170300
15.218600 2.309800
15.247900 2.283000
15.277100 2.406800
15.306400 2.604100
15.335700 2.488900
15.364900 2.128000
15.394200 1.869200
15.423500 1.888000
15.452700 2.082800
15.482000 2.125500
15.511200 2.031600
15.540500 2.411700
15.569800 3.201100
15.599000 3.623400
15.628300 3.664800
15.657600 3.599800
15.686800 3.131300
15.716100 2.410600
15.745300 1.922900
15.774600 1.599100
15.803900 1.436900
15.833100 1.640100
15.862400 2.153200
15.891700 2.705000
15.920900 2.999200
15.950200 2.963600
15.979400 2.702700
16.008700 2.471100
16.038000 2.750700
16.067200 3.742200
16.096500 4.628100
16.125800 4.444200
16.155000 3.439900
16.184300 2.560000
16.213500 2.259300
16.242800 2.444900
16.272100 2.804600
16.301300 2.972600
16.330600 2.958200
16.359900 3.036000
16.389100 3.214300
16.418400 3.198000
16.447600 2.980600
16.476900 2.848500
16.506200 2.688700
16.535400 2.456000
16.564700 2.632300
16.594000 3.220400
16.623200 3.383000
16.652500 2.788900
16.681700 1.989300
16.711000 1.498200
16.740300 1.473200
16.769500 2.008000
16.798800 3.253000
16.828100 4.563100
16.857300 4.756800
16.886600 4.049400
16.915800 3.287700
16.945100 2.696900
16.974400 2.602200
17.003600 3.216100
17.032900 4.002500
17.062200 4.340800
17.091400 4.342600
17.120700 4.275500
17.149900 3.993100
17.179200 3.367500
17.208500 2.788900
17.237700 2.540000
17.267000 2.500400
17.296300 2.561900
17.325500 2.875400
17.354800 3.489000
17.384000 3.680700
17.413300 3.092100
17.442600 2.352400
17.471800 1.997300
17.501100 2.038700
17.530400 2.434200
17.559600 3.098300
17.588900 3.428600
17.618100 3.122300
17.647400 2.787100
17.676700 2.768400
17.705900 2.756400
17.735200 2.720800
17.764500 3.029200
17.793700 3.683200
17.823000 4.306400
17.852200 4.747000
17.881500 4.855400
17.910800 4.546700
17.940000 4.338000
17.969300 4.231800
17.998600 3.791500
18.027800 3.618200
18.057100 4.017100
18.086300 4.407500
18.115600 4.341500
18.144900 3.543500
18.174100 2.419400
18.203400 1.676000
18.232600 1.346200
18.261900 1.469700
18.291200 2.021600
18.320400 2.631800
18.349700 3.095700
18.379000 3.346600
18.408200 3.538300
18.437500 3.936700
18.466700 4.545200
18.496000 5.063200
18.525300 4.904800
18.554500 3.961100
18.583800 3.092800
18.613100 2.841100
18.642300 2.959400
18.671600 2.930700
18.700800 2.391200
18.730100 1.859400
18.759400 1.953000
18.788600 2.487400
18.817900 3.076000
18.847200 3.476900
18.876400 3.433200
18.905700 2.995900
18.934900 2.586100
18.964200 2.413900
18.993500 2.365400
19.022700 2.310900
19.052000 2.255300
19.081300 2.376100
19.110500 2.709800
19.139800 3.072100
19.169000 3.391700
19.198300 3.501300
19.227600 3.449100
19.256800 3.569400
19.286100 3.497300
19.315400 3.092700
19.344600 2.945900
19.373900 2.915700
19.403100 2.671900
19.432400 2.441300
19.461700 2.351500
19.490900 2.306800
19.520200 1.997000
19.549500 1.434200
19.578700 1.309000
19.608000 1.885000
19.637200 2.479500
19.666500 2.641400
19.695800 2.555800
19.725000 2.301100
19.754300 2.162000
19.783600 2.310900
19.812800 2.282000
19.842100 1.720700
19.871300 0.948400
19.900600 0.572800
19.929900 0.746900
19.959100 1.135900
19.988400 1.475700
20.017700 1.622100
20.046900 1.547800
20.076200 1.610700
20.105400 1.980900
20.134700 2.452300
20.164000 2.732300
20.193200 2.790300
20.222500 3.281800
20.251800 4.324800
20.281000 4.961200
20.310300 4.873400
20.339500 4.792500
20.368800 4.850100
20.398100 4.687600
20.427300 4.542800
20.456600 4.236400
20.485900 3.490100
20.515100 2.872000
20.544400 2.590700
20.573600 2.609300
20.602900 2.956700
20.632200 3.297100
20.661400 3.563300
20.690700 3.813100
20.720000 3.684200
20.749200 3.192700
20.778500 2.846000
20.807700 2.892500
20.837000 3.048600
20.866300 2.801900
20.895500 2.468000
20.924800 2.800000
20.954100 3.614400
20.983300 4.259900
21.012600 4.200100
21.041800 3.395300
21.071100 2.678400
21.100400 2.446600
21.129600 2.399900
21.158900 2.774600
21.188200 3.836400
21.217400 5.002000
21.246700 5.549600
21.275900 5.103700
21.305200 4.078400
21.334500 3.438600
21.363700 3.153000
21.393000 2.917000
21.422300 3.133500
21.451500 3.769800
21.480800 3.844300
21.510000 2.985800
21.539300 2.175500
21.568600 2.176500
21.597800 2.673800
21.627100 3.055700
21.656400 3.138800
21.685600 3.051300
21.714900 3.047900
21.744100 3.311200
21.773400 3.629100
21.802700 3.661600
21.831900 3.382300
21.861200 3.175600
21.890500 3.446100
21.919700 3.789300
21.949000 3.630200
21.978200 3.383100
22.007500 3.371400
22.036800 3.299100
22.066000 3.175400
22.095300 3.455800
22.124600 3.968800
22.153800 3.886100
22.183100 3.285100
22.212300 2.947900
22.241600 2.913100
22.270900 2.820100
22.300100 2.856800
22.329400 3.297300
22.358700 3.844800
22.387900 3.924400
22.417200 3.432500
22.446400 3.070200
22.475700 3.472000
22.505000 4.336900
22.534200 4.775800
22.563500 4.544900
22.592800 4.313200
22.622000 4.364000
22.651300 4.106600
22.680500 3.439700
22.709800 2.798000
22.739100 2.384400
22.768300 2.374400
22.797600 2.934000
22.826900 3.848900
22.856100 4.049200
22.885400 3.208200
22.914600 2.672300
22.943900 3.217600
22.973200 4.397900
23.002400 5.459700
23.031700 5.829600
23.061000 5.459800
23.090200 4.817600
23.119500 4.408700
23.148700 4.161700
23.178000 3.668300
23.207300 3.135000
23.236500 3.242100
23.265800 4.059000
23.295100 4.812200
23.324300 4.804300
23.353600 4.363600
23.382800 4.180600
23.412100 4.200700
23.441400 4.022800
23.470600 3.810400
23.499900 3.574400
23.529200 3.126800
23.558400 2.790600
23.587700 2.924500
23.616900 3.654400
23.646200 4.529500
23.675500 4.813900
23.704700 4.359900
23.734000 3.456900
23.763300 2.795100
23.792500 3.023900
23.821800 3.760400
23.851000 4.115600
23.880300 3.970200
23.909600 3.853000
23.938800 3.912400
23.968100 3.757100
23.997400 3.428700
24.026600 3.229900
24.055900 3.311200
24.085100 3.617300
24.114400 3.924400
24.143700 4.249900
24.172900 4.400400
24.202200 4.186900
24.231500 4.039000
24.260700 4.218300
24.290000 4.323400
24.319200 4.173500
24.348500 4.064900
24.377800 4.099800
24.407000 4.205200
24.436300 4.344100
24.465600 4.483700
24.494800 4.568000
24.524100 4.697700
24.553300 4.965900
24.582600 5.123600
24.611900 4.973300
24.641100 4.739200
24.670400 4.675200
24.699700 4.742900
24.728900 4.831900
24.758200 4.767600
24.787400 4.255000
24.816700 3.554300
24.846000 3.389600
24.875200 3.544300
24.904500 3.320500
24.933800 2.919000
24.963000 3.118800
24.992300 4.034600
25.021500 4.521000
25.050800 3.833100
25.080100 3.022500
25.109300 3.022100
25.138600 3.350300
25.167900 3.606100
25.197100 4.166700
25.226400 4.819800
25.255600 4.949100
25.284900 4.592900
25.314200 3.966900
25.343400 3.427600
25.372700 3.171300
25.402000 2.980900
25.431200 2.806800
25.460500 2.999500
25.489700 3.688800
25.519000 4.529700
25.548300 5.227700
25.577500 5.367000
25.606800 4.800100
25.636100 4.192300
25.665300 3.906300
25.694600 3.909300
25.723800 4.334900
25.753100 4.684700
25.782400 4.547400
25.811600 4.413500
25.840900 4.756200
25.870200 5.703200
25.899400 6.439000
25.928700 5.914600
25.957900 4.640000
25.987200 3.685000
26.016500 3.396200
26.045700 3.973200
26.075000 5.009900
26.104300 5.449100
26.133500 4.897500
26.162800 3.924100
26.192000 3.085200
26.221300 2.853900
26.250600 3.637500
26.279800 5.018100
26.309100 5.933100
26.338400 5.739500
26.367600 4.705700
26.396900 3.565600
26.426100 3.057900
26.455400 3.355300
26.484700 3.960100
26.513900 4.415800
26.543200 4.731900
26.572500 4.955500
26.601700 5.007100
26.631000 4.904800
26.660200 4.729700
26.689500 4.963700
26.718800 5.734100
26.748000 6.269600
26.777300 6.169200
26.806600 5.826000
26.835800 5.310200
26.865100 4.524700
26.894300 3.902200
26.923600 3.567100
26.952900 3.307100
26.982100 3.227800
27.011400 3.378800
27.040700 3.639700
27.069900 4.049600
27.099200 4.800700
27.128400 5.603200
27.157700 5.528300
27.187000 4.437400
27.216200 3.389600
27.245500 3.043000
27.274800 3.406300
27.304000 4.129200
27.333300 4.611300
27.362500 4.807700
27.391800 4.748100
27.421100 4.212400
27.450300 3.596700
27.479600 3.665900
27.508900 4.377200
27.538100 4.797000
27.567400 4.465500
27.596600 4.022200
27.625900 4.298600
27.655200 5.069800
27.684400 5.277600
27.713700 4.596300
27.743000 4.010200
27.772200 4.472000
27.801500 5.449700
27.830700 5.824900
27.860000 5.305600
27.889300 4.356000
27.918500 3.888600
27.947800 4.260100
27.977100 4.688000
28.006300 4.200500
28.035600 2.914900
28.064800 1.891200
28.094100 1.914000
28.123400 2.599400
28.152600 3.069100
28.181900 3.350000
28.211200 3.794100
28.240400 4.206600
28.269700 4.290200
28.298900 4.161300
28.328200 4.286400
28.357500 4.575800
28.386700 4.553100
28.416000 4.438700
28.445300 4.374800
28.474500 3.957500
28.503800 3.400800
28.533000 3.274200
28.562300 3.766900
28.591600 4.278300
28.620800 4.146600
28.650100 4.005400
28.679400 4.344100
28.708600 4.176800
28.737900 3.360300
28.767100 3.084800
28.796400 3.319800
28.825700 3.300600
28.854900 3.338300
28.884200 3.876700
28.913500 4.621100
28.942700 5.030900
28.972000 4.858500
29.001200 4.294500
29.030500 3.768000
29.059800 3.404600
29.089000 3.133600
29.118300 3.192300
29.147600 3.487400
29.176800 3.463400
29.206100 3.052300
29.235300 2.742400
29.264600 2.851800
29.293900 3.361200
29.323100 4.309500
29.352400 5.299700
29.381600 5.295900
29.410900 4.300400
29.440200 3.502900
29.469400 3.648200
29.498700 4.201100
29.528000 4.327300
29.557200 4.214300
29.586500 4.040000
29.615700 3.542000
29.645000 2.940300
29.674300 2.455500
29.703500 2.209200
29.732800 2.557400
29.762100 3.307200
29.791300 3.728800
29.820600 3.595000
29.849800 3.495500
29.879100 3.948700
29.908400 4.637200
29.937600 5.121900
29.966900 5.227700
29.996200 4.943200
30.025400 4.301000
30.054700 3.511400
30.083900 2.884400
30.113200 2.574300
30.142500 2.802900
30.171700 3.507600
30.201000 4.258500
30.230300 4.940400
30.259500 5.505200
30.288800 5.611400
30.318000 5.133800
30.347300 4.228700
30.376600 3.507000
30.405800 3.590500
30.435100 4.172000
30.464400 4.363900
30.493600 3.912900
30.522900 3.380100
30.552100 3.149300
30.581400 3.036700
30.610700 2.895600
30.639900 2.839800
30.669200 3.014700
30.698500 3.670600
30.727700 4.548100
30.757000 5.088900
30.786200 5.136800
30.815500 4.919200
30.844800 4.915500
30.874000 5.490100
30.903300 6.058800
30.932600 5.763100
30.961800 5.187100
30.991100 4.931800
31.020300 4.564800
31.049600 3.950900
31.078900 3.379500
31.108100 3.223400
31.137400 3.717300
31.166700 4.641000
31.195900 5.447000
31.225200 5.494200
31.254400 4.863000
31.283700 4.360500
31.313000 4.440100
31.342200 4.885700
31.371500 5.012900
31.400800 4.328900
31.430000 3.543800
31.459300 3.559700
31.488500 3.973500
31.517800 4.161100
31.547100 4.305700
31.576300 4.778700
31.605600 5.397500
31.634900 5.323400
31.664100 4.540000
31.693400 4.110600
31.722600 4.131700
31.751900 4.175700
31.781200 4.489600
31.810400 4.810900
31.839700 4.488900
31.869000 3.907900
31.898200 4.034500
31.927500 4.977600
31.956700 5.893600
31.986000 6.427900
32.015300 6.698400
32.044500 6.240300
32.073800 5.492200
32.103100 5.531800
32.132300 5.928600
32.161600 5.728100
32.190800 5.269000
32.220100 5.373300
32.249400 6.048900
32.278600 6.605800
32.307900 6.766100
32.337200 6.536100
32.366400 5.737700
32.395700 4.996800
32.424900 4.809700
32.454200 4.614700
32.483500 4.210800
32.512700 3.999100
32.542000 3.950500
32.571300 3.926300
32.600500 4.030500
32.629800 4.245700
32.659000 4.527900
32.688300 4.650600
32.717600 4.270700
32.746800 3.749700
32.776100 3.695400
32.805400 4.061000
32.834600 4.450500
32.863900 4.556700
32.893100 4.619100
32.922400 5.275100
32.951700 6.190800
32.980900 6.143500
33.010200 5.068900
33.039500 4.290900
33.068700 4.462000
33.098000 4.954400
33.127200 4.998900
33.156500 4.545400
33.185800 4.115000
33.215000 3.723300
33.244300 3.259800
33.273600 3.317200
33.302800 4.122100
33.332100 5.122300
33.361300 5.795400
33.390600 5.670900
33.419900 4.767600
33.449100 3.952100
33.478400 3.983400
33.507700 4.619700
33.536900 5.067400
33.566200 5.235000
33.595400 5.362700
33.624700 5.140600
33.654000 4.439300
33.683200 3.763300
33.712500 3.686900
33.741800 4.336900
33.771000 5.122600
33.800300 5.527000
33.829500 5.486500
33.858800 4.928000
33.888100 4.311500
33.917300 4.062000
33.946600 3.926300
33.975900 3.915700
34.005100 4.133900
34.034400 4.304600
34.063600 4.342500
34.092900 4.281600
34.122200 4.259600
34.151400 4.325300
34.180700 4.106600
34.210000 3.748100
34.239200 3.934900
34.268500 4.344800
34.297700 4.002000
34.327000 3.362500
34.356300 3.513100
34.385500 4.517400
34.414800 5.495600
34.444100 5.452400
34.473300 4.493600
34.502600 3.519600
34.531800 3.290000
34.561100 4.182900
34.590400 5.564300
34.619600 6.032900
34.648900 5.254400
34.678200 4.439600
34.707400 4.009000
34.736700 3.184100
34.765900 2.249200
34.795200 1.993000
34.824500 2.505400
34.853700 3.390200
34.883000 4.065300
34.912300 4.186800
34.941500 3.994000
34.970800 3.855100
35.000000 3.890800
35.029300 4.026200
35.058600 3.976700
35.087800 3.949400
35.117100 4.427000
35.146400 5.034800
35.175600 5.190100
35.204900 4.918400
35.234100 4.650700
35.263400 4.456800
35.292700 4.090100
35.321900 4.036000
35.351200 4.429500
35.380500 4.716900
35.409700 5.013500
35.439000 5.153200
35.468200 4.596500
35.497500 3.817100
35.526800 3.421700
35.556000 3.421700
35.585300 3.801600
35.614600 4.167600
35.643800 3.973700
35.673100 3.817100
35.702300 4.234000
35.731600 4.734600
35.760900 5.311900
35.790100 5.819900
35.819400 5.616900
35.848700 4.735900
35.877900 3.962400
35.907200 3.960300
35.936400 4.316500
35.965700 4.257300
35.995000 4.063600
36.024200 4.104200
36.053500 3.753900
36.082800 2.910000
36.112000 2.273500
36.141300 2.239400
36.170500 2.639800
36.199800 2.967900
36.229100 3.126000
36.258300 3.586300
36.287600 4.351300
36.316900 5.017800
36.346100 5.509800
36.375400 5.680600
36.404600 5.341200
36.433900 4.961700
36.463200 4.958900
36.492400 5.403100
36.521700 6.084900
36.551000 6.365200
36.580200 6.092400
36.609500 5.423100
36.638700 4.382400
36.668000 3.343700
36.697300 3.072800
36.726500 3.746900
36.755800 4.412400
36.785100 4.290900
36.814300 3.723500
36.843600 3.401300
36.872800 3.557500
36.902100 4.030900
36.931400 4.331600
36.960600 4.281100
36.989900 4.326400
37.019200 4.577200
37.048400 4.764800
37.077700 4.697100
37.106900 4.176500
37.136200 3.388200
37.165500 2.964000
37.194700 3.196900
37.224000 3.582100
37.253300 3.310900
37.282500 2.545100
37.311800 2.192700
37.341000 2.276200
37.370300 2.428600
37.399600 2.824500
37.428800 3.360600
37.458100 3.494700
37.487400 2.836400
37.516600 1.898000
37.545900 1.481200
37.575100 1.424000
37.604400 1.399300
37.633700 1.573600
37.662900 1.995700
37.692200 2.394100
37.721500 2.478600
37.750700 2.158000
37.780000 1.864200
37.809200 2.084000
37.838500 2.780400
37.867800 3.241100
37.897000 3.063900
37.926300 2.800800
37.955600 2.466400
37.984800 1.853700
38.014100 1.307000
38.043300 0.885900
38.072600 0.595900
38.101900 0.500800
38.131100 0.426700
38.160400 0.252600
38.189700 0.105000
38.218900 0.093200
38.248200 0.158300
38.277400 0.166400
38.306700 0.092300
38.336000 0.026800
38.365200 0.004100
38.394500 0.000300
38.423800 0.000000
38.453000 0.000000
38.482300 0.000000
38.511500 0.000000
38.540800 0.000000
38.570100 0.000000
38.599300 0.000000
38.628600 0.000000
38.657900 0.000000
38.687100 0.000000
38.716400 0.000000
38.745600 0.000000
38.774900 0.000000
38.804200 0.000000
38.833400 0.000000
38.862700 0.000000
38.892000 0.000000
38.921200 0.000000
38.950500 0.000000
38.979700 0.000000
39.009000 0.000000
39.038300 0.000000
39.067500 0.000000
39.096800 0.000000
39.126100 0.000000
39.155300 0.000000
39.184600 0.000000
39.213800 0.000000
39.243100 0.000000
39.272400 0.000000
39.301600 0.000000
39.330900 0.000000
39.360200 0.000000
39.389400 0.000000
39.418700 0.000000
39.447900 0.000000
39.477200 0.000000
39.506500 0.000000
39.535700 0.000000
39.565000 0.000000
39.594300 0.000000
39.623500 0.000000
39.652800 0.000000
39.682000 0.000000
39.711300 0.000000
39.740600 0.000000
39.769800 0.000000
39.799100 0.000000
39.828400 0.000000
39.857600 0.000000
39.886900 0.000000
39.916100 0.000000
39.945400 0.000000
39.974700 0.000000
40.003900 0.000000
40.033200 0.000000
40.062500 0.000000
40.091700 0.000000
40.121000 0.000000
40.150200 0.000000
40.179500 0.000000
40.208800 0.000000
40.238000 0.000000
40.267300 0.000000
40.296600 0.000000
40.325800 0.000000
40.355100 0.000000
40.384300 0.000000
40.413600 0.000000
40.442900 0.000000
40.472100 0.000000
40.501400 0.000000
40.530700 0.000000
40.559900 0.000000
40.589200 0.000000
40.618400 0.000000
40.647700 0.000000
40.677000 0.000000
40.706200 0.000000
40.735500 0.000000
40.764700 0.000000
40.794000 0.000000
40.823300 0.000000
40.852500 0.000000
40.881800 0.000000
40.911100 0.000000
e
