set title 'mp-1018100 - Density of States'
set xlabel 'Energy (eV)'
set ylabel 'DOS (states/eV)'
set grid
set xrange [-10:10]
set yrange [0:6.328]
set xzeroaxis lt -1
set terminal png size 800,600
set output 'mp-1018100_dos_gnuplot.png'
plot '-' using 1:2 with lines title 'DOS'
-7.716400 0.000000
-7.698300 0.000000
-7.680300 0.000000
-7.662300 0.000000
-7.644300 0.000000
-7.626300 0.000000
-7.608300 0.000000
-7.590300 0.000000
-7.572300 0.000000
-7.554300 0.000000
-7.536300 0.000000
-7.518200 0.000000
-7.500200 0.000000
-7.482200 0.000000
-7.464200 0.000000
-7.446200 0.000000
-7.428200 0.000000
-7.410200 0.000000
-7.392200 0.000000
-7.374200 0.000000
-7.356100 0.000000
-7.338100 0.000000
-7.320100 0.000000
-7.302100 0.000000
-7.284100 0.000000
-7.266100 0.000000
-7.248100 0.000000
-7.230100 0.000000
-7.212100 0.000000
-7.194000 0.000000
-7.176000 0.000000
-7.158000 0.000000
-7.140000 0.000000
-7.122000 0.000000
-7.104000 0.000000
-7.086000 0.000000
-7.068000 0.000000
-7.050000 0.000000
-7.031900 0.000000
-7.013900 0.000000
-6.995900 0.000000
-6.977900 0.000000
-6.959900 0.000000
-6.941900 0.000000
-6.923900 0.000000
-6.905900 0.000000
-6.887900 0.000000
-6.869800 0.000000
-6.851800 0.000000
-6.833800 0.000000
-6.815800 0.000000
-6.797800 0.000000
-6.779800 0.000000
-6.761800 0.000000
-6.743800 0.000000
-6.725800 0.000000
-6.707700 0.000000
-6.689700 0.000000
-6.671700 0.000000
-6.653700 0.000000
-6.635700 0.000000
-6.617700 0.000000
-6.599700 0.000000
-6.581700 0.000000
-6.563700 0.000000
-6.545600 0.000000
-6.527600 0.000000
-6.509600 0.000000
-6.491600 0.000000
-6.473600 0.000000
-6.455600 0.000000
-6.437600 0.000000
-6.419600 0.000000
-6.401600 0.000000
-6.383500 0.000000
-6.365500 0.000000
-6.347500 0.000000
-6.329500 0.000000
-6.311500 0.000000
-6.293500 0.000000
-6.275500 0.000000
-6.257500 0.000000
-6.239500 0.000000
-6.221400 0.000000
-6.203400 0.000000
-6.185400 0.000000
-6.167400 0.000000
-6.149400 0.000000
-6.131400 0.000000
-6.113400 0.000000
-6.095400 0.000000
-6.077400 0.000000
-6.059300 0.005200
-6.041300 0.019100
-6.023300 0.041700
-6.005300 0.073000
-5.987300 0.113000
-5.969300 0.161800
-5.951300 0.219300
-5.933300 0.284800
-5.915300 0.354600
-5.897200 0.428000
-5.879200 0.505100
-5.861200 0.575300
-5.843200 0.603700
-5.825200 0.627300
-5.807200 0.646100
-5.789200 0.660000
-5.771200 0.669100
-5.753200 0.673300
-5.735100 0.672800
-5.717100 0.696200
-5.699100 0.725900
-5.681100 0.756000
-5.663100 0.786500
-5.645100 0.817400
-5.627100 0.848700
-5.609100 0.880500
-5.591100 0.912700
-5.573000 0.945300
-5.555000 0.978200
-5.537000 1.011000
-5.519000 1.043200
-5.501000 1.075000
-5.483000 1.106400
-5.465000 1.137300
-5.447000 1.167400
-5.429000 1.196500
-5.410900 1.224500
-5.392900 1.251500
-5.374900 1.277400
-5.356900 1.306300
-5.338900 1.341700
-5.320900 1.374100
-5.302900 1.406800
-5.284900 1.439900
-5.266900 1.474700
-5.248800 1.511400
-5.230800 1.550000
-5.212800 1.590500
-5.194800 1.632900
-5.176800 1.677200
-5.158800 1.723000
-5.140800 1.769900
-5.122800 1.817900
-5.104800 1.867000
-5.086800 1.917100
-5.068700 1.968300
-5.050700 2.020600
-5.032700 2.076100
-5.014700 2.135400
-4.996700 2.198800
-4.978700 2.267800
-4.960700 2.343000
-4.942700 2.424200
-4.924700 2.511500
-4.906600 2.604900
-4.888600 2.704300
-4.870600 2.806200
-4.852600 2.902100
-4.834600 3.511300
-4.816600 4.042800
-4.798600 4.138600
-4.780600 4.175400
-4.762600 4.205700
-4.744500 3.881100
-4.726500 3.632900
-4.708500 3.644200
-4.690500 3.653000
-4.672500 3.650800
-4.654500 3.637800
-4.636500 3.613900
-4.618500 3.579200
-4.600500 3.562900
-4.582400 3.550700
-4.564400 3.536800
-4.546400 3.542400
-4.528400 3.569000
-4.510400 3.684400
-4.492400 3.816700
-4.474400 3.891400
-4.456400 3.918700
-4.438400 3.923900
-4.420300 3.908400
-4.402300 3.872200
-4.384300 3.815100
-4.366300 3.763200
-4.348300 4.073000
-4.330300 4.680400
-4.312300 5.012000
-4.294300 4.858200
-4.276300 5.116000
-4.258200 4.525700
-4.240200 3.757600
-4.222200 2.811800
-4.204200 1.675300
-4.186200 0.212800
-4.168200 0.000000
-4.150200 0.000000
-4.132200 0.000000
-4.114200 0.000000
-4.096100 0.000000
-4.078100 0.000000
-4.060100 0.000000
-4.042100 0.000000
-4.024100 0.000000
-4.006100 0.000000
-3.988100 0.000000
-3.970100 0.000000
-3.952100 0.000000
-3.934000 0.000000
-3.916000 0.000000
-3.898000 0.000000
-3.880000 0.000000
-3.862000 0.000000
-3.844000 0.000000
-3.826000 0.000000
-3.808000 0.000000
-3.790000 0.000000
-3.771900 0.000000
-3.753900 0.000000
-3.735900 0.000000
-3.717900 0.000000
-3.699900 0.000000
-3.681900 0.000000
-3.663900 0.000000
-3.645900 0.000000
-3.627900 0.000000
-3.609800 0.000000
-3.591800 0.000000
-3.573800 0.000000
-3.555800 0.000000
-3.537800 0.000000
-3.519800 0.000000
-3.501800 0.000000
-3.483800 0.000000
-3.465800 0.000000
-3.447700 0.000000
-3.429700 0.000000
-3.411700 0.000000
-3.393700 0.000000
-3.375700 0.000000
-3.357700 0.000000
-3.339700 0.000000
-3.321700 0.000000
-3.303700 0.000000
-3.285600 0.000000
-3.267600 0.000000
-3.249600 0.000000
-3.231600 0.000000
-3.213600 0.000000
-3.195600 0.000000
-3.177600 0.000000
-3.159600 0.000000
-3.141600 0.000000
-3.123500 0.000000
-3.105500 0.000000
-3.087500 0.000000
-3.069500 0.000000
-3.051500 0.000000
-3.033500 0.000000
-3.015500 0.000000
-2.997500 0.000000
-2.979500 0.000000
-2.961400 0.000000
-2.943400 0.000000
-2.925400 0.000000
-2.907400 0.000000
-2.889400 0.000000
-2.871400 0.000000
-2.853400 0.000000
-2.835400 0.000000
-2.817400 0.000000
-2.799400 0.000000
-2.781300 0.000000
-2.763300 0.000000
-2.745300 0.000000
-2.727300 0.000000
-2.709300 0.000000
-2.691300 0.000000
-2.673300 0.000000
-2.655300 0.000000
-2.637300 0.000000
-2.619200 0.000000
-2.601200 0.000000
-2.583200 0.000000
-2.565200 0.000000
-2.547200 0.000000
-2.529200 0.000000
-2.511200 0.000000
-2.493200 0.000000
-2.475200 0.000000
-2.457100 0.000000
-2.439100 0.000000
-2.421100 0.000000
-2.403100 0.000000
-2.385100 0.000000
-2.367100 0.000000
-2.349100 0.000000
-2.331100 0.000000
-2.313100 0.000000
-2.295000 0.000000
-2.277000 0.000000
-2.259000 0.000000
-2.241000 0.000000
-2.223000 0.000000
-2.205000 0.000000
-2.187000 0.000000
-2.169000 0.000000
-2.151000 0.000000
-2.132900 0.000000
-2.114900 0.000000
-2.096900 0.000000
-2.078900 0.000000
-2.060900 0.000000
-2.042900 0.000000
-2.024900 0.000000
-2.006900 0.000000
-1.988900 0.000000
-1.970800 0.000000
-1.952800 0.000000
-1.934800 0.000000
-1.916800 0.000000
-1.898800 0.000000
-1.880800 0.000000
-1.862800 0.000000
-1.844800 0.000000
-1.826800 0.000000
-1.808700 0.000000
-1.790700 0.000000
-1.772700 0.000000
-1.754700 0.000000
-1.736700 0.000000
-1.718700 0.000000
-1.700700 0.000000
-1.682700 0.000000
-1.664700 0.000000
-1.646600 0.000000
-1.628600 0.000000
-1.610600 0.000000
-1.592600 0.000000
-1.574600 0.000000
-1.556600 0.000000
-1.538600 0.000000
-1.520600 0.000000
-1.502600 0.000000
-1.484500 0.000000
-1.466500 0.000000
-1.448500 0.000000
-1.430500 0.000000
-1.412500 0.000000
-1.394500 0.000000
-1.376500 0.000000
-1.358500 0.000000
-1.340500 0.000000
-1.322400 0.000000
-1.304400 0.000000
-1.286400 0.000000
-1.268400 0.000000
-1.250400 0.000000
-1.232400 0.000000
-1.214400 0.000000
-1.196400 0.000000
-1.178400 0.000000
-1.160300 0.000000
-1.142300 0.000000
-1.124300 0.000000
-1.106300 0.000000
-1.088300 0.000000
-1.070300 0.000000
-1.052300 0.000000
-1.034300 0.000000
-1.016300 0.000000
-0.998200 0.035100
-0.980200 0.169500
-0.962200 0.404500
-0.944200 0.739700
-0.926200 1.137000
-0.908200 1.570300
-0.890200 2.039700
-0.872200 2.523500
-0.854200 3.068000
-0.836100 4.533700
-0.818100 5.143800
-0.800100 5.164700
-0.782100 5.113500
-0.764100 5.059000
-0.746100 5.086700
-0.728100 5.214100
-0.710100 5.212000
-0.692100 5.028800
-0.674000 3.897500
-0.656000 3.606500
-0.638000 3.387400
-0.620000 3.216000
-0.602000 3.082500
-0.584000 2.961500
-0.566000 2.851700
-0.548000 2.753000
-0.530000 2.665500
-0.511900 2.589200
-0.493900 2.524100
-0.475900 2.470100
-0.457900 2.427400
-0.439900 2.394300
-0.421900 2.365800
-0.403900 2.341700
-0.385900 2.321100
-0.367900 2.300100
-0.349900 2.278000
-0.331800 2.254800
-0.313800 2.230600
-0.295800 2.205300
-0.277800 2.178900
-0.259800 2.148000
-0.241800 2.086100
-0.223800 2.000800
-0.205800 1.978400
-0.187800 1.957700
-0.169700 1.938800
-0.151700 1.919800
-0.133700 1.899300
-0.115700 1.873800
-0.097700 1.842800
-0.079700 1.806200
-0.061700 1.764000
-0.043700 1.716200
-0.025700 1.662900
-0.007600 1.604000
0.010400 1.539500
0.028400 1.469400
0.046400 1.393700
0.064400 1.312500
0.082400 1.225700
0.100400 1.190200
0.118400 1.169700
0.136400 1.150000
0.154500 1.130900
0.172500 1.112400
0.190500 1.094700
0.208500 1.077700
0.226500 1.061300
0.244500 1.045400
0.262500 1.029700
0.280500 1.014100
0.298500 0.998800
0.316600 0.983600
0.334600 0.968500
0.352600 0.953700
0.370600 0.939000
0.388600 0.924500
0.406600 0.910100
0.424600 0.895900
0.442600 0.881900
0.460600 0.868000
0.478700 0.854300
0.496700 0.840700
0.514700 0.827200
0.532700 0.813800
0.550700 0.800600
0.568700 0.787500
0.586700 0.774500
0.604700 0.761600
0.622700 0.748900
0.640800 0.736300
0.658800 0.723800
0.676800 0.711500
0.694800 0.699200
0.712800 0.687200
0.730800 0.675200
0.748800 0.663400
0.766800 0.651600
0.784800 0.640100
0.802900 0.628600
0.820900 0.618800
0.838900 0.613400
0.856900 0.612500
0.874900 0.616000
0.892900 0.624000
0.910900 0.636500
0.928900 0.648400
0.946900 0.660100
0.965000 0.685800
0.983000 0.711600
1.001000 0.737300
1.019000 0.763000
1.037000 0.788700
1.055000 0.819500
1.073000 0.871900
1.091000 0.947400
1.109000 1.045800
1.127100 1.167200
1.145100 1.311600
1.163100 1.478900
1.181100 1.847400
1.199100 1.941800
1.217100 2.025300
1.235100 2.097700
1.253100 2.159200
1.271100 2.209600
1.289200 2.249000
1.307200 2.277200
1.325200 2.294300
1.343200 2.300300
1.361200 2.299500
1.379200 2.299300
1.397200 2.299600
1.415200 2.300500
1.433200 2.302000
1.451300 2.304100
1.469300 2.306800
1.487300 2.300700
1.505300 2.224200
1.523300 2.124000
1.541300 2.036700
1.559300 1.962100
1.577300 1.900400
1.595300 1.851500
1.613400 1.815300
1.631400 1.792000
1.649400 1.780200
1.667400 1.876400
1.685400 1.979800
1.703400 2.081400
1.721400 2.180800
1.739400 2.276500
1.757400 2.368000
1.775500 2.455400
1.793500 2.538600
1.811500 2.617800
1.829500 2.692800
1.847500 2.763700
1.865500 2.830500
1.883500 2.899600
1.901500 3.016300
1.919500 3.189700
1.937500 3.419900
1.955600 3.706700
1.973600 3.988200
1.991600 3.603600
2.009600 2.687400
2.027600 2.697700
2.045600 2.701100
2.063600 2.705300
2.081600 2.713100
2.099600 2.724500
2.117700 2.738100
2.135700 2.752300
2.153700 2.767600
2.171700 2.784000
2.189700 2.802200
2.207700 2.822300
2.225700 2.844400
2.243700 2.868300
2.261700 2.893300
2.279800 2.918400
2.297800 2.945500
2.315800 2.971300
2.333800 2.993400
2.351800 3.012000
2.369800 3.027200
2.387800 3.039000
2.405800 3.047500
2.423800 3.052500
2.441900 3.053700
2.459900 3.050000
2.477900 3.041200
2.495900 3.027300
2.513900 3.737800
2.531900 4.241600
2.549900 4.250900
2.567900 4.238100
2.585900 4.214300
2.604000 4.147200
2.622000 4.036800
2.640000 3.883100
2.658000 3.694700
2.676000 3.610600
2.694000 3.596700
2.712000 3.598800
2.730000 3.616800
2.748000 3.650800
2.766100 3.698300
2.784100 3.757100
2.802100 3.836000
2.820100 3.952100
2.838100 4.114400
2.856100 4.315900
2.874100 4.556800
2.892100 4.836900
2.910100 5.156200
2.928200 5.514900
2.946200 5.727600
2.964200 5.741900
2.982200 5.753000
3.000200 5.689500
3.018200 5.563000
3.036200 5.421000
3.054200 5.268800
3.072200 5.106900
3.090300 4.699400
3.108300 4.298300
3.126300 4.042300
3.144300 3.910900
3.162300 3.802700
3.180300 3.703900
3.198300 3.608000
3.216300 3.508700
3.234300 3.417200
3.252400 3.333300
3.270400 3.256900
3.288400 3.184400
3.306400 3.114900
3.324400 3.048400
3.342400 2.982600
3.360400 2.911400
3.378400 2.834500
3.396400 2.751900
3.414500 2.663500
3.432500 2.569500
3.450500 2.473000
3.468500 2.375000
3.486500 2.280300
3.504500 2.194200
3.522500 2.116500
3.540500 2.086800
3.558500 2.052300
3.576600 2.014100
3.594600 1.974100
3.612600 1.932100
3.630600 1.888200
3.648600 1.842400
3.666600 1.794600
3.684600 1.740100
3.702600 1.681400
3.720600 1.623000
3.738700 1.565600
3.756700 1.509000
3.774700 1.453400
3.792700 1.398600
3.810700 1.344800
3.828700 1.291800
3.846700 1.239800
3.864700 1.188600
3.882700 1.138400
3.900800 1.089200
3.918800 1.041600
3.936800 0.995900
3.954800 0.951900
3.972800 0.912200
3.990800 0.876700
4.008800 0.841900
4.026800 0.807800
4.044800 0.774400
4.062900 0.741300
4.080900 0.708200
4.098900 0.675300
4.116900 0.642700
4.134900 0.610400
4.152900 0.578200
4.170900 0.546300
4.188900 0.514000
4.206900 0.462900
4.224900 0.412000
4.243000 0.361100
4.261000 0.310300
4.279000 0.259600
4.297000 0.212300
4.315000 0.169800
4.333000 0.132000
4.351000 0.099100
4.369000 0.070900
4.387000 0.047400
4.405100 0.028600
4.423100 0.014600
4.441100 0.005200
4.459100 0.000600
4.477100 0.000000
4.495100 0.000000
4.513100 0.000000
4.531100 0.000000
4.549100 0.000000
4.567200 0.000000
4.585200 0.000000
4.603200 0.000000
4.621200 0.000000
4.639200 0.000000
4.657200 0.000000
4.675200 0.000000
4.693200 0.000000
4.711200 0.000000
4.729300 0.000000
4.747300 0.000000
4.765300 0.000000
4.783300 0.000000
4.801300 0.000000
4.819300 0.000000
4.837300 0.000000
4.855300 0.000000
4.873300 0.000000
4.891400 0.000000
4.909400 0.000000
4.927400 0.000000
4.945400 0.000000
4.963400 0.000000
4.981400 0.000000
4.999400 0.000000
5.017400 0.000000
5.035400 0.000000
5.053500 0.000000
5.071500 0.000000
5.089500 0.000000
5.107500 0.000000
5.125500 0.000000
5.143500 0.000000
5.161500 0.000000
5.179500 0.000000
5.197500 0.000000
5.215600 0.000000
5.233600 0.000000
5.251600 0.000000
5.269600 0.000000
5.287600 0.000000
5.305600 0.000000
5.323600 0.000000
5.341600 0.000000
5.359600 0.000000
5.377700 0.000000
5.395700 0.000200
5.413700 0.001000
5.431700 0.002300
5.449700 0.004300
5.467700 0.006700
5.485700 0.009800
5.503700 0.013400
5.521700 0.017600
5.539800 0.022300
5.557800 0.027700
5.575800 0.033300
5.593800 0.039300
5.611800 0.045500
5.629800 0.052000
5.647800 0.059300
5.665800 0.075600
5.683800 0.103600
5.701900 0.143400
5.719900 0.194900
5.737900 0.270500
5.755900 0.378300
5.773900 0.518400
5.791900 0.657100
5.809900 0.771600
5.827900 0.876200
5.845900 0.971000
5.864000 1.064500
5.882000 1.159500
5.900000 1.252000
5.918000 1.342100
5.936000 1.429600
5.954000 1.514500
5.972000 1.597000
5.990000 1.676900
6.008000 1.754200
6.026100 1.829100
6.044100 1.901400
6.062100 1.971200
6.080100 2.039900
6.098100 2.108700
6.116100 2.177500
6.134100 2.246400
6.152100 2.315300
6.170100 2.384300
6.188200 2.462700
6.206200 2.616400
6.224200 2.652600
6.242200 2.668600
6.260200 2.683600
6.278200 2.697900
6.296200 2.711200
6.314200 2.724300
6.332200 2.741100
6.350300 2.762400
6.368300 2.802900
6.386300 3.315900
6.404300 4.022500
6.422300 4.056500
6.440300 4.089800
6.458300 4.121500
6.476300 4.151500
6.494300 4.179900
6.512400 3.960200
6.530400 3.905100
6.548400 3.851100
6.566400 3.799100
6.584400 3.749200
6.602400 3.701400
6.620400 3.655700
6.638400 3.612100
6.656400 3.570600
6.674400 3.531200
6.692500 3.495000
6.710500 3.459300
6.728500 3.423000
6.746500 3.386700
6.764500 3.348800
6.782500 3.305700
6.800500 3.257600
6.818500 3.171600
6.836500 3.040500
6.854600 2.931000
6.872600 2.843800
6.890600 2.775500
6.908600 2.723000
6.926600 2.684800
6.944600 2.646000
6.962600 2.602700
6.980600 2.554800
6.998600 2.502400
7.016700 2.447400
7.034700 2.387600
7.052700 2.313900
7.070700 2.224700
7.088700 2.137600
7.106700 2.059500
7.124700 1.990300
7.142700 2.166200
7.160700 2.431900
7.178800 2.625000
7.196800 2.745300
7.214800 2.792800
7.232800 2.783400
7.250800 1.000200
7.268800 0.928100
7.286800 0.870400
7.304800 0.846400
7.322800 0.861300
7.340900 0.915100
7.358900 1.007800
7.376900 1.139400
7.394900 1.309900
7.412900 1.519400
7.430900 1.772300
7.448900 2.080400
7.466900 2.378700
7.484900 2.687000
7.503000 3.088500
7.521000 3.583100
7.539000 4.170700
7.557000 4.639000
7.575000 4.945400
7.593000 5.209800
7.611000 5.432000
7.629000 5.415400
7.647000 4.999500
7.665100 4.998100
7.683100 4.989500
7.701100 4.975000
7.719100 4.954500
7.737100 4.928200
7.755100 4.885200
7.773100 4.839800
7.791100 4.781300
7.809100 4.764000
7.827200 4.718200
7.845200 4.635500
7.863200 4.516000
7.881200 4.383800
7.899200 4.272700
7.917200 4.183300
7.935200 4.117900
7.953200 4.078300
7.971200 4.091700
7.989300 4.166000
8.007300 4.301200
8.025300 4.498100
8.043300 4.762100
8.061300 4.860200
8.079300 4.400100
8.097300 4.221200
8.115300 4.182200
8.133300 3.642400
8.151400 3.371800
8.169400 3.266200
8.187400 3.162700
8.205400 3.061400
8.223400 2.962300
8.241400 2.865300
8.259400 2.788000
8.277400 2.724800
8.295400 2.664800
8.313500 2.608000
8.331500 2.554300
8.349500 2.503800
8.367500 2.456400
8.385500 2.412200
8.403500 2.370600
8.421500 2.330700
8.439500 2.296300
8.457500 2.273000
8.475600 2.260600
8.493600 2.262000
8.511600 2.286700
8.529600 2.337700
8.547600 2.416000
8.565600 2.521600
8.583600 2.654600
8.601600 2.814800
8.619600 3.018100
8.637700 3.294000
8.655700 3.446200
8.673700 3.552300
8.691700 3.743200
8.709700 3.851500
8.727700 3.878600
8.745700 3.881400
8.763700 3.903400
8.781700 3.933600
8.799800 3.946200
8.817800 3.912400
8.835800 3.830500
8.853800 3.694600
8.871800 3.551000
8.889800 3.506800
8.907800 3.453800
8.925800 3.387500
8.943800 3.309300
8.961800 3.233100
8.979900 3.158800
8.997900 3.086500
9.015900 3.016100
9.033900 2.947700
9.051900 2.881200
9.069900 2.816700
9.087900 2.752800
9.105900 2.687700
9.123900 2.637300
9.142000 2.598100
9.160000 2.570300
9.178000 2.536100
9.196000 2.495400
9.214000 2.448200
9.232000 2.394400
9.250000 2.334300
9.268000 2.276300
9.286000 2.267500
9.304100 2.258700
9.322100 2.249900
9.340100 2.699400
9.358100 2.798300
9.376100 2.857100
9.394100 2.879600
9.412100 2.875600
9.430100 2.845700
9.448100 2.789800
9.466200 2.708000
9.484200 2.600300
9.502200 2.506600
9.520200 2.468200
9.538200 2.430700
9.556200 2.394000
9.574200 2.359500
9.592200 2.328000
9.610200 2.299400
9.628300 2.273700
9.646300 2.251000
9.664300 2.231100
9.682300 2.219100
9.700300 2.241200
9.718300 2.295200
9.736300 2.380400
9.754300 2.496500
9.772300 2.616300
9.790400 2.697100
9.808400 2.742500
9.826400 2.775600
9.844400 2.800100
9.862400 2.841100
9.880400 2.959000
9.898400 3.089200
9.916400 3.231300
9.934400 3.383800
9.952500 3.546600
9.970500 3.719800
9.988500 3.655100
10.006500 3.467900
10.024500 3.324300
10.042500 3.135900
10.060500 2.898500
10.078500 2.611900
10.096500 2.276200
10.114600 1.891500
10.132600 1.747700
10.150600 1.746400
10.168600 1.747300
10.186600 1.750500
10.204600 1.755900
10.222600 1.763500
10.240600 1.773400
10.258600 1.761200
10.276700 1.988200
10.294700 2.054800
10.312700 2.050500
10.330700 2.048900
10.348700 2.050200
10.366700 2.055900
10.384700 2.105700
10.402700 2.155300
10.420700 2.204800
10.438800 2.254000
10.456800 2.303100
10.474800 2.351900
10.492800 2.398800
10.510800 2.443600
10.528800 2.486200
10.546800 2.526700
10.564800 2.565000
10.582800 2.602500
10.600900 2.641400
10.618900 2.681800
10.636900 2.919000
10.654900 4.242900
10.672900 4.285800
10.690900 4.341300
10.708900 4.411800
10.726900 4.496500
10.744900 4.595500
10.763000 4.708800
10.781000 4.818500
10.799000 4.545700
10.817000 4.183800
10.835000 4.007700
10.853000 4.023800
10.871000 4.077200
10.889000 4.074400
10.907000 4.033100
10.925100 3.916700
10.943100 3.792300
10.961100 3.693200
10.979100 3.619500
10.997100 3.783400
11.015100 3.850900
11.033100 3.782800
11.051100 3.689600
11.069100 3.593900
11.087200 3.495600
11.105200 3.394800
11.123200 3.291400
11.141200 3.185500
11.159200 3.101800
11.177200 3.048200
11.195200 3.005400
11.213200 2.977600
11.231200 2.965400
11.249300 2.968900
11.267300 3.055000
11.285300 3.171000
11.303300 3.306200
11.321300 3.460100
11.339300 3.632100
11.357300 3.816500
11.375300 4.011800
11.393300 4.218000
11.411300 4.435100
11.429400 4.663200
11.447400 4.299100
11.465400 3.996200
11.483400 3.845700
11.501400 3.675100
11.519400 3.484500
11.537400 3.273700
11.555400 3.063100
11.573400 2.866200
11.591500 2.692400
11.609500 2.601300
11.627500 2.564300
11.645500 2.550400
11.663500 2.543400
11.681500 2.543400
11.699500 2.550100
11.717500 2.563600
11.735500 2.583500
11.753600 2.609100
11.771600 2.638600
11.789600 2.670800
11.807600 2.705700
11.825600 2.743200
11.843600 2.783300
11.861600 2.826100
11.879600 2.871500
11.897600 2.910000
11.915700 2.847300
11.933700 2.821600
11.951700 2.748200
11.969700 2.728400
11.987700 2.762300
12.005700 2.849600
12.023700 2.965200
12.041700 3.087700
12.059700 3.214600
12.077800 3.294000
12.095800 3.311300
12.113800 3.315100
12.131800 3.315500
12.149800 3.312500
12.167800 3.306000
12.185800 3.296100
12.203800 3.289800
12.221800 3.239700
12.239900 3.223600
12.257900 3.243400
12.275900 3.265300
12.293900 3.282100
12.311900 3.293800
12.329900 3.300300
12.347900 3.300600
12.365900 3.348300
12.383900 3.395000
12.402000 3.431100
12.420000 3.456500
12.438000 3.471200
12.456000 3.475500
12.474000 3.477700
12.492000 3.481800
12.510000 3.487900
12.528000 3.495900
12.546000 3.505800
12.564100 3.517500
12.582100 3.528500
12.600100 3.533900
12.618100 3.533700
12.636100 3.528100
12.654100 3.517000
12.672100 3.500600
12.690100 3.478400
12.708100 3.449800
12.726200 3.447200
12.744200 3.446600
12.762200 3.437700
12.780200 3.415100
12.798200 3.372900
12.816200 3.321000
12.834200 3.259200
12.852200 3.187400
12.870200 3.120500
12.888300 3.086100
12.906300 3.107300
12.924300 3.126500
12.942300 3.155000
12.960300 3.188500
12.978300 3.225200
12.996300 3.264900
13.014300 3.307800
13.032300 3.354500
13.050400 3.367700
13.068400 3.357400
13.086400 3.341300
13.104400 3.319200
13.122400 3.286300
13.140400 3.241300
13.158400 3.188600
13.176400 3.138000
13.194400 3.143100
13.212500 3.148300
13.230500 3.153700
13.248500 3.159200
13.266500 3.164800
13.284500 3.170600
13.302500 3.176500
13.320500 3.182600
13.338500 3.189400
13.356500 3.196700
13.374600 3.204700
13.392600 3.264800
13.410600 3.389200
13.428600 3.474000
13.446600 3.466700
13.464600 3.460000
13.482600 3.447100
13.500600 3.432500
13.518600 3.416600
13.536700 3.414200
13.554700 3.427700
13.572700 3.428500
13.590700 3.420900
13.608700 3.417700
13.626700 3.406600
13.644700 3.387400
13.662700 3.360700
13.680700 3.328700
13.698700 3.291700
13.716800 3.250700
13.734800 3.206500
13.752800 3.229800
13.770800 3.381900
13.788800 2.991800
13.806800 2.994700
13.824800 3.009300
13.842800 3.035800
13.860800 3.072500
13.878900 3.116000
13.896900 3.166500
13.914900 3.223800
13.932900 3.288000
13.950900 3.359000
13.968900 3.392500
13.986900 2.938500
14.004900 3.041700
14.022900 3.150200
14.041000 3.268100
14.059000 3.396900
14.077000 3.523000
14.095000 3.457600
14.113000 3.394400
14.131000 3.333300
14.149000 3.274500
14.167000 3.217800
14.185000 3.163300
14.203100 3.113300
14.221100 3.080000
14.239100 3.066300
14.257100 3.072100
14.275100 3.289200
14.293100 3.465500
14.311100 3.618500
14.329100 3.818600
14.347100 4.115000
14.365200 4.315500
14.383200 4.515900
14.401200 4.724500
14.419200 4.941200
14.437200 5.166000
14.455200 5.375300
14.473200 5.360600
14.491200 5.279200
14.509200 5.105700
14.527300 5.022300
14.545300 4.959100
14.563300 4.916000
14.581300 4.893100
14.599300 4.890000
14.617300 4.877300
14.635300 4.800000
14.653300 4.693500
14.671300 4.531700
14.689400 4.302500
14.707400 4.109200
14.725400 3.962400
14.743400 3.861300
14.761400 3.562300
14.779400 3.357400
14.797400 3.198400
14.815400 3.105500
14.833400 3.159000
14.851500 3.201500
14.869500 3.236300
14.887500 3.269300
14.905500 3.300400
14.923500 3.327900
14.941500 3.361800
14.959500 3.397800
14.977500 3.429100
14.995500 3.455700
15.013600 3.477600
15.031600 3.495900
15.049600 3.512800
15.067600 3.528100
15.085600 3.542600
15.103600 3.556800
15.121600 3.570700
15.139600 3.584500
15.157600 3.599000
15.175700 3.614800
15.193700 3.633500
15.211700 3.655200
15.229700 3.679700
15.247700 3.705300
15.265700 3.715400
15.283700 3.726200
15.301700 3.739100
15.319700 3.753600
15.337800 3.768100
15.355800 3.778400
15.373800 3.802400
15.391800 4.056800
15.409800 4.264800
15.427800 4.278000
15.445800 4.296500
15.463800 4.320300
15.481800 4.349300
15.499900 4.391700
15.517900 4.442500
15.535900 4.483200
15.553900 4.513900
15.571900 4.534400
15.589900 4.544900
15.607900 4.545200
15.625900 4.535500
15.643900 4.532100
15.662000 4.524700
15.680000 5.134600
15.698000 6.280700
15.716000 4.847100
15.734000 4.033600
15.752000 3.879100
15.770000 3.735800
15.788000 3.604700
15.806000 3.461400
15.824100 3.324100
15.842100 3.192500
15.860100 3.066400
15.878100 2.945800
15.896100 2.831200
15.914100 2.723400
15.932100 2.664400
15.950100 2.633000
15.968100 2.608100
15.986100 2.589600
16.004200 2.577500
16.022200 2.571800
16.040200 2.572500
16.058200 2.651300
16.076200 2.736500
16.094200 2.826900
16.112200 2.922600
16.130200 3.023700
16.148200 3.130000
16.166300 3.241700
16.184300 3.356700
16.202300 3.473500
16.220300 3.592000
16.238300 3.661900
16.256300 3.713700
16.274300 3.768900
16.292300 3.810300
16.310300 3.837000
16.328400 3.849100
16.346400 3.846500
16.364400 3.829300
16.382400 3.797500
16.400400 3.751200
16.418400 3.690500
16.436400 3.619700
16.454400 3.482900
16.472400 3.357400
16.490500 3.258600
16.508500 3.184600
16.526500 3.133200
16.544500 3.104700
16.562500 3.098900
16.580500 3.114200
16.598500 3.142700
16.616500 3.183600
16.634500 6.533300
16.652600 4.047500
16.670600 4.051400
16.688600 4.055800
16.706600 4.060600
16.724600 4.066000
16.742600 4.071700
16.760600 4.078000
16.778600 4.084700
16.796600 4.110300
16.814700 4.149900
16.832700 4.160600
16.850700 4.139600
16.868700 4.085200
16.886700 3.997200
16.904700 3.876200
16.922700 3.723600
16.940700 3.565100
16.958700 3.415600
16.976800 3.291800
16.994800 3.195100
17.012800 3.125500
17.030800 3.083000
17.048800 3.066100
17.066800 3.065900
17.084800 3.082900
17.102800 3.123500
17.120800 3.189700
17.138900 3.262400
17.156900 3.341800
17.174900 3.427800
17.192900 3.519100
17.210900 3.613100
17.228900 3.711100
17.246900 3.818300
17.264900 3.926800
17.282900 4.038000
17.301000 4.146700
17.319000 4.233200
17.337000 4.309400
17.355000 4.384000
17.373000 4.456800
17.391000 4.527800
17.409000 4.596900
17.427000 4.664300
17.445000 4.729800
17.463100 4.912600
17.481100 4.895900
17.499100 4.897700
17.517100 5.224400
17.535100 5.200400
17.553100 5.071200
17.571100 4.954100
17.589100 4.836900
17.607100 4.719300
17.625200 4.600900
17.643200 4.481600
17.661200 4.361800
17.679200 4.243600
17.697200 4.126800
17.715200 4.011600
17.733200 3.898500
17.751200 3.790200
17.769200 3.688400
17.787300 3.593200
17.805300 3.514200
17.823300 3.451900
17.841300 3.388700
17.859300 3.320800
17.877300 3.242800
17.895300 3.166200
17.913300 3.091100
17.931300 3.017700
17.949400 2.953700
17.967400 2.906300
17.985400 2.875500
18.003400 2.861800
18.021400 2.866400
18.039400 2.884900
18.057400 2.926600
18.075400 3.051500
18.093400 3.261700
18.111500 3.583700
18.129500 4.031300
18.147500 4.619300
18.165500 4.942600
18.183500 5.042000
18.201500 5.166800
18.219500 5.351600
18.237500 5.596600
18.255500 5.732000
18.273600 5.695300
18.291600 5.675400
18.309600 5.672400
18.327600 5.677900
18.345600 5.686100
18.363600 5.696900
18.381600 5.710400
18.399600 5.725500
18.417600 5.741300
18.435600 6.148300
18.453700 6.471600
18.471700 6.209100
18.489700 6.075300
18.507700 5.882300
18.525700 5.638100
18.543700 5.312700
18.561700 5.266400
18.579700 5.523500
18.597700 5.436400
18.615800 5.362700
18.633800 5.304800
18.651800 5.262600
18.669800 5.239300
18.687800 5.239500
18.705800 5.268700
18.723800 5.317700
18.741800 5.319500
18.759800 4.940000
18.777900 4.577000
18.795900 4.324300
18.813900 4.181900
18.831900 4.118000
18.849900 4.059800
18.867900 4.004100
18.885900 3.951200
18.903900 3.900900
18.921900 3.853200
18.940000 3.823900
18.958000 3.806900
18.976000 3.813700
18.994000 3.842400
19.012000 3.875900
19.030000 3.912800
19.048000 3.952800
19.066000 3.996200
19.084000 4.042700
19.102100 4.091300
19.120100 4.268000
19.138100 4.347900
19.156100 4.353300
19.174100 4.307500
19.192100 4.210600
19.210100 4.062500
19.228100 3.863300
19.246100 3.612900
19.264200 3.311400
19.282200 3.137000
19.300200 3.054300
19.318200 3.034000
19.336200 3.024000
19.354200 3.017100
19.372200 3.013400
19.390200 3.012700
19.408200 3.015300
19.426300 3.033800
19.444300 3.080000
19.462300 3.153800
19.480300 3.254400
19.498300 3.368300
19.516300 3.499700
19.534300 3.684400
19.552300 3.925900
19.570300 4.224100
19.588400 4.398000
19.606400 4.532700
19.624400 4.671100
19.642400 4.770100
19.660400 4.855700
19.678400 4.929500
19.696400 4.991900
19.714400 5.042900
19.732400 5.083300
19.750500 5.112800
19.768500 5.118100
19.786500 5.099300
19.804500 5.047300
19.822500 4.880400
19.840500 4.349900
19.858500 4.610700
19.876500 4.783300
19.894500 4.908000
19.912600 4.984800
19.930600 5.017300
19.948600 5.023600
19.966600 5.005900
19.984600 4.964300
20.002600 4.867000
20.020600 4.733400
20.038600 4.566600
20.056600 4.366300
20.074700 4.133200
20.092700 3.880900
20.110700 3.691200
20.128700 3.532200
20.146700 3.403600
20.164700 3.305700
20.182700 3.250200
20.200700 3.594100
20.218700 4.359800
20.236800 4.803600
20.254800 4.924400
20.272800 4.823200
20.290800 4.664400
20.308800 4.293100
20.326800 3.084000
20.344800 3.152600
20.362800 3.244100
20.380800 3.341300
20.398900 3.444000
20.416900 3.518000
20.434900 3.592000
20.452900 3.661500
20.470900 3.715400
20.488900 3.753500
20.506900 3.775900
20.524900 3.782600
20.542900 3.776200
20.561000 3.769300
20.579000 3.763500
20.597000 3.764900
20.615000 3.780900
20.633000 3.811700
20.651000 3.857100
20.669000 3.917300
20.687000 4.007700
20.705000 4.118700
20.723000 4.245400
20.741100 4.388000
20.759100 4.807900
20.777100 5.558300
20.795100 5.850100
20.813100 5.955600
20.831100 5.908500
20.849100 5.884100
20.867100 5.858300
20.885100 5.831300
20.903200 5.767900
20.921200 5.620100
20.939200 5.406200
20.957200 5.199300
20.975200 5.006200
20.993200 4.830100
21.011200 5.364300
21.029200 4.491300
21.047200 4.250800
21.065300 4.221100
21.083300 4.278900
21.101300 4.460900
21.119300 4.819100
21.137300 5.026300
21.155300 5.110300
21.173300 5.104800
21.191300 5.009900
21.209300 4.836800
21.227400 4.779200
21.245400 4.823900
21.263400 4.894800
21.281400 4.946100
21.299400 4.977700
21.317400 4.989600
21.335400 4.983100
21.353400 4.987200
21.371400 5.013700
21.389500 4.992300
21.407500 4.297800
21.425500 3.241700
21.443500 3.445900
21.461500 3.749800
21.479500 4.222900
21.497500 4.248500
21.515500 3.932900
21.533500 3.866800
21.551600 3.797500
21.569600 3.863500
21.587600 3.937800
21.605600 4.021600
21.623600 4.118000
21.641600 4.228000
21.659600 4.351500
21.677600 4.490500
21.695600 4.839900
21.713700 4.906300
21.731700 4.802600
21.749700 4.873700
21.767700 4.978800
21.785700 5.081700
21.803700 5.182600
21.821700 5.285000
21.839700 5.390300
21.857700 5.083300
21.875800 5.156400
21.893800 5.243600
21.911800 5.344300
21.929800 5.402600
21.947800 5.426000
21.965800 5.434200
21.983800 5.492500
22.001800 5.562700
22.019800 5.288600
22.037900 5.405400
22.055900 5.471400
22.073900 5.509500
22.091900 5.521600
22.109900 5.507700
22.127900 5.467800
22.145900 5.205500
22.163900 4.849200
22.181900 4.796100
22.200000 4.782500
22.218000 4.795900
22.236000 4.834300
22.254000 4.897500
22.272000 4.979700
22.290000 5.080200
22.308000 5.001000
22.326000 4.938100
22.344000 4.894000
22.362100 4.928800
22.380100 5.071000
22.398100 5.131100
22.416100 5.180500
22.434100 5.219200
22.452100 5.247300
22.470100 5.264700
22.488100 5.272700
22.506100 5.271400
22.524200 5.395800
22.542200 5.615800
22.560200 5.665300
22.578200 5.766000
22.596200 5.912300
22.614200 5.963700
22.632200 5.885400
22.650200 4.688400
22.668200 4.586200
22.686300 4.544200
22.704300 4.584400
22.722300 4.725300
22.740300 5.129800
22.758300 7.010000
22.776300 10.301100
22.794300 10.931100
22.812300 11.203800
22.830300 9.765300
22.848400 5.985700
22.866400 5.842100
22.884400 5.752000
22.902400 5.716100
22.920400 5.734300
22.938400 5.735600
22.956400 5.767300
22.974400 5.799300
22.992400 5.823900
23.010500 5.837200
23.028500 5.824200
23.046500 5.783200
23.064500 5.714900
23.082500 5.620000
23.100500 5.515200
23.118500 5.408200
23.136500 5.298900
23.154500 5.187200
23.172500 5.073300
23.190600 5.467100
23.208600 5.060100
23.226600 3.501700
23.244600 3.387600
23.262600 3.281400
23.280600 3.183100
23.298600 3.093000
23.316600 3.011100
23.334600 2.937300
23.352700 2.871900
23.370700 2.814600
23.388700 2.765500
23.406700 2.724700
23.424700 2.692100
23.442700 2.665800
23.460700 2.641900
23.478700 2.990900
23.496700 3.390100
23.514800 3.745000
23.532800 4.054800
23.550800 4.319800
23.568800 4.546700
23.586800 4.554600
23.604800 4.354200
23.622800 4.161300
23.640800 3.975700
23.658800 3.788300
23.676900 4.721600
23.694900 4.629200
23.712900 4.608100
23.730900 4.653400
23.748900 4.718300
23.766900 4.791800
23.784900 4.874200
23.802900 4.857100
23.820900 4.735600
23.839000 4.658400
23.857000 4.625200
23.875000 4.635100
23.893000 4.687400
23.911000 4.779500
23.929000 4.886700
23.947000 5.002800
23.965000 5.128100
23.983000 5.262400
24.001100 5.405800
24.019100 5.558300
24.037100 5.642800
24.055100 5.718600
24.073100 5.780700
24.091100 5.827500
24.109100 5.871500
24.127100 5.916100
24.145100 5.961300
24.163200 6.007200
24.181200 6.051300
24.199200 6.089300
24.217200 6.093700
24.235200 5.909900
24.253200 5.764500
24.271200 5.636900
24.289200 5.510400
24.307200 5.384700
24.325300 5.259900
24.343300 5.135900
24.361300 5.012600
24.379300 4.890200
24.397300 4.743000
24.415300 4.603600
24.433300 4.495200
24.451300 4.402500
24.469300 4.324500
24.487400 4.278400
24.505400 4.339600
24.523400 4.371200
24.541400 4.406200
24.559400 4.417000
24.577400 4.402500
24.595400 4.362900
24.613400 4.114800
24.631400 4.061100
24.649500 4.067300
24.667500 4.389100
24.685500 4.891500
24.703500 5.402000
24.721500 5.728900
24.739500 6.080600
24.757500 6.326900
24.775500 6.488500
24.793500 6.601400
24.811600 6.666700
24.829600 6.687900
24.847600 6.836500
24.865600 6.907100
24.883600 6.800500
24.901600 6.517000
24.919600 6.103200
24.937600 5.560800
24.955600 4.884200
24.973700 4.723500
24.991700 4.634200
25.009700 4.570200
25.027700 4.511000
25.045700 4.456500
25.063700 4.406900
25.081700 4.362000
25.099700 4.321900
25.117700 4.286600
25.135800 4.253300
25.153800 4.218600
25.171800 4.185200
25.189800 4.232200
25.207800 4.249200
25.225800 4.207800
25.243800 4.305500
25.261800 4.447000
25.279800 4.558300
25.297900 4.667600
25.315900 4.775000
25.333900 4.928400
25.351900 5.478500
25.369900 5.541500
25.387900 5.124700
25.405900 4.640700
25.423900 4.625000
25.441900 4.614000
25.459900 4.598300
25.478000 4.577900
25.496000 4.552800
25.514000 4.589100
25.532000 4.660800
25.550000 4.731100
25.568000 4.800000
25.586000 4.872500
25.604000 4.989700
25.622000 5.182200
25.640100 5.162800
25.658100 5.028800
25.676100 4.794600
25.694100 4.644300
25.712100 4.636000
25.730100 4.685300
25.748100 4.786700
25.766100 4.918000
25.784100 5.338000
25.802200 6.131300
25.820200 6.050200
25.838200 5.667000
25.856200 5.016200
25.874200 4.386700
25.892200 3.917400
25.910200 3.638500
25.928200 3.542700
25.946200 3.506500
25.964300 3.534100
25.982300 3.549700
26.000300 3.537100
26.018300 3.496400
26.036300 3.427400
26.054300 3.330200
26.072300 3.156000
26.090300 2.976200
26.108300 2.873600
26.126400 2.843000
26.144400 2.872100
26.162400 2.923300
26.180400 3.736200
26.198400 4.211500
26.216400 4.306700
26.234400 4.374200
26.252400 4.361600
26.270400 4.201300
26.288500 3.581400
26.306500 1.585300
26.324500 1.375500
26.342500 1.355200
26.360500 1.334900
26.378500 1.314800
26.396500 1.294900
26.414500 1.275100
26.432500 1.255500
26.450600 1.236000
26.468600 1.216700
26.486600 1.197500
26.504600 1.284800
26.522600 1.583400
26.540600 1.513100
26.558600 1.396700
26.576600 1.281400
26.594600 1.167100
26.612700 1.054000
26.630700 0.941900
26.648700 0.831000
26.666700 0.218400
26.684700 0.000000
26.702700 0.000000
26.720700 0.000000
26.738700 0.000000
26.756700 0.000000
26.774800 0.000000
26.792800 0.000000
26.810800 0.000000
26.828800 0.000000
26.846800 0.000000
26.864800 0.000000
26.882800 0.000000
26.900800 0.000000
26.918800 0.000000
26.936900 0.000000
26.954900 0.000000
26.972900 0.000000
26.990900 0.000000
27.008900 0.000000
27.026900 0.000000
27.044900 0.000000
27.062900 0.000000
27.080900 0.000000
27.099000 0.000000
27.117000 0.000000
27.135000 0.000000
27.153000 0.000000
27.171000 0.000000
27.189000 0.000000
27.207000 0.000000
27.225000 0.000000
27.243000 0.000000
27.261100 0.000000
27.279100 0.000000
27.297100 0.000000
27.315100 0.000000
27.333100 0.000000
27.351100 0.000000
27.369100 0.000000
27.387100 0.000000
27.405100 0.000000
27.423200 0.000000
27.441200 0.000000
27.459200 0.000000
27.477200 0.000000
27.495200 0.000000
27.513200 0.000000
27.531200 0.000000
27.549200 0.000000
27.567200 0.000000
27.585300 0.000000
27.603300 0.000000
27.621300 0.000000
27.639300 0.000000
27.657300 0.000000
27.675300 0.000000
27.693300 0.000000
27.711300 0.000000
27.729300 0.000000
27.747300 0.000000
27.765400 0.000000
27.783400 0.000000
27.801400 0.000000
27.819400 0.000000
27.837400 0.000000
27.855400 0.000000
27.873400 0.000000
27.891400 0.000000
27.909400 0.000000
27.927500 0.000000
27.945500 0.000000
27.963500 0.000000
27.981500 0.000000
27.999500 0.000000
28.017500 0.000000
28.035500 0.000000
28.053500 0.000000
28.071500 0.000000
28.089600 0.000000
28.107600 0.000000
28.125600 0.000000
28.143600 0.000000
28.161600 0.000000
28.179600 0.000000
28.197600 0.000000
28.215600 0.000000
28.233600 0.000000
28.251700 0.000000
28.269700 0.000000
28.287700 0.000000
28.305700 0.000000
e
