set title 'mp-1183656 - Density of States'
set xlabel 'Energy (eV)'
set ylabel 'DOS (states/eV)'
set grid
set xrange [-10:10]
set yrange [0:36.361]
set xzeroaxis lt -1
set terminal png size 800,600
set output 'mp-1183656_dos_gnuplot.png'
plot '-' using 1:2 with lines title 'DOS'
-10.496800 0.000000
-10.469800 0.000000
-10.442800 0.000000
-10.415800 0.000000
-10.388800 0.000000
-10.361800 0.000000
-10.334800 0.000000
-10.307800 0.000000
-10.280800 0.000000
-10.253800 0.000000
-10.226800 0.000000
-10.199800 0.000000
-10.172800 0.000000
-10.145800 0.000000
-10.118800 0.000000
-10.091800 0.000000
-10.064800 0.000000
-10.037800 0.000000
-10.010800 0.000000
-9.983800 0.000000
-9.956800 0.000000
-9.929800 0.000000
-9.902800 0.000000
-9.875800 0.000000
-9.848800 0.000000
-9.821800 0.000000
-9.794800 0.000000
-9.767800 0.000000
-9.740800 0.000000
-9.713800 0.000000
-9.686800 0.000000
-9.659800 0.000000
-9.632800 0.000000
-9.605800 0.000000
-9.578800 0.000000
-9.551800 0.000000
-9.524800 0.000000
-9.497800 0.000000
-9.470800 0.000000
-9.443700 0.000000
-9.416700 0.000000
-9.389700 0.000000
-9.362700 0.000000
-9.335700 0.000000
-9.308700 0.000000
-9.281700 0.000000
-9.254700 0.000000
-9.227700 0.000000
-9.200700 0.000000
-9.173700 0.000000
-9.146700 0.000000
-9.119700 0.000000
-9.092700 0.000000
-9.065700 0.000000
-9.038700 0.000000
-9.011700 0.000000
-8.984700 0.000000
-8.957700 0.000000
-8.930700 0.000000
-8.903700 0.000000
-8.876700 0.000000
-8.849700 0.000000
-8.822700 0.000000
-8.795700 0.000000
-8.768700 0.000000
-8.741700 0.000000
-8.714700 0.000000
-8.687700 0.000000
-8.660700 0.000000
-8.633700 0.000000
-8.606700 0.000000
-8.579700 0.000000
-8.552700 0.000000
-8.525700 0.000000
-8.498700 0.000000
-8.471700 0.000000
-8.444700 0.000000
-8.417700 0.000000
-8.390700 0.000000
-8.363700 0.000000
-8.336700 0.000000
-8.309700 0.000000
-8.282600 0.000000
-8.255600 0.000000
-8.228600 0.000000
-8.201600 0.000000
-8.174600 0.000000
-8.147600 0.000000
-8.120600 0.000000
-8.093600 0.000000
-8.066600 0.000000
-8.039600 0.408100
-8.012600 2.992700
-7.985600 4.640800
-7.958600 6.235500
-7.931600 6.168600
-7.904600 6.921000
-7.877600 8.113200
-7.850600 9.356900
-7.823600 10.356200
-7.796600 11.940800
-7.769600 14.412500
-7.742600 13.501200
-7.715600 12.702000
-7.688600 12.377500
-7.661600 14.888900
-7.634600 11.318000
-7.607600 12.061000
-7.580600 16.074000
-7.553600 29.233000
-7.526600 24.032600
-7.499600 20.255500
-7.472600 20.312400
-7.445600 16.520900
-7.418600 7.690700
-7.391600 4.967000
-7.364600 3.769100
-7.337600 3.017300
-7.310600 5.314900
-7.283600 16.498900
-7.256600 20.011100
-7.229600 21.555300
-7.202600 22.587100
-7.175600 17.579200
-7.148600 14.305900
-7.121500 13.141500
-7.094500 19.629100
-7.067500 26.452700
-7.040500 25.661900
-7.013500 31.518900
-6.986500 33.055600
-6.959500 21.266000
-6.932500 22.064800
-6.905500 21.455100
-6.878500 23.336800
-6.851500 17.786300
-6.824500 10.704000
-6.797500 9.701900
-6.770500 9.735500
-6.743500 6.860700
-6.716500 6.136400
-6.689500 5.439900
-6.662500 5.035400
-6.635500 4.517500
-6.608500 4.677900
-6.581500 3.955500
-6.554500 0.291700
-6.527500 0.303700
-6.500500 0.313400
-6.473500 0.297600
-6.446500 0.299200
-6.419500 0.300400
-6.392500 0.301400
-6.365500 0.302600
-6.338500 0.304000
-6.311500 0.305200
-6.284500 0.303700
-6.257500 0.302500
-6.230500 0.301800
-6.203500 0.303600
-6.176500 0.305700
-6.149500 0.307900
-6.122500 0.309700
-6.095500 0.324800
-6.068500 0.343900
-6.041500 0.364600
-6.014500 0.353200
-5.987400 0.358300
-5.960400 0.359600
-5.933400 0.364700
-5.906400 0.370000
-5.879400 0.375500
-5.852400 0.381400
-5.825400 0.384400
-5.798400 0.387500
-5.771400 0.390600
-5.744400 0.395600
-5.717400 0.401100
-5.690400 0.406700
-5.663400 0.412400
-5.636400 0.418100
-5.609400 0.423900
-5.582400 0.429800
-5.555400 0.434400
-5.528400 0.438300
-5.501400 0.437700
-5.474400 0.441300
-5.447400 0.444700
-5.420400 0.447900
-5.393400 0.451200
-5.366400 0.454600
-5.339400 0.458700
-5.312400 0.462800
-5.285400 0.467100
-5.258400 0.471500
-5.231400 0.476000
-5.204400 0.480600
-5.177400 0.485300
-5.150400 0.490000
-5.123400 0.494400
-5.096400 0.497500
-5.069400 0.500600
-5.042400 0.504200
-5.015400 0.507100
-4.988400 0.511100
-4.961400 0.515200
-4.934400 0.519400
-4.907400 0.523700
-4.880400 0.528100
-4.853400 0.532500
-4.826300 0.536600
-4.799300 0.540500
-4.772300 0.544900
-4.745300 0.549800
-4.718300 0.555100
-4.691300 0.560100
-4.664300 0.565100
-4.637300 0.570100
-4.610300 0.575200
-4.583300 0.580300
-4.556300 0.584000
-4.529300 0.588900
-4.502300 0.593900
-4.475300 0.598700
-4.448300 0.603500
-4.421300 0.608500
-4.394300 0.613600
-4.367300 0.618600
-4.340300 0.623200
-4.313300 0.628100
-4.286300 0.633300
-4.259300 0.638700
-4.232300 0.644100
-4.205300 0.648600
-4.178300 0.651500
-4.151300 0.652900
-4.124300 0.654100
-4.097300 0.656500
-4.070300 0.658700
-4.043300 0.660600
-4.016300 0.662400
-3.989300 0.664400
-3.962300 0.666200
-3.935300 0.667400
-3.908300 0.668800
-3.881300 0.670600
-3.854300 0.672600
-3.827300 0.674600
-3.800300 0.676600
-3.773300 0.678500
-3.746300 0.680300
-3.719300 0.682200
-3.692300 0.684000
-3.665200 0.685800
-3.638200 0.687700
-3.611200 0.689400
-3.584200 0.691500
-3.557200 0.693500
-3.530200 0.695600
-3.503200 0.697800
-3.476200 0.700200
-3.449200 0.705300
-3.422200 0.713300
-3.395200 0.719500
-3.368200 0.726000
-3.341200 0.732900
-3.314200 0.740100
-3.287200 0.747600
-3.260200 0.754800
-3.233200 0.761900
-3.206200 0.768900
-3.179200 0.776200
-3.152200 0.783400
-3.125200 0.790800
-3.098200 0.798400
-3.071200 0.806100
-3.044200 0.814000
-3.017200 0.821800
-2.990200 0.829400
-2.963200 0.837100
-2.936200 0.844800
-2.909200 0.852500
-2.882200 0.860300
-2.855200 0.868200
-2.828200 0.876400
-2.801200 0.885200
-2.774200 0.894700
-2.747200 0.903500
-2.720200 0.911800
-2.693200 0.920700
-2.666200 0.929900
-2.639200 0.939200
-2.612200 0.948600
-2.585200 0.958100
-2.558200 0.967900
-2.531100 0.978000
-2.504100 0.988600
-2.477100 0.999700
-2.450100 1.012000
-2.423100 1.024300
-2.396100 1.037200
-2.369100 1.052600
-2.342100 1.069000
-2.315100 1.092400
-2.288100 1.137600
-2.261100 1.163000
-2.234100 1.187900
-2.207100 1.210300
-2.180100 1.229100
-2.153100 1.247000
-2.126100 1.264000
-2.099100 1.377300
-2.072100 1.425900
-2.045100 1.431900
-2.018100 1.431800
-1.991100 1.411800
-1.964100 1.377100
-1.937100 1.361500
-1.910100 1.421900
-1.883100 1.411300
-1.856100 1.336200
-1.829100 1.328700
-1.802100 1.399500
-1.775100 1.480200
-1.748100 1.483400
-1.721100 1.504500
-1.694100 1.542300
-1.667100 1.593300
-1.640100 1.782100
-1.613100 1.621900
-1.586100 1.559000
-1.559100 1.539200
-1.532100 1.523600
-1.505100 1.479700
-1.478100 1.421900
-1.451100 1.405300
-1.424100 1.371100
-1.397100 1.263100
-1.370000 1.186000
-1.343000 1.148900
-1.316000 1.110700
-1.289000 1.076900
-1.262000 1.059100
-1.235000 1.030800
-1.208000 1.174600
-1.181000 1.009700
-1.154000 0.979400
-1.127000 0.908100
-1.100000 0.910300
-1.073000 1.016900
-1.046000 0.969500
-1.019000 0.853000
-0.992000 0.558100
-0.965000 0.371900
-0.938000 0.284800
-0.911000 0.278300
-0.884000 0.281100
-0.857000 0.284100
-0.830000 0.287100
-0.803000 0.290300
-0.776000 0.293500
-0.749000 0.296800
-0.722000 0.300100
-0.695000 0.303200
-0.668000 0.306300
-0.641000 0.309300
-0.614000 0.312300
-0.587000 0.315200
-0.560000 0.318100
-0.533000 0.321000
-0.506000 0.342300
-0.479000 0.378300
-0.452000 0.369100
-0.425000 0.373000
-0.398000 0.376800
-0.371000 0.380400
-0.344000 0.383900
-0.317000 0.386800
-0.290000 0.383800
-0.263000 0.381000
-0.235900 0.381200
-0.208900 0.383200
-0.181900 0.385300
-0.154900 0.387500
-0.127900 0.389700
-0.100900 0.392000
-0.073900 0.394300
-0.046900 0.392500
-0.019900 0.393900
0.007100 0.395400
0.034100 0.397100
0.061100 0.398700
0.088100 0.401000
0.115100 0.403400
0.142100 0.405800
0.169100 0.408300
0.196100 0.410800
0.223100 0.413400
0.250100 0.415800
0.277100 0.416800
0.304100 0.417700
0.331100 0.419700
0.358100 0.422000
0.385100 0.424200
0.412100 0.426500
0.439100 0.428900
0.466100 0.431400
0.493100 0.434100
0.520100 0.437200
0.547100 0.441300
0.574100 0.446600
0.601100 0.452300
0.628100 0.458000
0.655100 0.463900
0.682100 0.469700
0.709100 0.476700
0.736100 0.484300
0.763100 0.492600
0.790100 0.517000
0.817100 0.567000
0.844100 0.619700
0.871100 0.593600
0.898100 0.613300
0.925200 0.655400
0.952200 0.732100
0.979200 1.008400
1.006200 1.134600
1.033200 1.060800
1.060200 1.055500
1.087200 1.054700
1.114200 1.054100
1.141200 1.054500
1.168200 1.054400
1.195200 1.166300
1.222200 1.108900
1.249200 1.087200
1.276200 1.078500
1.303200 1.055300
1.330200 1.069400
1.357200 1.130200
1.384200 1.142700
1.411200 1.105000
1.438200 1.076500
1.465200 1.055300
1.492200 1.121400
1.519200 1.095500
1.546200 1.044500
1.573200 1.015400
1.600200 1.027000
1.627200 1.046700
1.654200 1.074400
1.681200 1.102400
1.708200 1.119300
1.735200 1.137300
1.762200 1.158700
1.789200 1.209100
1.816200 1.238000
1.843200 1.275400
1.870200 1.274000
1.897200 1.244300
1.924200 1.199200
1.951200 1.165500
1.978200 1.158000
2.005200 1.151700
2.032200 1.146000
2.059200 1.171300
2.086300 1.222800
2.113300 1.295300
2.140300 1.373900
2.167300 1.354400
2.194300 1.315700
2.221300 1.300000
2.248300 1.272700
2.275300 1.241600
2.302300 1.253700
2.329300 1.305400
2.356300 1.359200
2.383300 1.475900
2.410300 1.409300
2.437300 1.327300
2.464300 1.256300
2.491300 1.241400
2.518300 1.258200
2.545300 1.207200
2.572300 1.016500
2.599300 1.032500
2.626300 1.065400
2.653300 1.035100
2.680300 1.003800
2.707300 0.945800
2.734300 0.899500
2.761300 0.857400
2.788300 0.818600
2.815300 0.751700
2.842300 0.717800
2.869300 0.707200
2.896300 0.698800
2.923300 0.692800
2.950300 0.688000
2.977300 0.689500
3.004300 0.694200
3.031300 0.703300
3.058300 0.695400
3.085300 0.673000
3.112300 0.673900
3.139300 0.675400
3.166300 0.678300
3.193300 0.676500
3.220400 0.678000
3.247400 0.716200
3.274400 0.686300
3.301400 0.644200
3.328400 0.642200
3.355400 0.681400
3.382400 0.695100
3.409400 0.708200
3.436400 0.703500
3.463400 0.716900
3.490400 0.731900
3.517400 0.746800
3.544400 0.775100
3.571400 0.798200
3.598400 0.814100
3.625400 0.820200
3.652400 0.833000
3.679400 0.851500
3.706400 0.876000
3.733400 0.902500
3.760400 0.929800
3.787400 0.967800
3.814400 1.000500
3.841400 1.046600
3.868400 1.068900
3.895400 1.086900
3.922400 1.109400
3.949400 1.162800
3.976400 1.218600
4.003400 1.307900
4.030400 1.388800
4.057400 1.433200
4.084400 1.446800
4.111400 1.444100
4.138400 1.452200
4.165400 1.486100
4.192400 1.543500
4.219400 1.966900
4.246400 1.810300
4.273400 1.771100
4.300400 1.744300
4.327400 1.693400
4.354400 1.623800
4.381500 1.589800
4.408500 1.528300
4.435500 1.392000
4.462500 1.272100
4.489500 1.237500
4.516500 1.206000
4.543500 1.210700
4.570500 1.204400
4.597500 1.195300
4.624500 1.163300
4.651500 1.131100
4.678500 1.096300
4.705500 1.142000
4.732500 1.239200
4.759500 1.619100
4.786500 1.682600
4.813500 1.767300
4.840500 1.385600
4.867500 1.295000
4.894500 1.238700
4.921500 1.191100
4.948500 1.143500
4.975500 1.093800
5.002500 1.041100
5.029500 0.988900
5.056500 0.957300
5.083500 0.930300
5.110500 0.910100
5.137500 0.895700
5.164500 0.878700
5.191500 0.863600
5.218500 0.850900
5.245500 0.841100
5.272500 0.832600
5.299500 0.825500
5.326500 0.819700
5.353500 0.817400
5.380500 0.841500
5.407500 0.852400
5.434500 0.895900
5.461500 0.880900
5.488500 0.859500
5.515500 0.850800
5.542600 0.842700
5.569600 0.835200
5.596600 0.828400
5.623600 0.823800
5.650600 0.821100
5.677600 0.819500
5.704600 0.809600
5.731600 0.811100
5.758600 0.812900
5.785600 0.815100
5.812600 0.817500
5.839600 0.820700
5.866600 0.825300
5.893600 0.830100
5.920600 0.832900
5.947600 0.835900
5.974600 0.874300
6.001600 0.924600
6.028600 0.972600
6.055600 0.978600
6.082600 0.933100
6.109600 0.931500
6.136600 0.931100
6.163600 0.931700
6.190600 1.065100
6.217600 0.853200
6.244600 0.853800
6.271600 0.860800
6.298600 0.868200
6.325600 0.876000
6.352600 0.885700
6.379600 0.898100
6.406600 0.913300
6.433600 1.001700
6.460600 0.989400
6.487600 0.983800
6.514600 1.028400
6.541600 1.082900
6.568600 1.393400
6.595600 1.103700
6.622600 1.106500
6.649600 1.107500
6.676700 1.106600
6.703700 1.103800
6.730700 1.079200
6.757700 1.088900
6.784700 1.100700
6.811700 1.113100
6.838700 1.123300
6.865700 1.133100
6.892700 1.142100
6.919700 1.152800
6.946700 1.161800
6.973700 1.167300
7.000700 1.213400
7.027700 1.208500
7.054700 1.204000
7.081700 1.198700
7.108700 1.190400
7.135700 1.180100
7.162700 1.159500
7.189700 1.134400
7.216700 1.113200
7.243700 1.104300
7.270700 1.111000
7.297700 1.124600
7.324700 1.149900
7.351700 1.183000
7.378700 1.226700
7.405700 1.280900
7.432700 1.343800
7.459700 1.403900
7.486700 1.462800
7.513700 1.512000
7.540700 1.534900
7.567700 1.474000
7.594700 1.406300
7.621700 1.330800
7.648700 1.243800
7.675700 1.200700
7.702700 1.187200
7.729700 1.653700
7.756700 1.676200
7.783700 1.587800
7.810700 1.638900
7.837800 1.668100
7.864800 1.712700
7.891800 1.594100
7.918800 1.520400
7.945800 1.465800
7.972800 1.456000
7.999800 1.474900
8.026800 1.537900
8.053800 1.596700
8.080800 1.626300
8.107800 1.636300
8.134800 1.631500
8.161800 1.606700
8.188800 1.580900
8.215800 1.565600
8.242800 1.546100
8.269800 1.532200
8.296800 1.518000
8.323800 1.440400
8.350800 1.409500
8.377800 1.382500
8.404800 1.360200
8.431800 1.346300
8.458800 1.346100
8.485800 1.358400
8.512800 1.382000
8.539800 1.407700
8.566800 1.437800
8.593800 1.477300
8.620800 1.529000
8.647800 1.548600
8.674800 1.572100
8.701800 1.620800
8.728800 1.673600
8.755800 1.722900
8.782800 1.777900
8.809800 1.845500
8.836800 1.904600
8.863800 1.953700
8.890800 1.948200
8.917800 2.024500
8.944800 2.091800
8.971900 1.951300
8.998900 1.716600
9.025900 1.633800
9.052900 1.515400
9.079900 1.442200
9.106900 1.384300
9.133900 1.348700
9.160900 1.336900
9.187900 1.333100
9.214900 1.311600
9.241900 1.393300
9.268900 1.305700
9.295900 1.326800
9.322900 1.294700
9.349900 1.278900
9.376900 1.267100
9.403900 1.256600
9.430900 1.248700
9.457900 1.251000
9.484900 1.257400
9.511900 1.264800
9.538900 1.273500
9.565900 1.283500
9.592900 1.296200
9.619900 1.310300
9.646900 1.328400
9.673900 1.368300
9.700900 1.385500
9.727900 1.400400
9.754900 1.412100
9.781900 1.418500
9.808900 1.420500
9.835900 1.412400
9.862900 1.419400
9.889900 1.427800
9.916900 1.440700
9.943900 1.454800
9.970900 1.470800
9.997900 1.510600
10.024900 1.550600
10.051900 1.561400
10.078900 1.573800
10.105900 1.588500
10.133000 1.602400
10.160000 1.617300
10.187000 1.640800
10.214000 1.663700
10.241000 1.680500
10.268000 1.702900
10.295000 1.717600
10.322000 1.730300
10.349000 1.741000
10.376000 1.749200
10.403000 1.753300
10.430000 1.763900
10.457000 1.781600
10.484000 1.803500
10.511000 1.812800
10.538000 1.809200
10.565000 1.791700
10.592000 1.763600
10.619000 1.733700
10.646000 1.701400
10.673000 1.666600
10.700000 1.630200
10.727000 1.585900
10.754000 1.555300
10.781000 1.528800
10.808000 1.506500
10.835000 1.483800
10.862000 1.460100
10.889000 1.436300
10.916000 1.419600
10.943000 1.406200
10.970000 1.395300
10.997000 1.386600
11.024000 1.379900
11.051000 1.398200
11.078000 1.399500
11.105000 1.403100
11.132000 1.404400
11.159000 1.400500
11.186000 1.407300
11.213000 1.414700
11.240000 1.426400
11.267000 1.441800
11.294100 1.460700
11.321100 1.483200
11.348100 1.511500
11.375100 1.540600
11.402100 1.572100
11.429100 1.598500
11.456100 1.621000
11.483100 1.644500
11.510100 1.590600
11.537100 1.582000
11.564100 1.598800
11.591100 1.618400
11.618100 1.645900
11.645100 1.670100
11.672100 1.725100
11.699100 1.767500
11.726100 1.747100
11.753100 1.741800
11.780100 1.737400
11.807100 1.733400
11.834100 1.727300
11.861100 1.727200
11.888100 1.729200
11.915100 1.731500
11.942100 1.736000
11.969100 1.741600
11.996100 1.752300
12.023100 1.764900
12.050100 1.777700
12.077100 1.790700
12.104100 1.791000
12.131100 1.774300
12.158100 1.754500
12.185100 1.735000
12.212100 1.722200
12.239100 1.713000
12.266100 1.702600
12.293100 1.687500
12.320100 1.666000
12.347100 1.625100
12.374100 1.579500
12.401100 1.531100
12.428200 1.490300
12.455200 1.467100
12.482200 1.453700
12.509200 1.439100
12.536200 1.421200
12.563200 1.397500
12.590200 1.383200
12.617200 1.375800
12.644200 1.369500
12.671200 1.364200
12.698200 1.358400
12.725200 1.386800
12.752200 1.385200
12.779200 1.385600
12.806200 1.386200
12.833200 1.386300
12.860200 1.386300
12.887200 1.363200
12.914200 1.334900
12.941200 1.305200
12.968200 1.303500
12.995200 1.316000
13.022200 1.357900
13.049200 1.415600
13.076200 1.473800
13.103200 1.513300
13.130200 1.547600
13.157200 1.580700
13.184200 1.621700
13.211200 1.667000
13.238200 1.695400
13.265200 1.723100
13.292200 1.746500
13.319200 1.766300
13.346200 1.792300
13.373200 1.809300
13.400200 1.845500
13.427200 1.884900
13.454200 1.916500
13.481200 1.940800
13.508200 1.957100
13.535200 1.970100
13.562200 1.939100
13.589300 1.916600
13.616300 1.874000
13.643300 1.807400
13.670300 1.745300
13.697300 1.697300
13.724300 1.659000
13.751300 1.630900
13.778300 1.612900
13.805300 1.596800
13.832300 1.581100
13.859300 1.567700
13.886300 1.555000
13.913300 1.542700
13.940300 1.525900
13.967300 1.492300
13.994300 1.447600
14.021300 1.406200
14.048300 1.358900
14.075300 1.309600
14.102300 1.259700
14.129300 1.207000
14.156300 1.175600
14.183300 1.164600
14.210300 1.171900
14.237300 1.179500
14.264300 1.189600
14.291300 1.203500
14.318300 1.221400
14.345300 1.242500
14.372300 1.360700
14.399300 1.267300
14.426300 1.276900
14.453300 1.283800
14.480300 1.289700
14.507300 1.287600
14.534300 1.270000
14.561300 1.273500
14.588300 1.281600
14.615300 1.289200
14.642300 1.304400
14.669300 1.326500
14.696300 1.348200
14.723400 1.368500
14.750400 1.384800
14.777400 1.405500
14.804400 1.420800
14.831400 1.435600
14.858400 1.455900
14.885400 1.471600
14.912400 1.479500
14.939400 1.484300
14.966400 1.486100
14.993400 1.484900
15.020400 1.477700
15.047400 1.469200
15.074400 1.470100
15.101400 1.459000
15.128400 1.454400
15.155400 1.534900
15.182400 1.566800
15.209400 1.591800
15.236400 1.591500
15.263400 1.585400
15.290400 1.582000
15.317400 1.575200
15.344400 1.568600
15.371400 1.562200
15.398400 1.554300
15.425400 1.568100
15.452400 1.583100
15.479400 1.593900
15.506400 1.591600
15.533400 1.547100
15.560400 1.528100
15.587400 1.518400
15.614400 1.500300
15.641400 1.484900
15.668400 1.463500
15.695400 1.451600
15.722400 1.440400
15.749400 1.428000
15.776400 1.414000
15.803400 1.400300
15.830400 1.406300
15.857400 1.399400
15.884500 1.392700
15.911500 1.386800
15.938500 1.381300
15.965500 1.379100
15.992500 1.384300
16.019500 1.465000
16.046500 1.445100
16.073500 1.444700
16.100500 1.457300
16.127500 1.455400
16.154500 1.453700
16.181500 1.450400
16.208500 1.445400
16.235500 1.451100
16.262500 1.459400
16.289500 1.470000
16.316500 1.528100
16.343500 1.537100
16.370500 1.539500
16.397500 1.543200
16.424500 1.549000
16.451500 1.568500
16.478500 1.657000
16.505500 1.664300
16.532500 1.684100
16.559500 1.704900
16.586500 1.757500
16.613500 1.809300
16.640500 1.860100
16.667500 1.909800
16.694500 1.989700
16.721500 2.060600
16.748500 2.089000
16.775500 2.115000
16.802500 2.137600
16.829500 2.186000
16.856500 2.134100
16.883500 2.060600
16.910500 2.015200
16.937500 1.973200
16.964500 2.001200
16.991500 2.149000
17.018500 2.248000
17.045600 2.335000
17.072600 2.384600
17.099600 2.376300
17.126600 2.285200
17.153600 2.207600
17.180600 2.209200
17.207600 2.148700
17.234600 2.093700
17.261600 2.059700
17.288600 2.079100
17.315600 2.167800
17.342600 2.280100
17.369600 2.246700
17.396600 2.098800
17.423600 2.074500
17.450600 2.012300
17.477600 1.917400
17.504600 1.921100
17.531600 1.876600
17.558600 1.868000
17.585600 1.828800
17.612600 1.685200
17.639600 1.667200
17.666600 1.747300
17.693600 1.778400
17.720600 1.740200
17.747600 1.744900
17.774600 1.685400
17.801600 1.755800
17.828600 1.929800
17.855600 2.226400
17.882600 2.336700
17.909600 2.405600
17.936600 2.370300
17.963600 2.531800
17.990600 2.555100
18.017600 2.351400
18.044600 2.296100
18.071600 2.277900
18.098600 2.328400
18.125600 2.328400
18.152600 2.274300
18.179700 2.182000
18.206700 2.116500
18.233700 2.093900
18.260700 2.062100
18.287700 2.007200
18.314700 1.923500
18.341700 1.865600
18.368700 1.830800
18.395700 1.809100
18.422700 1.786100
18.449700 1.758800
18.476700 1.731000
18.503700 1.704700
18.530700 1.679100
18.557700 1.657500
18.584700 1.651400
18.611700 1.671800
18.638700 1.688600
18.665700 1.691300
18.692700 1.690700
18.719700 1.723100
18.746700 1.740000
18.773700 1.749400
18.800700 1.772600
18.827700 1.781800
18.854700 1.751600
18.881700 1.706600
18.908700 1.660700
18.935700 1.593200
18.962700 1.576100
18.989700 1.558000
19.016700 1.508900
19.043700 1.486700
19.070700 1.465900
19.097700 1.444400
19.124700 1.423700
19.151700 1.417000
19.178700 1.405800
19.205700 1.409700
19.232700 1.401900
19.259700 1.388800
19.286700 1.406900
19.313700 1.430900
19.340800 1.432400
19.367800 1.445100
19.394800 1.457300
19.421800 1.467500
19.448800 1.532000
19.475800 1.483500
19.502800 1.442800
19.529800 1.414900
19.556800 1.427500
19.583800 1.444400
19.610800 1.464600
19.637800 1.518800
19.664800 1.545300
19.691800 1.570600
19.718800 1.594500
19.745800 1.643300
19.772800 1.720800
19.799800 1.729800
19.826800 1.730500
19.853800 1.776000
19.880800 1.818400
19.907800 1.843700
19.934800 1.902400
19.961800 2.022500
19.988800 2.118800
20.015800 2.197300
20.042800 2.259600
20.069800 2.241500
20.096800 2.271600
20.123800 2.299200
20.150800 2.348700
20.177800 2.407400
20.204800 2.435100
20.231800 2.399100
20.258800 2.287300
20.285800 2.252200
20.312800 2.253500
20.339800 2.207100
20.366800 2.148700
20.393800 2.060200
20.420800 2.023400
20.447800 1.986100
20.474800 2.106100
20.501900 2.011500
20.528900 1.929700
20.555900 1.905500
20.582900 1.894300
20.609900 1.903300
20.636900 1.931600
20.663900 2.072400
20.690900 2.128700
20.717900 2.201300
20.744900 2.272100
20.771900 2.256500
20.798900 2.285100
20.825900 2.294400
20.852900 2.345700
20.879900 2.344600
20.906900 2.317100
20.933900 2.310800
20.960900 2.305500
20.987900 2.309000
21.014900 2.279200
21.041900 2.311000
21.068900 2.276400
21.095900 2.242200
21.122900 2.227200
21.149900 2.206300
21.176900 2.266000
21.203900 2.325800
21.230900 2.473400
21.257900 2.354600
21.284900 2.263200
21.311900 2.149300
21.338900 2.133500
21.365900 2.010100
21.392900 1.990200
21.419900 1.964700
21.446900 1.941600
21.473900 1.941200
21.500900 1.940900
21.527900 1.944400
21.554900 1.942100
21.581900 1.956400
21.608900 1.957800
21.636000 1.951200
21.663000 2.013600
21.690000 2.161100
21.717000 2.181400
21.744000 2.274600
21.771000 2.344500
21.798000 2.456300
21.825000 2.560700
21.852000 2.657900
21.879000 2.729000
21.906000 2.749200
21.933000 2.740600
21.960000 2.690000
21.987000 2.692200
22.014000 2.573100
22.041000 2.520300
22.068000 2.518100
22.095000 2.502700
22.122000 2.484200
22.149000 2.384300
22.176000 2.391600
22.203000 2.407000
22.230000 2.417800
22.257000 2.371800
22.284000 2.379200
22.311000 2.384600
22.338000 2.419000
22.365000 2.436900
22.392000 2.370000
22.419000 2.402300
22.446000 2.378800
22.473000 2.345600
22.500000 2.441400
22.527000 2.493000
22.554000 2.376100
22.581000 2.424800
22.608000 2.213800
22.635000 2.117500
22.662000 2.005100
22.689000 1.904200
22.716000 1.854100
22.743000 1.837000
22.770000 1.819400
22.797100 1.885100
22.824100 1.867300
22.851100 1.891100
22.878100 1.919600
22.905100 1.949100
22.932100 1.991100
22.959100 1.997100
22.986100 2.090400
23.013100 2.195200
23.040100 2.196900
23.067100 2.188200
23.094100 2.192900
23.121100 2.193000
23.148100 2.206600
23.175100 2.216900
23.202100 2.235500
23.229100 2.272800
23.256100 2.231500
23.283100 2.164100
23.310100 2.105800
23.337100 2.044400
23.364100 2.029800
23.391100 1.994800
23.418100 1.961200
23.445100 1.909900
23.472100 1.935200
23.499100 1.966300
23.526100 2.029200
23.553100 2.275700
23.580100 2.449000
23.607100 2.090300
23.634100 1.966200
23.661100 1.906600
23.688100 1.875500
23.715100 1.854100
23.742100 1.837400
23.769100 1.837600
23.796100 1.941800
23.823100 2.185800
23.850100 2.002700
23.877100 1.964200
23.904100 1.920100
23.931200 1.874000
23.958200 1.827600
23.985200 1.765000
24.012200 1.766800
24.039200 1.811600
24.066200 1.876700
24.093200 1.862100
24.120200 1.845700
24.147200 1.857500
24.174200 1.860300
24.201200 1.876200
24.228200 1.903100
24.255200 1.839500
24.282200 1.828900
24.309200 1.820800
24.336200 1.813100
24.363200 1.816400
24.390200 1.825100
24.417200 1.839700
24.444200 1.871900
24.471200 1.890000
24.498200 1.923900
24.525200 1.959000
24.552200 2.017200
24.579200 2.120800
24.606200 2.020600
24.633200 2.065800
24.660200 2.110300
24.687200 2.121900
24.714200 2.122100
24.741200 2.115900
24.768200 2.170500
24.795200 2.095600
24.822200 2.047800
24.849200 2.009100
24.876200 2.027800
24.903200 2.059000
24.930200 2.084400
24.957200 2.133600
24.984200 2.179000
25.011200 2.133000
25.038200 2.141900
25.065200 2.153000
25.092300 2.164600
25.119300 2.183900
25.146300 2.220800
25.173300 2.267900
25.200300 2.324600
25.227300 2.396400
25.254300 2.471300
25.281300 2.526600
25.308300 2.648500
25.335300 2.619200
25.362300 2.797100
25.389300 2.588400
25.416300 2.671300
25.443300 2.619000
25.470300 2.580400
25.497300 2.606500
25.524300 2.593500
25.551300 2.591600
25.578300 2.588100
25.605300 2.566200
25.632300 2.523800
25.659300 2.486500
25.686300 2.451100
25.713300 2.397200
25.740300 2.342400
25.767300 2.319200
25.794300 2.346500
25.821300 2.315700
25.848300 2.274900
25.875300 2.279200
25.902300 2.294100
25.929300 2.298600
25.956300 2.283600
25.983300 2.273100
26.010300 2.278400
26.037300 2.280500
26.064300 2.278700
26.091300 2.286200
26.118300 2.301000
26.145300 2.322300
26.172300 2.376000
26.199300 2.422600
26.226300 2.451500
26.253400 2.455100
26.280400 2.435600
26.307400 2.417800
26.334400 2.422200
26.361400 2.397700
26.388400 2.364100
26.415400 2.333100
26.442400 2.300600
26.469400 2.291300
26.496400 2.278800
26.523400 2.263700
26.550400 2.254800
26.577400 2.241300
26.604400 2.236500
26.631400 2.227000
26.658400 2.220800
26.685400 2.219700
26.712400 2.242400
26.739400 2.255700
26.766400 2.257900
26.793400 2.279500
26.820400 2.300800
26.847400 2.300200
26.874400 2.317700
26.901400 2.346800
26.928400 2.366000
26.955400 2.394200
26.982400 2.432000
27.009400 2.481200
27.036400 2.559200
27.063400 2.541000
27.090400 2.486700
27.117400 2.400000
27.144400 2.385700
27.171400 2.413800
27.198400 2.431800
27.225400 2.439900
27.252400 2.453000
27.279400 2.469500
27.306400 2.455900
27.333400 2.436000
27.360400 2.422700
27.387500 2.417400
27.414500 2.425200
27.441500 2.438100
27.468500 2.454400
27.495500 2.471400
27.522500 2.513200
27.549500 2.531800
27.576500 2.569000
27.603500 2.535800
27.630500 2.522300
27.657500 2.500300
27.684500 2.483500
27.711500 2.432500
27.738500 2.423100
27.765500 2.414100
27.792500 2.391200
27.819500 2.358000
27.846500 2.324400
27.873500 2.306900
27.900500 2.309300
27.927500 2.275100
27.954500 2.289800
27.981500 2.292400
28.008500 2.293000
28.035500 2.292600
28.062500 2.400100
28.089500 2.357600
28.116500 2.368500
28.143500 2.347600
28.170500 2.336200
28.197500 2.327400
28.224500 2.319200
28.251500 2.311200
28.278500 2.306500
28.305500 2.306600
28.332500 2.344100
28.359500 2.409000
28.386500 2.334400
28.413500 2.406200
28.440500 2.488100
28.467500 2.677500
28.494500 2.769300
28.521500 2.763900
28.548600 2.722600
28.575600 2.612300
28.602600 2.508800
28.629600 2.392000
28.656600 2.305000
28.683600 2.249100
28.710600 2.202400
28.737600 2.161000
28.764600 2.138100
28.791600 2.094500
28.818600 2.094100
28.845600 2.098100
28.872600 2.117600
28.899600 2.128600
28.926600 2.136100
28.953600 2.198500
28.980600 2.221100
29.007600 2.161400
29.034600 2.156700
29.061600 2.146800
29.088600 2.137500
29.115600 2.136000
29.142600 2.123700
29.169600 2.132300
29.196600 2.142100
29.223600 2.153200
29.250600 2.184500
29.277600 2.210100
29.304600 2.225000
29.331600 2.259600
29.358600 2.293700
29.385600 2.328600
29.412600 2.402300
29.439600 2.446500
29.466600 2.434300
29.493600 2.457600
29.520600 2.487100
29.547600 2.540800
29.574600 2.546400
29.601600 2.537700
29.628600 2.513900
29.655600 2.472800
29.682700 2.420200
29.709700 2.392400
29.736700 2.386200
29.763700 2.379300
29.790700 2.372200
29.817700 2.364400
29.844700 2.343100
29.871700 2.310900
29.898700 2.277000
29.925700 2.264400
29.952700 2.259200
29.979700 2.265300
30.006700 2.277500
30.033700 2.298000
30.060700 2.330100
30.087700 2.396700
30.114700 2.462500
30.141700 2.502400
30.168700 2.558500
30.195700 2.611500
30.222700 2.629800
30.249700 2.675500
30.276700 2.714500
30.303700 2.739800
30.330700 2.763900
30.357700 2.742500
30.384700 2.736500
30.411700 2.690600
30.438700 2.620300
30.465700 2.531500
30.492700 2.474600
30.519700 2.424800
30.546700 2.378800
30.573700 2.368400
30.600700 2.377900
30.627700 2.401500
30.654700 2.444500
30.681700 2.541200
30.708700 2.545000
30.735700 2.557500
30.762700 2.560700
30.789700 2.657300
30.816700 2.674900
30.843800 2.699000
30.870800 2.725000
30.897800 2.817800
30.924800 2.897200
30.951800 2.872000
30.978800 2.822300
31.005800 2.758900
31.032800 2.752600
31.059800 2.720400
31.086800 2.660700
31.113800 2.611800
31.140800 2.587900
31.167800 2.573600
31.194800 2.592700
31.221800 2.584500
31.248800 2.591700
31.275800 2.611400
31.302800 2.633200
31.329800 2.670100
31.356800 2.763700
31.383800 2.757700
31.410800 2.831600
31.437800 2.897400
31.464800 2.787000
31.491800 2.769400
31.518800 2.740800
31.545800 2.733800
31.572800 2.727300
31.599800 2.728700
31.626800 2.736700
31.653800 2.754600
31.680800 2.745700
31.707800 2.752400
31.734800 2.755700
31.761800 2.759600
31.788800 2.722000
31.815800 2.678700
31.842800 2.671500
31.869800 2.668400
31.896800 2.644200
31.923800 2.606200
31.950800 2.577700
31.977800 2.585600
32.004900 2.606500
32.031900 2.619100
32.058900 2.640300
32.085900 2.670600
32.112900 2.751900
32.139900 2.847100
32.166900 2.625100
32.193900 2.485000
32.220900 2.418600
32.247900 2.387300
32.274900 2.321200
32.301900 2.293600
32.328900 2.296400
32.355900 2.314000
32.382900 2.331400
32.409900 2.354400
32.436900 2.382200
32.463900 2.409400
32.490900 2.433700
32.517900 2.454300
32.544900 2.491600
32.571900 2.757000
32.598900 2.602000
32.625900 2.549100
32.652900 2.504300
32.679900 2.500900
32.706900 2.499200
32.733900 2.496000
32.760900 2.486500
32.787900 2.609400
32.814900 2.424800
32.841900 2.510500
32.868900 2.557400
32.895900 2.617400
32.922900 2.748400
32.949900 2.856700
32.976900 2.613900
33.003900 2.616300
33.030900 2.614200
33.057900 2.579900
33.084900 2.589200
33.111900 2.561300
33.139000 2.477300
33.166000 2.462700
33.193000 2.451800
33.220000 2.444900
33.247000 2.441100
33.274000 2.439700
33.301000 2.443300
33.328000 2.447800
33.355000 2.453300
33.382000 2.464000
33.409000 2.647300
33.436000 2.522900
33.463000 2.529000
33.490000 2.650900
33.517000 2.509600
33.544000 2.522700
33.571000 2.576500
33.598000 2.603900
33.625000 2.629200
33.652000 2.656600
33.679000 2.700000
33.706000 2.751000
33.733000 2.805000
33.760000 2.850500
33.787000 2.851300
33.814000 2.877600
33.841000 2.912000
33.868000 2.943400
33.895000 2.840800
33.922000 2.661200
33.949000 2.496300
33.976000 2.491800
34.003000 2.511500
34.030000 2.530900
34.057000 2.761400
34.084000 2.684100
34.111000 2.618400
34.138000 2.737800
34.165000 2.637500
34.192000 2.643800
34.219000 2.666500
34.246000 2.712900
34.273000 2.797100
34.300100 3.044700
34.327100 3.031000
34.354100 3.081300
34.381100 3.027000
34.408100 2.991100
34.435100 2.960600
34.462100 2.925900
34.489100 2.898100
34.516100 2.849100
34.543100 2.648000
34.570100 2.546100
34.597100 2.383000
34.624100 2.284300
34.651100 2.283200
34.678100 2.232000
34.705100 2.217400
34.732100 2.210700
34.759100 2.235400
34.786100 2.301200
34.813100 2.405700
34.840100 2.446800
34.867100 2.419700
34.894100 2.292600
34.921100 2.247000
34.948100 2.241900
34.975100 2.270100
35.002100 2.295900
35.029100 2.331700
35.056100 2.485300
35.083100 2.605900
35.110100 2.412100
35.137100 2.315200
35.164100 2.405600
35.191100 2.456600
35.218100 2.471200
35.245100 2.508700
35.272100 2.587300
35.299100 2.729200
35.326100 2.715100
35.353100 2.705200
35.380100 2.784800
35.407100 2.749400
35.434100 2.717500
35.461200 2.681200
35.488200 2.657000
35.515200 2.632000
35.542200 2.603100
35.569200 2.570100
35.596200 2.514700
35.623200 2.472200
35.650200 2.435400
35.677200 2.340300
35.704200 2.290900
35.731200 2.240600
35.758200 2.133500
35.785200 2.097300
35.812200 2.100700
35.839200 2.139500
35.866200 2.152700
35.893200 2.188900
35.920200 2.194300
35.947200 2.263200
35.974200 2.353700
36.001200 2.377100
36.028200 2.418700
36.055200 2.418900
36.082200 2.437900
36.109200 2.482900
36.136200 2.520300
36.163200 2.708600
36.190200 2.720700
36.217200 2.687500
36.244200 2.692600
36.271200 2.716600
36.298200 2.652800
36.325200 2.600400
36.352200 2.588500
36.379200 2.342500
36.406200 2.217000
36.433200 2.539100
36.460200 2.274300
36.487200 2.229700
36.514200 2.197200
36.541200 2.176800
36.568200 2.154500
36.595300 2.157700
36.622300 2.127800
36.649300 2.094500
36.676300 2.086700
36.703300 2.056200
36.730300 2.087400
36.757300 2.206500
36.784300 2.191400
36.811300 2.158200
36.838300 2.144200
36.865300 2.142900
36.892300 2.110100
36.919300 2.083700
36.946300 2.074800
36.973300 2.123700
37.000300 2.182000
37.027300 2.221400
37.054300 2.239900
37.081300 2.239300
37.108300 2.255900
37.135300 2.117600
37.162300 1.995000
37.189300 1.940500
37.216300 1.883000
37.243300 1.819000
37.270300 1.801300
37.297300 1.835600
37.324300 1.874400
37.351300 1.914200
37.378300 1.943300
37.405300 1.970400
37.432300 2.024500
37.459300 2.106600
37.486300 2.192800
37.513300 2.265600
37.540300 2.200900
37.567300 2.122800
37.594300 2.121500
37.621300 2.123500
37.648300 2.103000
37.675300 2.060500
37.702300 2.044000
37.729300 1.950400
37.756400 1.842400
37.783400 1.800500
37.810400 1.768100
37.837400 1.744200
37.864400 1.723800
37.891400 1.912400
37.918400 1.731100
37.945400 1.792800
37.972400 1.835400
37.999400 1.841400
38.026400 1.868600
38.053400 1.782100
38.080400 1.766800
38.107400 1.740000
38.134400 1.724200
38.161400 1.684300
38.188400 1.632800
38.215400 1.573900
38.242400 1.430300
38.269400 1.330000
38.296400 1.293600
38.323400 1.256700
38.350400 1.217800
38.377400 1.177100
38.404400 1.117400
38.431400 1.096700
38.458400 1.054800
38.485400 1.005500
38.512400 0.950100
38.539400 0.864800
38.566400 0.756000
38.593400 0.712600
38.620400 0.685400
38.647400 0.669000
38.674400 0.653700
38.701400 0.640600
38.728400 0.631100
38.755400 0.621900
38.782400 0.612300
38.809400 0.601700
38.836400 0.590300
38.863400 0.580700
38.890500 0.563900
38.917500 0.535500
38.944500 0.520900
38.971500 0.501600
38.998500 0.492100
39.025500 0.482800
39.052500 0.474000
39.079500 0.465400
39.106500 0.456900
39.133500 0.448500
39.160500 0.440400
39.187500 0.432600
39.214500 0.423800
39.241500 0.413100
39.268500 0.402000
39.295500 0.390600
39.322500 0.375100
39.349500 0.366200
39.376500 0.360300
39.403500 0.367600
39.430500 0.333500
39.457500 0.286900
39.484500 0.267900
39.511500 0.251100
39.538500 0.236400
39.565500 0.223800
39.592500 0.213400
39.619500 0.205100
39.646500 0.197800
39.673500 0.209900
39.700500 0.193600
39.727500 0.151700
39.754500 0.147400
39.781500 0.143300
39.808500 0.139200
39.835500 0.135000
39.862500 0.130700
39.889500 0.126500
39.916500 0.122300
39.943500 0.118300
39.970500 0.112200
39.997500 0.107500
40.024500 0.103000
40.051600 0.098600
40.078600 0.094300
40.105600 0.090100
40.132600 0.086100
40.159600 0.082100
40.186600 0.078300
40.213600 0.074700
40.240600 0.071100
40.267600 0.067700
40.294600 0.064400
40.321600 0.061200
40.348600 0.058100
40.375600 0.055200
40.402600 0.052400
40.429600 0.048800
40.456600 0.046700
40.483600 0.044600
40.510600 0.048800
40.537600 0.046000
40.564600 0.043300
40.591600 0.040600
40.618600 0.038100
40.645600 0.035600
40.672600 0.033200
40.699600 0.021800
40.726600 0.020800
40.753600 0.019800
40.780600 0.018900
40.807600 0.017900
40.834600 0.017000
40.861600 0.016200
40.888600 0.015300
40.915600 0.014500
40.942600 0.013700
40.969600 0.012900
40.996600 0.012200
41.023600 0.011500
41.050600 0.147000
41.077600 0.000000
41.104600 0.000000
41.131600 0.000000
41.158600 0.000000
41.185600 0.000000
41.212700 0.000000
41.239700 0.000000
41.266700 0.000000
41.293700 0.000000
41.320700 0.000000
41.347700 0.000000
41.374700 0.000000
41.401700 0.000000
41.428700 0.000000
41.455700 0.000000
41.482700 0.000000
41.509700 0.000000
41.536700 0.000000
41.563700 0.000000
41.590700 0.000000
41.617700 0.000000
41.644700 0.000000
41.671700 0.000000
41.698700 0.000000
41.725700 0.000000
41.752700 0.000000
41.779700 0.000000
41.806700 0.000000
41.833700 0.000000
41.860700 0.000000
41.887700 0.000000
41.914700 0.000000
41.941700 0.000000
41.968700 0.000000
41.995700 0.000000
42.022700 0.000000
42.049700 0.000000
42.076700 0.000000
42.103700 0.000000
42.130700 0.000000
42.157700 0.000000
42.184700 0.000000
42.211700 0.000000
42.238700 0.000000
42.265700 0.000000
42.292700 0.000000
42.319700 0.000000
42.346800 0.000000
42.373800 0.000000
42.400800 0.000000
42.427800 0.000000
42.454800 0.000000
42.481800 0.000000
42.508800 0.000000
42.535800 0.000000
42.562800 0.000000
42.589800 0.000000
42.616800 0.000000
42.643800 0.000000
42.670800 0.000000
42.697800 0.000000
42.724800 0.000000
42.751800 0.000000
42.778800 0.000000
42.805800 0.000000
42.832800 0.000000
42.859800 0.000000
42.886800 0.000000
42.913800 0.000000
42.940800 0.000000
42.967800 0.000000
42.994800 0.000000
43.021800 0.000000
43.048800 0.000000
43.075800 0.000000
43.102800 0.000000
43.129800 0.000000
43.156800 0.000000
43.183800 0.000000
43.210800 0.000000
43.237800 0.000000
43.264800 0.000000
43.291800 0.000000
43.318800 0.000000
43.345800 0.000000
43.372800 0.000000
43.399800 0.000000
43.426800 0.000000
43.453800 0.000000
43.480800 0.000000
43.507900 0.000000
e
