set title 'mp-8641 - Density of States'
set xlabel 'Energy (eV)'
set ylabel 'DOS (states/eV)'
set grid
set xrange [-10:10]
set yrange [0:1.798]
set xzeroaxis lt -1
set terminal png size 800,600
set output 'mp-8641_dos_gnuplot.png'
plot '-' using 1:2 with lines title 'DOS'
-38.767200 0.000000
-38.690000 0.000000
-38.612900 0.000000
-38.535800 0.000000
-38.458700 0.000000
-38.381500 0.000000
-38.304400 0.000000
-38.227300 0.000000
-38.150100 0.000000
-38.073000 0.000000
-37.995900 0.000000
-37.918700 0.000000
-37.841600 0.000000
-37.764500 0.000000
-37.687400 0.000000
-37.610200 0.000000
-37.533100 0.000000
-37.456000 0.000000
-37.378800 0.000000
-37.301700 0.000000
-37.224600 0.000000
-37.147400 0.000000
-37.070300 0.000000
-36.993200 0.000000
-36.916100 0.000000
-36.838900 0.000000
-36.761800 0.000000
-36.684700 0.000000
-36.607500 0.000000
-36.530400 0.000000
-36.453300 0.000000
-36.376100 0.000000
-36.299000 0.000000
-36.221900 0.000000
-36.144800 0.000000
-36.067600 0.000000
-35.990500 0.000000
-35.913400 0.000000
-35.836200 0.000000
-35.759100 0.000000
-35.682000 0.000000
-35.604800 0.000000
-35.527700 0.000000
-35.450600 0.000000
-35.373500 0.000000
-35.296300 0.000000
-35.219200 0.000000
-35.142100 0.000000
-35.064900 0.000000
-34.987800 0.000000
-34.910700 0.000000
-34.833500 0.000000
-34.756400 0.000000
-34.679300 0.000000
-34.602200 0.000000
-34.525000 0.000000
-34.447900 0.000000
-34.370800 0.000000
-34.293600 0.000000
-34.216500 0.000000
-34.139400 0.000000
-34.062200 0.000000
-33.985100 0.000000
-33.908000 0.000000
-33.830900 0.000000
-33.753700 0.000000
-33.676600 0.000000
-33.599500 0.000000
-33.522300 0.000000
-33.445200 0.000000
-33.368100 0.000000
-33.290900 0.000000
-33.213800 0.000000
-33.136700 0.000000
-33.059600 0.000000
-32.982400 0.000000
-32.905300 0.000000
-32.828200 0.000000
-32.751000 0.000000
-32.673900 0.000000
-32.596800 0.000000
-32.519600 0.000000
-32.442500 0.000000
-32.365400 0.000000
-32.288300 0.000000
-32.211100 0.000000
-32.134000 0.000000
-32.056900 0.000000
-31.979700 0.000000
-31.902600 0.000000
-31.825500 0.000000
-31.748300 0.431100
-31.671200 2.297700
-31.594100 5.019500
-31.517000 7.768100
-31.439800 4.126500
-31.362700 1.578800
-31.285600 3.258200
-31.208400 3.871500
-31.131300 4.295400
-31.054200 4.710500
-30.977000 9.050000
-30.899900 9.600500
-30.822800 10.399800
-30.745700 6.168700
-30.668500 2.840100
-30.591400 0.000000
-30.514300 0.000000
-30.437100 0.000000
-30.360000 0.000000
-30.282900 0.000000
-30.205700 0.000000
-30.128600 0.000000
-30.051500 0.000000
-29.974400 0.000000
-29.897200 0.000000
-29.820100 0.000000
-29.743000 0.000000
-29.665800 0.000000
-29.588700 0.000000
-29.511600 0.000000
-29.434400 0.000000
-29.357300 0.000000
-29.280200 0.000000
-29.203100 0.000000
-29.125900 0.000000
-29.048800 0.000000
-28.971700 0.000000
-28.894500 0.000000
-28.817400 0.000000
-28.740300 0.000000
-28.663100 0.000000
-28.586000 0.000000
-28.508900 0.000000
-28.431800 0.000000
-28.354600 0.000000
-28.277500 0.000000
-28.200400 0.000000
-28.123200 0.000000
-28.046100 0.000000
-27.969000 0.000000
-27.891800 0.000000
-27.814700 0.000000
-27.737600 0.000000
-27.660500 0.000000
-27.583300 0.000000
-27.506200 0.000000
-27.429100 0.000000
-27.351900 0.000000
-27.274800 0.000000
-27.197700 0.000000
-27.120500 0.000000
-27.043400 0.000000
-26.966300 0.000000
-26.889200 0.000000
-26.812000 0.000000
-26.734900 0.000000
-26.657800 0.000000
-26.580600 0.000000
-26.503500 0.000000
-26.426400 0.000000
-26.349200 0.000000
-26.272100 0.000000
-26.195000 0.000000
-26.117900 0.000000
-26.040700 0.000000
-25.963600 0.000000
-25.886500 0.000000
-25.809300 0.000000
-25.732200 0.000000
-25.655100 0.000000
-25.577900 0.000000
-25.500800 0.000000
-25.423700 0.000000
-25.346600 0.000000
-25.269400 0.000000
-25.192300 0.000000
-25.115200 0.000000
-25.038000 0.000000
-24.960900 0.000000
-24.883800 0.000000
-24.806600 0.000000
-24.729500 0.000000
-24.652400 0.000000
-24.575300 0.000000
-24.498100 0.000000
-24.421000 0.000000
-24.343900 0.000000
-24.266700 0.000000
-24.189600 0.000000
-24.112500 0.000000
-24.035300 0.000000
-23.958200 0.000000
-23.881100 0.000000
-23.804000 0.000000
-23.726800 0.000000
-23.649700 0.000000
-23.572600 0.000000
-23.495400 0.000000
-23.418300 0.000000
-23.341200 0.000000
-23.264000 0.000000
-23.186900 0.000000
-23.109800 0.000000
-23.032700 0.000000
-22.955500 0.000000
-22.878400 0.000000
-22.801300 0.000000
-22.724100 0.000000
-22.647000 0.000000
-22.569900 0.000000
-22.492700 0.000000
-22.415600 0.000000
-22.338500 0.000000
-22.261400 0.000000
-22.184200 0.000000
-22.107100 0.000000
-22.030000 0.000000
-21.952800 0.000000
-21.875700 0.000000
-21.798600 0.000000
-21.721400 0.000000
-21.644300 0.000000
-21.567200 0.000000
-21.490100 0.000000
-21.412900 0.000000
-21.335800 0.000000
-21.258700 0.000000
-21.181500 0.000000
-21.104400 0.000000
-21.027300 0.000000
-20.950100 0.000000
-20.873000 0.000000
-20.795900 0.000000
-20.718800 0.000000
-20.641600 0.000000
-20.564500 0.000000
-20.487400 0.000000
-20.410200 0.000000
-20.333100 0.000000
-20.256000 0.000000
-20.178800 0.000000
-20.101700 0.000000
-20.024600 0.000000
-19.947500 0.000000
-19.870300 0.000000
-19.793200 0.000000
-19.716100 0.000000
-19.638900 0.000000
-19.561800 0.000000
-19.484700 0.000000
-19.407500 0.000000
-19.330400 0.000000
-19.253300 0.000000
-19.176200 0.000000
-19.099000 0.000000
-19.021900 0.000000
-18.944800 0.000000
-18.867600 0.000000
-18.790500 0.000000
-18.713400 0.000000
-18.636200 0.000000
-18.559100 0.000000
-18.482000 0.000000
-18.404900 0.000000
-18.327700 0.000000
-18.250600 0.000000
-18.173500 0.000000
-18.096300 0.000000
-18.019200 0.000000
-17.942100 0.000000
-17.864900 0.000000
-17.787800 0.000000
-17.710700 0.000000
-17.633600 0.000000
-17.556400 0.000000
-17.479300 0.000000
-17.402200 0.000000
-17.325000 0.000000
-17.247900 0.000000
-17.170800 0.000000
-17.093600 0.000000
-17.016500 0.000000
-16.939400 0.000000
-16.862300 0.000000
-16.785100 0.000000
-16.708000 0.000000
-16.630900 0.000000
-16.553700 0.000000
-16.476600 0.000000
-16.399500 0.000000
-16.322300 0.000000
-16.245200 0.000000
-16.168100 0.000000
-16.091000 0.000000
-16.013800 0.000000
-15.936700 0.000000
-15.859600 0.000000
-15.782400 0.000000
-15.705300 0.000000
-15.628200 0.000000
-15.551000 0.000000
-15.473900 0.000000
-15.396800 0.000000
-15.319700 0.000000
-15.242500 0.000000
-15.165400 0.000000
-15.088300 0.000000
-15.011100 0.000000
-14.934000 0.000000
-14.856900 0.000000
-14.779700 0.000000
-14.702600 0.000000
-14.625500 0.000000
-14.548400 0.000000
-14.471200 0.000000
-14.394100 0.000000
-14.317000 0.000000
-14.239800 0.000000
-14.162700 0.000000
-14.085600 0.000000
-14.008400 0.000000
-13.931300 0.000000
-13.854200 0.000000
-13.777100 0.000000
-13.699900 0.000000
-13.622800 0.000000
-13.545700 0.000000
-13.468500 0.000000
-13.391400 0.000000
-13.314300 0.000000
-13.237100 0.000000
-13.160000 0.000000
-13.082900 0.000000
-13.005800 0.000000
-12.928600 0.000000
-12.851500 0.000000
-12.774400 0.000000
-12.697200 0.000000
-12.620100 0.000000
-12.543000 0.000000
-12.465800 0.000000
-12.388700 0.000000
-12.311600 0.000000
-12.234500 0.000000
-12.157300 0.000000
-12.080200 0.000000
-12.003100 0.000000
-11.925900 0.000000
-11.848800 0.000000
-11.771700 0.000000
-11.694500 0.000000
-11.617400 0.000000
-11.540300 0.000000
-11.463200 0.000000
-11.386000 0.000000
-11.308900 0.000000
-11.231800 0.000000
-11.154600 0.000000
-11.077500 0.000000
-11.000400 0.000000
-10.923200 0.000000
-10.846100 0.000000
-10.769000 0.000000
-10.691900 0.000000
-10.614700 0.000000
-10.537600 0.000000
-10.460500 0.000000
-10.383300 0.000000
-10.306200 0.000000
-10.229100 0.000000
-10.151900 0.000000
-10.074800 0.000000
-9.997700 0.000000
-9.920600 0.000000
-9.843400 0.000000
-9.766300 0.000000
-9.689200 0.000000
-9.612000 0.000000
-9.534900 0.000000
-9.457800 0.000000
-9.380600 0.000000
-9.303500 0.000000
-9.226400 0.000000
-9.149300 0.000000
-9.072100 0.000000
-8.995000 0.000000
-8.917900 0.000000
-8.840700 0.000000
-8.763600 0.000000
-8.686500 0.000000
-8.609300 0.000000
-8.532200 0.000000
-8.455100 0.000000
-8.378000 0.000000
-8.300800 0.000000
-8.223700 0.000000
-8.146600 0.000000
-8.069400 0.000000
-7.992300 0.000000
-7.915200 0.000000
-7.838000 0.000000
-7.760900 0.000000
-7.683800 0.000000
-7.606700 0.000000
-7.529500 0.000000
-7.452400 0.000000
-7.375300 0.000000
-7.298100 0.000000
-7.221000 0.000000
-7.143900 0.000000
-7.066700 0.000000
-6.989600 0.000000
-6.912500 0.000000
-6.835400 0.000000
-6.758200 0.000000
-6.681100 0.000000
-6.604000 0.000000
-6.526800 0.000000
-6.449700 0.000000
-6.372600 0.000000
-6.295400 0.000000
-6.218300 0.000000
-6.141200 0.000000
-6.064100 0.000000
-5.986900 0.000000
-5.909800 0.000000
-5.832700 0.000000
-5.755500 0.000000
-5.678400 0.000000
-5.601300 0.000000
-5.524100 0.000000
-5.447000 0.000000
-5.369900 0.000000
-5.292800 0.000000
-5.215600 0.000000
-5.138500 0.000000
-5.061400 0.000000
-4.984200 0.000000
-4.907100 0.000000
-4.830000 0.000000
-4.752800 0.000000
-4.675700 0.000000
-4.598600 0.000000
-4.521500 0.000000
-4.444300 0.000000
-4.367200 0.000000
-4.290100 0.000000
-4.212900 0.000000
-4.135800 0.000000
-4.058700 0.000000
-3.981500 0.000000
-3.904400 0.000000
-3.827300 0.000000
-3.750200 0.000000
-3.673000 0.000000
-3.595900 0.000000
-3.518800 0.000000
-3.441600 0.000000
-3.364500 0.000000
-3.287400 0.000000
-3.210200 0.000000
-3.133100 0.000000
-3.056000 0.000000
-2.978900 0.000000
-2.901700 0.000000
-2.824600 0.000000
-2.747500 0.000000
-2.670300 0.000000
-2.593200 0.000000
-2.516100 0.000000
-2.438900 0.000000
-2.361800 0.000000
-2.284700 0.002800
-2.207600 0.021300
-2.130400 0.021600
-2.053300 0.027700
-1.976200 0.034000
-1.899000 0.037100
-1.821900 0.040300
-1.744800 0.044400
-1.667600 0.048700
-1.590500 0.053100
-1.513400 0.055800
-1.436300 0.058900
-1.359100 0.062100
-1.282000 0.065700
-1.204900 0.069500
-1.127700 0.073400
-1.050600 0.077100
-0.973500 0.080100
-0.896300 0.083700
-0.819200 0.087400
-0.742100 0.091200
-0.665000 0.095300
-0.587800 0.099600
-0.510700 0.104000
-0.433600 0.108200
-0.356400 0.112500
-0.279300 0.117100
-0.202200 0.122200
-0.125000 0.127500
-0.047900 0.133200
0.029200 0.139300
0.106300 0.145700
0.183500 0.152500
0.260600 0.159400
0.337700 0.167400
0.414900 0.176700
0.492000 0.187200
0.569100 0.198800
0.646300 0.212000
0.723400 0.226300
0.800500 0.242000
0.877600 0.269800
0.954800 0.308500
1.031900 0.374200
1.109000 0.503300
1.186200 0.504500
1.263300 0.606900
1.340400 0.662100
1.417600 0.730800
1.494700 0.817400
1.571800 0.804500
1.648900 0.822900
1.726100 0.812900
1.803200 0.821100
1.880300 0.839100
1.957500 0.840600
2.034600 0.847900
2.111700 0.853400
2.188900 0.946700
2.266000 0.969700
2.343100 0.991900
2.420200 0.996800
2.497400 0.997300
2.574500 0.995000
2.651600 0.998500
2.728800 1.001100
2.805900 1.004100
2.883000 1.041100
2.960200 1.021200
3.037300 0.979900
3.114400 0.947500
3.191500 0.863000
3.268700 0.760800
3.345800 0.657400
3.422900 0.534000
3.500100 0.592800
3.577200 0.666400
3.654300 0.892700
3.731500 1.286400
3.808600 1.301700
3.885700 1.221500
3.962800 1.079300
4.040000 0.920600
4.117100 0.843300
4.194200 0.825600
4.271400 0.824300
4.348500 0.772400
4.425600 0.899900
4.502800 0.981200
4.579900 0.970200
4.657000 1.005000
4.734100 1.116200
4.811300 1.187900
4.888400 1.214600
4.965500 1.246100
5.042700 1.223200
5.119800 1.191400
5.196900 1.210500
5.274100 1.236800
5.351200 1.307700
5.428300 1.456800
5.505400 1.410100
5.582600 1.443000
5.659700 1.452500
5.736800 1.366600
5.814000 1.171400
5.891100 1.180300
5.968200 1.174100
6.045400 1.368100
6.122500 1.259900
6.199600 1.289700
6.276700 1.177200
6.353900 1.229300
6.431000 1.369200
6.508100 1.634400
6.585300 1.336600
6.662400 1.120400
6.739500 1.006200
6.816700 0.921400
6.893800 0.841100
6.970900 0.820900
7.048000 0.800000
7.125200 0.783600
7.202300 0.732100
7.279400 0.737400
7.356600 0.750400
7.433700 0.748300
7.510800 0.712500
7.588000 0.771400
7.665100 0.737300
7.742200 0.731800
7.819300 0.775900
7.896500 0.881600
7.973600 1.026400
8.050700 1.111700
8.127900 1.289100
8.205000 1.141800
8.282100 1.015200
8.359300 0.965300
8.436400 0.894600
8.513500 0.834500
8.590600 0.791200
8.667800 0.750300
8.744900 0.716900
8.822000 0.682500
8.899200 0.648100
8.976300 0.638700
9.053400 0.674000
9.130600 0.767900
9.207700 0.756800
9.284800 0.738800
9.361900 0.703100
9.439100 0.685100
9.516200 0.678100
9.593300 0.675300
9.670500 0.676100
9.747600 0.672500
9.824700 0.676200
9.901900 0.682600
9.979000 0.694200
10.056100 0.702500
10.133200 0.705500
10.210400 0.721100
10.287500 0.743500
10.364600 0.750200
10.441800 0.752300
10.518900 0.759500
10.596000 0.771600
10.673200 0.803700
10.750300 0.880400
10.827400 0.945400
10.904500 1.008000
10.981700 1.072000
11.058800 1.237400
11.135900 1.213500
11.213100 1.249700
11.290200 1.263300
11.367300 1.265400
11.444500 1.262100
11.521600 1.069700
11.598700 0.972400
11.675800 0.895500
11.753000 0.827700
11.830100 0.779500
11.907200 0.726800
11.984400 0.671500
12.061500 0.629100
12.138600 0.601600
12.215800 0.361600
12.292900 0.355200
12.370000 0.355900
12.447100 0.356900
12.524300 0.357500
12.601400 0.357200
12.678500 0.359300
12.755700 0.367500
12.832800 0.370800
12.909900 0.367500
12.987100 0.367000
13.064200 0.367900
13.141300 0.370200
13.218400 0.374300
13.295600 0.385400
13.372700 0.431300
13.449800 0.448900
13.527000 0.453300
13.604100 0.530300
13.681200 0.525800
13.758400 0.485500
13.835500 0.460000
13.912600 0.433800
13.989700 0.417100
14.066900 0.403800
14.144000 0.389100
14.221100 0.372300
14.298300 0.357700
14.375400 0.346300
14.452500 0.336900
14.529700 0.327600
14.606800 0.317100
14.683900 0.309800
14.761000 0.302700
14.838200 0.293500
14.915300 0.283200
14.992400 0.279200
15.069600 0.241600
15.146700 0.207100
15.223800 0.187300
15.301000 0.164900
15.378100 0.152100
15.455200 0.136200
15.532300 0.119300
15.609500 0.101300
15.686600 0.093000
15.763700 0.140000
15.840900 0.240200
15.918000 0.371700
15.995100 0.502000
16.072300 0.521500
16.149400 0.497300
16.226500 0.479500
16.303600 0.452100
16.380800 0.460300
16.457900 0.466300
16.535000 0.472100
16.612200 0.480800
16.689300 0.498200
16.766400 0.502700
16.843600 0.496100
16.920700 0.469800
16.997800 0.460100
17.074900 0.480400
17.152100 0.468700
17.229200 0.452600
17.306300 0.465400
17.383500 0.396300
17.460600 0.391100
17.537700 0.388300
17.614900 0.380600
17.692000 0.372300
17.769100 0.365500
17.846200 0.371700
17.923400 0.377100
18.000500 0.388400
18.077600 0.379700
18.154800 0.365600
18.231900 0.356800
18.309000 0.354800
18.386200 0.355700
18.463300 0.373800
18.540400 0.388600
18.617500 0.406300
18.694700 0.433300
18.771800 0.442000
18.848900 0.421200
18.926100 0.435000
19.003200 0.398500
19.080300 0.371100
19.157500 0.375500
19.234600 0.381100
19.311700 0.379200
19.388800 0.375500
19.466000 0.382100
19.543100 0.379700
19.620200 0.379800
19.697400 0.396500
19.774500 0.420400
19.851600 0.440400
19.928800 0.456400
20.005900 0.469200
20.083000 0.484400
20.160100 0.503400
20.237300 0.525800
20.314400 0.545000
20.391500 0.547000
20.468700 0.550800
20.545800 0.557200
20.622900 0.571700
20.700100 0.567000
20.777200 0.565500
20.854300 0.571600
20.931400 0.578300
21.008600 0.586900
21.085700 0.597200
21.162800 0.608900
21.240000 0.623300
21.317100 0.643200
21.394200 0.657300
21.471400 0.697600
21.548500 0.687400
21.625600 0.696700
21.702800 0.712700
21.779900 0.732700
21.857000 0.770100
21.934100 0.815400
22.011300 0.857200
22.088400 0.942800
22.165500 0.982900
22.242700 0.959400
22.319800 0.906900
22.396900 0.872300
22.474100 0.860800
22.551200 0.834800
22.628300 0.800800
22.705400 0.798100
22.782600 0.844800
22.859700 0.820000
22.936800 0.804600
23.014000 0.803700
23.091100 0.818200
23.168200 0.824000
23.245400 0.882100
23.322500 0.921200
23.399600 0.859300
23.476700 0.849800
23.553900 0.873300
23.631000 0.938800
23.708100 1.074900
23.785300 1.180900
23.862400 1.000600
23.939500 0.886700
24.016700 0.807000
24.093800 0.754600
24.170900 0.720100
24.248000 0.701900
24.325200 0.680800
24.402300 0.657800
24.479400 0.627200
24.556600 0.573800
24.633700 0.541900
24.710800 0.514800
24.788000 0.452800
24.865100 0.411300
24.942200 0.379800
25.019300 0.358700
25.096500 0.339400
25.173600 0.312600
25.250700 0.296600
25.327900 0.299700
25.405000 0.329100
25.482100 0.336100
25.559300 0.404400
25.636400 0.463300
25.713500 0.459600
25.790600 0.509800
25.867800 0.567800
25.944900 0.758300
26.022000 0.731000
26.099200 0.696300
26.176300 0.721900
26.253400 0.683100
26.330600 0.693600
26.407700 0.673500
26.484800 0.652800
26.561900 0.637900
26.639100 0.633600
26.716200 0.640600
26.793300 0.649200
26.870500 0.655000
26.947600 0.659800
27.024700 0.665800
27.101900 0.676200
27.179000 0.685100
27.256100 0.697100
27.333200 0.713100
27.410400 0.734900
27.487500 0.765200
27.564600 0.806200
27.641800 0.886700
27.718900 0.934200
27.796000 0.928800
27.873200 0.918800
27.950300 0.859100
28.027400 0.822200
28.104500 0.821200
28.181700 0.763400
28.258800 0.737200
28.335900 0.715600
28.413100 0.702100
28.490200 0.629500
28.567300 0.578400
28.644500 0.527500
28.721600 0.457800
28.798700 0.397800
28.875800 0.359200
28.953000 0.316200
29.030100 0.290600
29.107200 0.269000
29.184400 0.249600
29.261500 0.239800
29.338600 0.246400
29.415800 0.238100
29.492900 0.230800
29.570000 0.224400
29.647100 0.225100
29.724300 0.235300
29.801400 0.258900
29.878500 0.311400
29.955700 0.341100
30.032800 0.305100
30.109900 0.317400
30.187100 0.332600
30.264200 0.348700
30.341300 0.367100
30.418400 0.385300
30.495600 0.403500
30.572700 0.422500
30.649800 0.442300
30.727000 0.462700
30.804100 0.503800
30.881200 0.527800
30.958400 0.531900
31.035500 0.570600
31.112600 0.602800
31.189700 0.652300
31.266900 0.729500
31.344000 0.789100
31.421100 0.755000
31.498300 0.752700
31.575400 0.789700
31.652500 0.816400
31.729700 0.775700
31.806800 0.768100
31.883900 0.763900
31.961000 0.717500
32.038200 0.695200
32.115300 0.704700
32.192400 0.663000
32.269600 0.646100
32.346700 0.644400
32.423800 0.651800
32.501000 0.690900
32.578100 0.622900
32.655200 0.609600
32.732300 0.617000
32.809500 0.609300
32.886600 0.595500
32.963700 0.582700
33.040900 0.567600
33.118000 0.561800
33.195100 0.564900
33.272300 0.567300
33.349400 0.564700
33.426500 0.563700
33.503600 0.578000
33.580800 0.586500
33.657900 0.597200
33.735000 0.607900
33.812200 0.622100
33.889300 0.642300
33.966400 0.669600
34.043600 0.708900
34.120700 0.776200
34.197800 0.920900
34.274900 0.983700
34.352100 1.106600
34.429200 1.091200
34.506300 1.077100
34.583500 1.043000
34.660600 1.009600
34.737700 0.980100
34.814900 0.980100
34.892000 0.971200
34.969100 0.975900
35.046200 0.984400
35.123400 0.982900
35.200500 1.025900
35.277600 1.088900
35.354800 1.124300
35.431900 1.129600
35.509000 1.168500
35.586200 1.220700
35.663300 1.277000
35.740400 1.338900
35.817500 1.431500
35.894700 1.201300
35.971800 1.030600
36.048900 0.898200
36.126100 0.815800
36.203200 0.751300
36.280300 0.741100
36.357500 0.730300
36.434600 0.745100
36.511700 0.721100
36.588800 0.713800
36.666000 0.705300
36.743100 0.689700
36.820200 0.692700
36.897400 0.712400
36.974500 0.792300
37.051600 0.882500
37.128800 0.977000
37.205900 1.166200
37.283000 1.422900
37.360100 1.881100
37.437300 1.001300
37.514400 0.903300
37.591500 1.050700
37.668700 1.387700
37.745800 2.056400
37.822900 2.191100
37.900100 2.151900
37.977200 2.272300
38.054300 2.895600
38.131400 3.650500
38.208600 1.655100
38.285700 1.283200
38.362800 1.162300
38.440000 0.924400
38.517100 0.808600
38.594200 0.745600
38.671400 0.690500
38.748500 0.652800
38.825600 0.639800
38.902700 0.651400
38.979900 0.664600
39.057000 0.673900
39.134100 0.725900
39.211300 0.846200
39.288400 0.870500
39.365500 0.764200
39.442700 0.734500
39.519800 0.725500
39.596900 0.737000
39.674000 0.766000
39.751200 0.799300
39.828300 0.864900
39.905400 0.959000
39.982600 1.028700
40.059700 1.030100
40.136800 1.245000
40.214000 1.038400
40.291100 0.907900
40.368200 0.820500
40.445300 0.768200
40.522500 0.687600
40.599600 0.631100
40.676700 0.592100
40.753900 0.564700
40.831000 0.609500
40.908100 0.660500
40.985300 0.699700
41.062400 0.791900
41.139500 0.816700
41.216600 0.811800
41.293800 0.810300
41.370900 0.815500
41.448000 0.777500
41.525200 0.771300
41.602300 0.760800
41.679400 0.761600
41.756600 0.754300
41.833700 0.772000
41.910800 0.765800
41.987900 0.753100
42.065100 0.759600
42.142200 0.801500
42.219300 0.813800
42.296500 0.842300
42.373600 0.868400
42.450700 0.891000
42.527900 0.905600
42.605000 0.936600
42.682100 0.972000
42.759200 1.005800
42.836400 0.998300
42.913500 0.861200
42.990600 0.817900
43.067800 0.865300
43.144900 0.818000
43.222000 0.840800
43.299200 0.857000
43.376300 0.871600
43.453400 0.842700
43.530500 0.811600
43.607700 0.816400
43.684800 0.806200
43.761900 0.815900
43.839100 0.847100
43.916200 0.881200
43.993300 0.911700
44.070500 0.950500
44.147600 0.962800
44.224700 0.905900
44.301800 0.883800
44.379000 0.860200
44.456100 0.833800
44.533200 0.805300
44.610400 0.759700
44.687500 0.740600
44.764600 0.727400
44.841800 0.726300
44.918900 0.751700
44.996000 0.789300
45.073100 0.813000
45.150300 0.834600
45.227400 0.850800
45.304500 0.850300
45.381700 0.856600
45.458800 0.857300
45.535900 0.847000
45.613100 0.837600
45.690200 0.827000
45.767300 0.868600
45.844400 0.918500
45.921600 1.001900
45.998700 1.089100
46.075800 0.809200
46.153000 0.559500
46.230100 0.373800
46.307200 0.329600
46.384400 0.414600
46.461500 0.511100
46.538600 0.633900
46.615700 0.726900
46.692900 0.798400
46.770000 0.894900
46.847100 0.952400
46.924300 0.989500
47.001400 1.016500
47.078500 1.023400
47.155700 1.015100
47.232800 0.997900
47.309900 0.969200
47.387000 0.942100
47.464200 0.893900
47.541300 0.859000
47.618400 0.841100
47.695600 0.816100
47.772700 0.795400
47.849800 0.778600
47.927000 0.695900
48.004100 0.650700
48.081200 0.647100
48.158300 0.654300
48.235500 0.659500
48.312600 0.659600
48.389700 0.649400
48.466900 0.628800
48.544000 0.619800
48.621100 0.646800
48.698300 0.688800
48.775400 0.752200
48.852500 0.776400
48.929600 0.779500
49.006800 0.829100
49.083900 0.889000
49.161000 0.945300
49.238200 0.976900
49.315300 0.986500
49.392400 0.982000
49.469600 0.989500
49.546700 1.003600
49.623800 1.021200
49.700900 1.020300
49.778100 1.033300
49.855200 1.085200
49.932300 1.063400
50.009500 0.990500
50.086600 0.932600
50.163700 0.889800
50.240900 0.865300
50.318000 0.840400
50.395100 0.806000
50.472200 0.772400
50.549400 0.762800
50.626500 0.740800
50.703600 0.725500
50.780800 0.715700
50.857900 0.705700
50.935000 0.710100
51.012200 0.682000
51.089300 0.621800
51.166400 0.567000
51.243500 0.559000
51.320700 0.564200
51.397800 0.590000
51.474900 0.603900
51.552100 0.648800
51.629200 0.704600
51.706300 0.749500
51.783500 0.811100
51.860600 0.894100
51.937700 0.907600
52.014800 0.904900
52.092000 0.897600
52.169100 0.857300
52.246200 0.827700
52.323400 0.816900
52.400500 0.821100
52.477600 0.825900
52.554800 0.835000
52.631900 0.864100
52.709000 0.891500
52.786100 0.915100
52.863300 0.909200
52.940400 0.888300
53.017500 0.913900
53.094700 0.982300
53.171800 1.031100
53.248900 0.925800
53.326100 0.905500
53.403200 0.897400
53.480300 0.899000
53.557400 0.921500
53.634600 0.933900
53.711700 1.079400
53.788800 0.966700
53.866000 0.974200
53.943100 0.976800
54.020200 0.973900
54.097400 0.958500
54.174500 0.939800
54.251600 0.950900
54.328700 0.938300
54.405900 0.903300
54.483000 0.895400
54.560100 0.893500
54.637300 0.888900
54.714400 0.897200
54.791500 0.881900
54.868700 0.863600
54.945800 0.835600
55.022900 0.805600
55.100000 0.794200
55.177200 0.742800
55.254300 0.712100
55.331400 0.684200
55.408600 0.618500
55.485700 0.594200
55.562800 0.600800
55.640000 0.620500
55.717100 0.663900
55.794200 0.707900
55.871300 0.782500
55.948500 0.858000
56.025600 0.918600
56.102700 0.990000
56.179900 1.017300
56.257000 0.977600
56.334100 0.990300
56.411300 1.070700
56.488400 0.989800
56.565500 0.972000
56.642600 0.957400
56.719800 0.927400
56.796900 0.880400
56.874000 0.835200
56.951200 0.816600
57.028300 0.803600
57.105400 0.788700
57.182600 0.786200
57.259700 0.803200
57.336800 0.860700
57.413900 0.842400
57.491100 0.864300
57.568200 0.892100
57.645300 0.924500
57.722500 0.921000
57.799600 0.921700
57.876700 0.921100
57.953900 0.926500
58.031000 0.933200
58.108100 0.907100
58.185200 0.866700
58.262400 0.870700
58.339500 0.864300
58.416600 0.860800
58.493800 0.838200
58.570900 0.788200
58.648000 0.769900
58.725200 0.773000
58.802300 0.778100
58.879400 0.788400
58.956500 0.811700
59.033700 0.867700
59.110800 0.858000
59.187900 0.866400
59.265100 0.870400
59.342200 0.903800
59.419300 0.909600
59.496500 0.889900
59.573600 0.916500
59.650700 0.944600
59.727800 1.090800
59.805000 1.042000
59.882100 1.029200
59.959200 0.999000
60.036400 0.946600
60.113500 0.910000
60.190600 0.882400
60.267800 0.874400
60.344900 0.859200
60.422000 0.847000
60.499100 0.845300
60.576300 0.845700
60.653400 0.860800
60.730500 0.824500
60.807700 0.808800
60.884800 0.864200
60.961900 0.812300
61.039100 0.792300
61.116200 0.781800
61.193300 0.778300
61.270400 0.786700
61.347600 0.812900
61.424700 0.850500
61.501800 0.882100
61.579000 0.918600
61.656100 0.943200
61.733200 0.961000
61.810400 0.972800
61.887500 1.036000
61.964600 1.016300
62.041700 0.994600
62.118900 0.998500
62.196000 1.001700
62.273100 1.024400
62.350300 1.041100
62.427400 1.040300
62.504500 1.023800
62.581700 0.999500
62.658800 0.983800
62.735900 0.985800
62.813000 0.979500
62.890200 0.977200
62.967300 0.971000
63.044400 1.001900
63.121600 0.993800
63.198700 0.991100
63.275800 0.958000
63.353000 0.926300
63.430100 0.947800
63.507200 0.939300
63.584300 0.937900
63.661500 0.951500
63.738600 0.955600
63.815700 0.928100
63.892900 0.909000
63.970000 0.887700
64.047100 0.860500
64.124300 0.880400
64.201400 0.852600
64.278500 0.841900
64.355600 0.828800
64.432800 0.848700
64.509900 0.846500
64.587000 0.834400
64.664200 0.838600
64.741300 0.831400
64.818400 0.837200
64.895600 0.847300
64.972700 0.839100
65.049800 0.835500
65.126900 0.845100
65.204100 0.883400
65.281200 0.985400
65.358300 1.012400
65.435500 1.017900
65.512600 1.023800
65.589700 1.012200
65.666900 0.971800
65.744000 0.967500
65.821100 0.974800
65.898200 0.931800
65.975400 0.895500
66.052500 0.908000
66.129600 0.919200
66.206800 0.936500
66.283900 0.970700
66.361000 0.994700
66.438200 1.018100
66.515300 1.023200
66.592400 1.039300
66.669500 1.059200
66.746700 1.082800
66.823800 1.105400
66.900900 1.094300
66.978100 1.069000
67.055200 1.063800
67.132300 1.051900
67.209500 1.048200
67.286600 1.028900
67.363700 1.060500
67.440800 1.018400
67.518000 0.975500
67.595100 0.949600
67.672200 0.951500
67.749400 0.955000
67.826500 0.973200
67.903600 1.058100
67.980800 1.061400
68.057900 1.057900
68.135000 1.065600
68.212100 1.033200
68.289300 1.005300
68.366400 1.014500
68.443500 1.044400
68.520700 1.012000
68.597800 1.014300
68.674900 0.994700
68.752100 1.001500
68.829200 0.953300
68.906300 0.917400
68.983400 0.902600
69.060600 0.887300
69.137700 0.882200
69.214800 0.835600
69.292000 0.805100
69.369100 0.744900
69.446200 0.737700
69.523400 0.728300
69.600500 0.728600
69.677600 0.732500
69.754700 0.747400
69.831900 0.753000
69.909000 0.758400
69.986100 0.778300
70.063300 0.814100
70.140400 0.826000
70.217500 0.865100
70.294700 0.899500
70.371800 0.912800
70.448900 0.895100
70.526000 0.906000
70.603200 0.922500
70.680300 0.940700
70.757400 0.961600
70.834600 1.058300
70.911700 1.047700
70.988800 1.095100
71.066000 1.113100
71.143100 1.070600
71.220200 1.066000
71.297300 1.050600
71.374500 1.037300
71.451600 1.025400
71.528700 1.001000
71.605900 1.050100
71.683000 1.025800
71.760100 0.960400
71.837300 0.888100
71.914400 0.835700
71.991500 0.793400
72.068600 0.789100
72.145800 0.789700
72.222900 0.800400
72.300000 0.787600
72.377200 0.760800
72.454300 0.751600
72.531400 0.797300
72.608600 0.752000
72.685700 0.796700
72.762800 0.800000
72.839900 0.817400
72.917100 0.843000
72.994200 0.923300
73.071300 0.963500
73.148500 0.993100
73.225600 0.984000
73.302700 0.987400
73.379900 1.001900
73.457000 1.022500
73.534100 1.020200
73.611200 1.026200
73.688400 1.015800
73.765500 0.977900
73.842600 0.973000
73.919800 0.968000
73.996900 0.975700
74.074000 1.026100
74.151200 1.051700
74.228300 1.064500
74.305400 1.055900
74.382500 1.044100
74.459700 1.094500
74.536800 1.116400
74.613900 1.085000
74.691100 1.038500
74.768200 1.007300
74.845300 1.003500
74.922500 1.059600
74.999600 1.114400
75.076700 1.167400
75.153800 1.120600
75.231000 1.071000
75.308100 1.047400
75.385200 1.024600
75.462400 1.005700
75.539500 1.017600
75.616600 1.063900
75.693800 1.111200
75.770900 1.129100
75.848000 1.157000
75.925100 1.180700
76.002300 1.143100
76.079400 1.107500
76.156500 1.098800
76.233700 1.066500
76.310800 1.041200
76.387900 1.012500
76.465100 0.993900
76.542200 0.965200
76.619300 0.920300
76.696400 0.891400
76.773600 0.889200
76.850700 0.935900
76.927800 0.935100
77.005000 0.936500
77.082100 0.951900
77.159200 0.996800
77.236400 1.006400
77.313500 1.010700
77.390600 1.027700
77.467700 1.017700
77.544900 1.005900
77.622000 1.028000
77.699100 1.040200
77.776300 1.072700
77.853400 1.126600
77.930500 1.175300
78.007700 1.166800
78.084800 1.158600
78.161900 1.093200
78.239000 1.072500
78.316200 1.084400
78.393300 1.109800
78.470400 1.136500
78.547600 1.119700
78.624700 1.102600
78.701800 1.086800
78.779000 1.031000
78.856100 0.970700
78.933200 0.930800
79.010300 0.949500
79.087500 0.978700
79.164600 0.975400
79.241700 0.935100
79.318900 0.919600
79.396000 0.912600
79.473100 0.884500
79.550300 0.862200
79.627400 0.841500
79.704500 0.821400
79.781600 0.815000
79.858800 0.797500
79.935900 0.801000
80.013000 0.837200
80.090200 0.893700
80.167300 0.956500
80.244400 1.010800
80.321600 1.053200
80.398700 1.050700
80.475800 1.094600
80.552900 1.175000
80.630100 1.160400
80.707200 1.199900
80.784300 1.210100
80.861500 1.154800
80.938600 1.120500
81.015700 1.098500
81.092900 1.076800
81.170000 1.028400
81.247100 1.003700
81.324200 0.970000
81.401400 0.938500
81.478500 0.915200
81.555600 0.884000
81.632800 0.853700
81.709900 0.837900
81.787000 0.836200
81.864200 0.846400
81.941300 0.940000
82.018400 0.939700
82.095500 0.992700
82.172700 1.089900
82.249800 1.141100
82.326900 1.137900
82.404100 1.159900
82.481200 1.206600
82.558300 1.166100
82.635500 1.108200
82.712600 1.084100
82.789700 1.085700
82.866800 1.102300
82.944000 1.094800
83.021100 1.095500
83.098200 1.091700
83.175400 1.094200
83.252500 1.098600
83.329600 1.105100
83.406800 1.054700
83.483900 1.024100
83.561000 0.999300
83.638100 0.983300
83.715300 0.975700
83.792400 0.968800
83.869500 0.958000
83.946700 0.949700
84.023800 0.952000
84.100900 0.961600
84.178100 0.963400
84.255200 0.941700
84.332300 0.918700
84.409400 0.915500
84.486600 0.942800
84.563700 0.982100
84.640800 0.992100
84.718000 1.016400
84.795100 1.048600
84.872200 1.091400
84.949400 1.100300
85.026500 1.104300
85.103600 1.119800
85.180700 1.140500
85.257900 1.179300
85.335000 1.169200
85.412100 1.142200
85.489300 1.121000
85.566400 1.073900
85.643500 1.042300
85.720700 1.048700
85.797800 1.079100
85.874900 1.043400
85.952000 1.022100
86.029200 0.997200
86.106300 0.965600
86.183400 0.911700
86.260600 0.874100
86.337700 0.914400
86.414800 0.899000
86.492000 0.883600
86.569100 0.868600
86.646200 0.891200
86.723300 0.926200
86.800500 0.969400
86.877600 1.048200
86.954700 1.153800
87.031900 1.202600
87.109000 1.367500
87.186100 1.206000
87.263300 1.183900
87.340400 1.154200
87.417500 1.126000
87.494600 1.094000
87.571800 1.057000
87.648900 1.039100
87.726000 1.063500
87.803200 1.007500
87.880300 0.997800
87.957400 0.999900
88.034600 1.007200
88.111700 1.024100
88.188800 1.047400
88.265900 1.063000
88.343100 1.075400
88.420200 1.073500
88.497300 1.076700
88.574500 1.066900
88.651600 1.031100
88.728700 1.009800
88.805900 1.012900
88.883000 1.042700
88.960100 1.036700
89.037200 1.041100
89.114400 1.039800
89.191500 1.019800
89.268600 1.009800
89.345800 1.021200
89.422900 1.021100
89.500000 1.008100
89.577200 0.990700
89.654300 0.966900
89.731400 0.954700
89.808500 0.960600
89.885700 0.956900
89.962800 0.945400
90.039900 0.959300
90.117100 1.010600
90.194200 1.103600
90.271300 1.154900
90.348500 1.212500
90.425600 1.231500
90.502700 1.257600
90.579800 1.253600
90.657000 1.246500
90.734100 1.245700
90.811200 1.244200
90.888400 1.223000
90.965500 1.198200
91.042600 1.176600
91.119800 1.145900
91.196900 1.115700
91.274000 1.101300
91.351100 1.085700
91.428300 1.098000
91.505400 1.133300
91.582500 1.167000
91.659700 1.232000
91.736800 1.208000
91.813900 1.189700
91.891100 1.189700
91.968200 1.173300
92.045300 1.134100
92.122400 1.089600
92.199600 1.051500
92.276700 1.027300
92.353800 1.016300
92.431000 1.016200
92.508100 1.041800
92.585200 1.041800
92.662400 1.011800
92.739500 1.010400
92.816600 1.022700
92.893700 1.042000
92.970900 1.062100
93.048000 0.996300
93.125100 0.966800
93.202300 0.964700
93.279400 0.971900
93.356500 0.976900
93.433700 0.999000
93.510800 0.987600
93.587900 0.995400
93.665000 1.021200
93.742200 1.063000
93.819300 1.085400
93.896400 1.031400
93.973600 0.993900
94.050700 0.982800
94.127800 0.975100
94.205000 0.973000
94.282100 0.966500
94.359200 0.973300
94.436300 0.988600
94.513500 1.017000
94.590600 1.061700
94.667700 1.073900
94.744900 1.044500
94.822000 1.031900
94.899100 1.055300
94.976300 1.097400
95.053400 1.137000
95.130500 1.182500
95.207600 1.216600
95.284800 1.273300
95.361900 1.278900
95.439000 1.273600
95.516200 1.285700
95.593300 1.304400
95.670400 1.299900
95.747600 1.286400
95.824700 1.242800
95.901800 1.193300
95.978900 1.146000
96.056100 1.104800
96.133200 1.067300
96.210300 1.021800
96.287500 0.979300
96.364600 0.961500
96.441700 0.964200
96.518900 0.965000
96.596000 0.963900
96.673100 0.966900
96.750200 0.971400
96.827400 0.978900
96.904500 0.989400
96.981600 0.987700
97.058800 0.977600
97.135900 0.948400
97.213000 0.928300
97.290200 0.919700
97.367300 0.894700
97.444400 0.890600
97.521500 0.901000
97.598700 0.902700
97.675800 0.888300
97.752900 0.867400
97.830100 0.850200
97.907200 0.859600
97.984300 0.875400
98.061500 0.895600
98.138600 0.917500
98.215700 0.942800
98.292800 0.971700
98.370000 1.011500
98.447100 1.030800
98.524200 1.041800
98.601400 1.044800
98.678500 1.052600
98.755600 1.052000
98.832800 1.058300
98.909900 1.064600
98.987000 1.056900
99.064100 1.043900
99.141300 1.030800
99.218400 1.038800
99.295500 1.059900
99.372700 0.992500
99.449800 0.963300
99.526900 0.953300
99.604100 0.964300
99.681200 1.006400
99.758300 1.064700
99.835400 1.117900
99.912600 1.121300
99.989700 1.083300
100.066800 1.091500
100.144000 1.118400
100.221100 1.114200
100.298200 1.053600
100.375400 1.049300
100.452500 1.083100
100.529600 1.099100
100.606700 1.100500
100.683900 1.089300
100.761000 1.081900
100.838100 1.062000
100.915300 1.045800
100.992400 1.022900
101.069500 0.986000
101.146700 0.971200
101.223800 0.982500
101.300900 0.977600
101.378000 0.956200
101.455200 0.925800
101.532300 0.900000
101.609400 0.868600
101.686600 0.841100
101.763700 0.819100
101.840800 0.806000
101.918000 0.817200
101.995100 0.800500
102.072200 0.790900
102.149300 0.777200
102.226500 0.798700
102.303600 0.804800
102.380700 0.795900
102.457900 0.821400
102.535000 0.835900
102.612100 0.853700
102.689300 0.862300
102.766400 0.872700
102.843500 0.886400
102.920600 0.906000
102.997800 0.920300
103.074900 0.915900
103.152000 0.892600
103.229200 0.854200
103.306300 0.823900
103.383400 0.805000
103.460600 0.795700
103.537700 0.765000
103.614800 0.722600
103.691900 0.673300
103.769100 0.641900
103.846200 0.604900
103.923300 0.568600
104.000500 0.549600
104.077600 0.553600
104.154700 0.535600
104.231900 0.501300
104.309000 0.469800
104.386100 0.440700
104.463200 0.414300
104.540400 0.391300
104.617500 0.372100
104.694600 0.357800
104.771800 0.344500
104.848900 0.328500
104.926000 0.313600
105.003200 0.300000
105.080300 0.294000
105.157400 0.260200
105.234500 0.233100
105.311700 0.202300
105.388800 0.172700
105.465900 0.154100
105.543100 0.143300
105.620200 0.133400
105.697300 0.123900
105.774500 0.114500
105.851600 0.105300
105.928700 0.095900
106.005800 0.082700
106.083000 0.069100
106.160100 0.062000
106.237200 0.056800
106.314400 0.053100
106.391500 0.049900
106.468600 0.047100
106.545800 0.044900
106.622900 0.043400
106.700000 0.042000
106.777100 0.035000
106.854300 0.031600
106.931400 0.029300
107.008500 0.027300
107.085700 0.024900
107.162800 0.022200
107.239900 0.019700
107.317100 0.017500
107.394200 0.015700
107.471300 0.019500
107.548400 0.021300
107.625600 0.007900
107.702700 0.006500
107.779800 0.005300
107.857000 0.004200
107.934100 0.003200
108.011200 0.002400
108.088400 0.001700
108.165500 0.001100
108.242600 0.000600
108.319700 0.000300
108.396900 0.000100
108.474000 0.000000
108.551100 0.000000
108.628300 0.000000
108.705400 0.000000
108.782500 0.000000
108.859700 0.000000
108.936800 0.000000
109.013900 0.000000
109.091000 0.000000
109.168200 0.000000
109.245300 0.000000
109.322400 0.000000
109.399600 0.000000
109.476700 0.000000
109.553800 0.000000
109.631000 0.000000
109.708100 0.000000
109.785200 0.000000
109.862300 0.000000
109.939500 0.000000
110.016600 0.000000
110.093700 0.000000
110.170900 0.000000
110.248000 0.000000
110.325100 0.000000
110.402300 0.000000
110.479400 0.000000
110.556500 0.000000
110.633600 0.000000
110.710800 0.000000
110.787900 0.000000
110.865000 0.000000
110.942200 0.000000
111.019300 0.000000
111.096400 0.000000
111.173600 0.000000
111.250700 0.000000
111.327800 0.000000
111.404900 0.000000
111.482100 0.000000
111.559200 0.000000
111.636300 0.000000
111.713500 0.000000
111.790600 0.000000
111.867700 0.000000
111.944900 0.000000
112.022000 0.000000
112.099100 0.000000
112.176200 0.000000
112.253400 0.000000
112.330500 0.000000
112.407600 0.000000
112.484800 0.000000
112.561900 0.000000
112.639000 0.000000
112.716200 0.000000
112.793300 0.000000
112.870400 0.000000
112.947500 0.000000
113.024700 0.000000
113.101800 0.000000
113.178900 0.000000
113.256100 0.000000
113.333200 0.000000
113.410300 0.000000
113.487500 0.000000
113.564600 0.000000
113.641700 0.000000
113.718800 0.000000
113.796000 0.000000
113.873100 0.000000
113.950200 0.000000
114.027400 0.000000
114.104500 0.000000
114.181600 0.000000
114.258800 0.000000
114.335900 0.000000
114.413000 0.000000
114.490100 0.000000
114.567300 0.000000
114.644400 0.000000
114.721500 0.000000
114.798700 0.000000
114.875800 0.000000
114.952900 0.000000
115.030100 0.000000
115.107200 0.000000
115.184300 0.000000
115.261400 0.000000
115.338600 0.000000
115.415700 0.000000
115.492800 0.000000
e
