set title 'mp-1224025 - Density of States'
set xlabel 'Energy (eV)'
set ylabel 'DOS (states/eV)'
set grid
set xrange [-10:10]
set yrange [0:129.680]
set xzeroaxis lt -1
set terminal png size 800,600
set output 'mp-1224025_dos_gnuplot.png'
plot '-' using 1:2 with lines title 'DOS'
-16.243900 0.000000
-16.222400 0.000000
-16.200800 0.000000
-16.179300 0.000000
-16.157700 0.000000
-16.136200 0.000000
-16.114600 0.000000
-16.093100 0.000000
-16.071500 0.000000
-16.050000 0.000000
-16.028400 0.000000
-16.006900 0.000000
-15.985400 0.000000
-15.963800 0.000000
-15.942300 0.000000
-15.920700 0.000000
-15.899200 0.000000
-15.877600 0.000000
-15.856100 0.000000
-15.834500 0.000000
-15.813000 0.000000
-15.791400 0.000000
-15.769900 0.000000
-15.748300 0.000000
-15.726800 0.000000
-15.705200 0.000000
-15.683700 0.000000
-15.662200 0.000000
-15.640600 0.000000
-15.619100 0.000000
-15.597500 0.000000
-15.576000 0.000000
-15.554400 0.000000
-15.532900 0.000000
-15.511300 0.000000
-15.489800 0.000000
-15.468200 0.000000
-15.446700 0.000000
-15.425100 0.000000
-15.403600 0.000000
-15.382000 0.000000
-15.360500 0.000000
-15.338900 0.000000
-15.317400 0.000000
-15.295900 0.000000
-15.274300 0.000000
-15.252800 0.000000
-15.231200 0.000000
-15.209700 0.000000
-15.188100 0.000000
-15.166600 0.000000
-15.145000 0.000000
-15.123500 0.000000
-15.101900 0.000000
-15.080400 0.000000
-15.058800 0.000000
-15.037300 0.000000
-15.015700 0.000000
-14.994200 0.000000
-14.972700 0.000000
-14.951100 0.000000
-14.929600 0.000000
-14.908000 0.000000
-14.886500 0.000000
-14.864900 0.000000
-14.843400 0.000000
-14.821800 0.000000
-14.800300 0.000000
-14.778700 0.000000
-14.757200 0.000000
-14.735600 0.000000
-14.714100 0.000000
-14.692500 0.000000
-14.671000 0.000000
-14.649500 0.000000
-14.627900 0.000000
-14.606400 0.000000
-14.584800 0.000000
-14.563300 0.000000
-14.541700 0.000000
-14.520200 0.000000
-14.498600 0.000000
-14.477100 0.000000
-14.455500 0.000000
-14.434000 0.000000
-14.412400 0.000000
-14.390900 0.000000
-14.369300 0.000000
-14.347800 0.000000
-14.326200 0.000000
-14.304700 0.000000
-14.283200 4.005800
-14.261600 26.432900
-14.240100 21.492900
-14.218500 30.430600
-14.197000 75.095600
-14.175400 50.439800
-14.153900 103.890900
-14.132300 110.686000
-14.110800 14.535400
-14.089200 23.977100
-14.067700 6.944400
-14.046100 0.000000
-14.024600 0.000000
-14.003000 0.000000
-13.981500 0.000000
-13.960000 0.000000
-13.938400 0.000000
-13.916900 0.000000
-13.895300 0.000000
-13.873800 0.000000
-13.852200 0.000000
-13.830700 0.000000
-13.809100 0.000000
-13.787600 0.000000
-13.766000 0.000000
-13.744500 0.000000
-13.722900 0.000000
-13.701400 0.000000
-13.679800 0.000000
-13.658300 0.000000
-13.636800 0.000000
-13.615200 0.000000
-13.593700 0.000000
-13.572100 0.000000
-13.550600 0.000000
-13.529000 0.000000
-13.507500 0.000000
-13.485900 0.000000
-13.464400 0.000000
-13.442800 0.000000
-13.421300 0.000000
-13.399700 0.000000
-13.378200 0.000000
-13.356600 0.000000
-13.335100 0.000000
-13.313500 0.000000
-13.292000 0.000000
-13.270500 0.000000
-13.248900 0.000000
-13.227400 0.000000
-13.205800 0.000000
-13.184300 0.000000
-13.162700 0.000000
-13.141200 0.000000
-13.119600 0.000000
-13.098100 0.000000
-13.076500 0.000000
-13.055000 0.000000
-13.033400 0.000000
-13.011900 0.000000
-12.990300 0.000000
-12.968800 0.000000
-12.947300 0.000000
-12.925700 0.000000
-12.904200 0.000000
-12.882600 0.000000
-12.861100 0.000000
-12.839500 0.000000
-12.818000 0.000000
-12.796400 0.000000
-12.774900 0.000000
-12.753300 0.000000
-12.731800 0.000000
-12.710200 0.000000
-12.688700 0.000000
-12.667100 0.000000
-12.645600 0.000000
-12.624100 0.000000
-12.602500 0.000000
-12.581000 0.000000
-12.559400 0.000000
-12.537900 0.000000
-12.516300 0.000000
-12.494800 0.000000
-12.473200 0.000000
-12.451700 0.000000
-12.430100 0.000000
-12.408600 0.000000
-12.387000 0.000000
-12.365500 0.000000
-12.343900 0.000000
-12.322400 0.000000
-12.300800 0.000000
-12.279300 0.000000
-12.257800 0.000000
-12.236200 0.000000
-12.214700 0.000000
-12.193100 0.000000
-12.171600 0.000000
-12.150000 0.000000
-12.128500 0.000000
-12.106900 0.000000
-12.085400 0.000000
-12.063800 0.000000
-12.042300 0.000000
-12.020700 0.000000
-11.999200 0.000000
-11.977600 0.000000
-11.956100 0.000000
-11.934600 0.000000
-11.913000 0.000000
-11.891500 0.000000
-11.869900 0.000000
-11.848400 0.000000
-11.826800 0.000000
-11.805300 0.000000
-11.783700 0.000000
-11.762200 0.000000
-11.740600 0.000000
-11.719100 0.000000
-11.697500 0.000000
-11.676000 0.000000
-11.654400 0.000000
-11.632900 0.000000
-11.611400 0.000000
-11.589800 0.000000
-11.568300 0.000000
-11.546700 0.000000
-11.525200 0.000000
-11.503600 0.000000
-11.482100 0.000000
-11.460500 0.000000
-11.439000 0.000000
-11.417400 0.000000
-11.395900 0.000000
-11.374300 0.000000
-11.352800 0.000000
-11.331200 0.000000
-11.309700 0.000000
-11.288100 0.000000
-11.266600 0.000000
-11.245100 0.000000
-11.223500 0.000000
-11.202000 0.000000
-11.180400 0.000000
-11.158900 0.000000
-11.137300 0.000000
-11.115800 0.000000
-11.094200 0.000000
-11.072700 0.000000
-11.051100 0.000000
-11.029600 0.000000
-11.008000 0.000000
-10.986500 0.000000
-10.964900 0.000000
-10.943400 0.000000
-10.921900 0.000000
-10.900300 0.000000
-10.878800 0.000000
-10.857200 0.000000
-10.835700 0.000000
-10.814100 0.000000
-10.792600 0.000000
-10.771000 0.000000
-10.749500 0.000000
-10.727900 0.000000
-10.706400 0.000000
-10.684800 0.000000
-10.663300 0.000000
-10.641700 0.000000
-10.620200 0.000000
-10.598600 0.000000
-10.577100 0.000000
-10.555600 0.000000
-10.534000 0.000000
-10.512500 0.000000
-10.490900 0.000000
-10.469400 0.000000
-10.447800 0.000000
-10.426300 0.000000
-10.404700 0.000000
-10.383200 0.000000
-10.361600 0.000000
-10.340100 0.000000
-10.318500 0.000000
-10.297000 0.000000
-10.275400 0.000000
-10.253900 0.000000
-10.232400 0.000000
-10.210800 0.000000
-10.189300 0.000000
-10.167700 0.000000
-10.146200 0.000000
-10.124600 0.000000
-10.103100 0.000000
-10.081500 0.000000
-10.060000 0.000000
-10.038400 0.000000
-10.016900 0.000000
-9.995300 0.000000
-9.973800 0.000000
-9.952200 0.000000
-9.930700 0.000000
-9.909200 0.000000
-9.887600 0.000000
-9.866100 0.000000
-9.844500 0.000000
-9.823000 0.000000
-9.801400 0.000000
-9.779900 0.000000
-9.758300 0.000000
-9.736800 0.000000
-9.715200 0.000000
-9.693700 0.000000
-9.672100 0.000000
-9.650600 0.000000
-9.629000 0.000000
-9.607500 0.000000
-9.585900 0.000000
-9.564400 0.000000
-9.542900 0.000000
-9.521300 0.000000
-9.499800 0.000000
-9.478200 0.000000
-9.456700 0.000000
-9.435100 0.000000
-9.413600 0.000000
-9.392000 0.000000
-9.370500 0.000000
-9.348900 0.000000
-9.327400 0.000000
-9.305800 0.000000
-9.284300 0.000000
-9.262700 0.000000
-9.241200 0.000000
-9.219700 0.000000
-9.198100 0.000000
-9.176600 0.000000
-9.155000 0.000000
-9.133500 0.000000
-9.111900 0.000000
-9.090400 0.000000
-9.068800 0.000000
-9.047300 0.000000
-9.025700 0.000000
-9.004200 0.000000
-8.982600 0.000000
-8.961100 0.000000
-8.939500 0.000000
-8.918000 0.000000
-8.896500 0.000000
-8.874900 0.000000
-8.853400 0.000000
-8.831800 0.000000
-8.810300 0.000000
-8.788700 0.000000
-8.767200 0.000000
-8.745600 0.000000
-8.724100 0.000000
-8.702500 0.000000
-8.681000 0.000000
-8.659400 0.000000
-8.637900 0.000000
-8.616300 0.000000
-8.594800 0.000000
-8.573200 0.000000
-8.551700 0.000000
-8.530200 0.000000
-8.508600 0.000000
-8.487100 0.000000
-8.465500 0.000000
-8.444000 0.000000
-8.422400 0.000000
-8.400900 0.000000
-8.379300 0.000000
-8.357800 0.000000
-8.336200 0.000000
-8.314700 0.000000
-8.293100 0.000000
-8.271600 0.000000
-8.250000 0.000000
-8.228500 0.000000
-8.207000 0.000000
-8.185400 0.000000
-8.163900 0.000000
-8.142300 0.000000
-8.120800 0.000000
-8.099200 0.000000
-8.077700 0.000000
-8.056100 0.000000
-8.034600 0.000000
-8.013000 0.000000
-7.991500 0.000000
-7.969900 0.000000
-7.948400 0.000000
-7.926800 0.000000
-7.905300 0.000000
-7.883800 0.000000
-7.862200 0.000000
-7.840700 0.000000
-7.819100 0.000000
-7.797600 0.000000
-7.776000 0.000000
-7.754500 0.000000
-7.732900 0.000000
-7.711400 0.000000
-7.689800 0.000000
-7.668300 0.000000
-7.646700 0.000000
-7.625200 0.000000
-7.603600 0.000000
-7.582100 0.000000
-7.560500 0.000000
-7.539000 0.000000
-7.517500 0.000000
-7.495900 9.090900
-7.474400 10.000900
-7.452800 20.150400
-7.431300 18.062100
-7.409700 61.845100
-7.388200 99.013300
-7.366600 73.823000
-7.345100 76.228900
-7.323500 56.046700
-7.302000 40.586500
-7.280400 62.312100
-7.258900 64.041600
-7.237300 99.137100
-7.215800 83.942500
-7.194300 45.072200
-7.172700 91.013800
-7.151200 91.975300
-7.129600 92.590800
-7.108100 81.442100
-7.086500 50.600900
-7.065000 117.891000
-7.043400 34.647100
-7.021900 23.733000
-7.000300 6.878300
-6.978800 5.540700
-6.957200 0.000000
-6.935700 0.000000
-6.914100 0.000000
-6.892600 0.000000
-6.871100 0.000000
-6.849500 0.000000
-6.828000 0.000000
-6.806400 0.000000
-6.784900 0.000000
-6.763300 0.000000
-6.741800 0.000000
-6.720200 0.000000
-6.698700 0.000000
-6.677100 0.000000
-6.655600 0.000000
-6.634000 0.000000
-6.612500 0.000000
-6.590900 0.000000
-6.569400 0.000000
-6.547800 0.000000
-6.526300 0.000000
-6.504800 0.000000
-6.483200 0.000000
-6.461700 0.000000
-6.440100 0.000000
-6.418600 0.000000
-6.397000 0.000000
-6.375500 0.000000
-6.353900 0.000000
-6.332400 0.000000
-6.310800 0.000000
-6.289300 0.000000
-6.267700 0.000000
-6.246200 0.000000
-6.224600 0.000000
-6.203100 0.000000
-6.181600 0.000000
-6.160000 0.000000
-6.138500 0.000000
-6.116900 0.000000
-6.095400 0.000000
-6.073800 0.000000
-6.052300 0.000000
-6.030700 0.000000
-6.009200 0.000000
-5.987600 0.000000
-5.966100 0.000000
-5.944500 0.000000
-5.923000 0.000000
-5.901400 0.000000
-5.879900 0.000000
-5.858400 0.000000
-5.836800 0.000000
-5.815300 0.000000
-5.793700 0.000000
-5.772200 0.000000
-5.750600 0.000000
-5.729100 0.000000
-5.707500 0.000000
-5.686000 0.000000
-5.664400 0.000000
-5.642900 0.000000
-5.621300 0.000000
-5.599800 0.000000
-5.578200 0.000000
-5.556700 0.000000
-5.535100 0.000000
-5.513600 0.000000
-5.492100 0.000000
-5.470500 0.000000
-5.449000 0.000000
-5.427400 0.000000
-5.405900 0.000000
-5.384300 0.000000
-5.362800 0.000000
-5.341200 0.000000
-5.319700 0.000000
-5.298100 0.000000
-5.276600 0.000000
-5.255000 0.000000
-5.233500 0.000000
-5.211900 0.000000
-5.190400 0.000000
-5.168900 0.000000
-5.147300 0.000000
-5.125800 0.000000
-5.104200 0.000000
-5.082700 0.000000
-5.061100 0.000000
-5.039600 0.000000
-5.018000 0.000000
-4.996500 0.000000
-4.974900 0.000000
-4.953400 0.000000
-4.931800 0.000000
-4.910300 0.000000
-4.888700 0.000000
-4.867200 0.000000
-4.845700 0.000000
-4.824100 0.000000
-4.802600 0.000000
-4.781000 0.000000
-4.759500 0.000000
-4.737900 0.000000
-4.716400 0.000000
-4.694800 0.000000
-4.673300 0.000000
-4.651700 0.000000
-4.630200 0.000000
-4.608600 0.000000
-4.587100 0.000000
-4.565500 0.000000
-4.544000 0.000000
-4.522400 0.000000
-4.500900 0.000000
-4.479400 0.000000
-4.457800 0.000000
-4.436300 0.000000
-4.414700 0.000000
-4.393200 0.000000
-4.371600 0.000000
-4.350100 0.000000
-4.328500 0.000000
-4.307000 0.000000
-4.285400 0.000000
-4.263900 0.000000
-4.242300 0.000000
-4.220800 0.000000
-4.199200 0.000000
-4.177700 0.000000
-4.156200 0.000000
-4.134600 0.000000
-4.113100 0.000000
-4.091500 0.000000
-4.070000 0.000000
-4.048400 0.000000
-4.026900 0.000000
-4.005300 0.000000
-3.983800 0.000000
-3.962200 0.000000
-3.940700 0.000000
-3.919100 0.000000
-3.897600 0.000000
-3.876000 0.000000
-3.854500 0.000000
-3.833000 0.000000
-3.811400 0.000000
-3.789900 0.000000
-3.768300 0.000000
-3.746800 0.000000
-3.725200 0.000000
-3.703700 0.000000
-3.682100 0.000000
-3.660600 0.000000
-3.639000 0.000000
-3.617500 0.000000
-3.595900 0.000000
-3.574400 0.000000
-3.552800 0.000000
-3.531300 0.000000
-3.509700 0.000000
-3.488200 0.000000
-3.466700 0.000000
-3.445100 0.000000
-3.423600 0.000000
-3.402000 0.000000
-3.380500 0.000000
-3.358900 0.000000
-3.337400 0.000000
-3.315800 0.000000
-3.294300 0.000000
-3.272700 0.000000
-3.251200 0.000000
-3.229600 0.000000
-3.208100 0.000000
-3.186500 0.000000
-3.165000 0.000000
-3.143500 0.000000
-3.121900 0.000000
-3.100400 0.000000
-3.078800 0.000000
-3.057300 0.000000
-3.035700 0.000000
-3.014200 0.000000
-2.992600 0.000000
-2.971100 0.000000
-2.949500 0.000000
-2.928000 0.000000
-2.906400 0.000000
-2.884900 0.000000
-2.863300 0.000000
-2.841800 0.000000
-2.820200 0.000000
-2.798700 0.000000
-2.777200 0.000000
-2.755600 0.000000
-2.734100 0.005900
-2.712500 0.069100
-2.691000 0.189300
-2.669400 0.350500
-2.647900 0.428000
-2.626300 0.433200
-2.604800 0.384900
-2.583200 0.365200
-2.561700 0.378100
-2.540100 0.391000
-2.518600 0.402600
-2.497000 0.412600
-2.475500 0.421800
-2.454000 0.423200
-2.432400 0.412200
-2.410900 0.398200
-2.389300 0.387100
-2.367800 0.387600
-2.346200 0.388300
-2.324700 0.389800
-2.303100 0.392500
-2.281600 0.396600
-2.260000 0.398600
-2.238500 0.399700
-2.216900 0.400700
-2.195400 0.404000
-2.173800 0.408300
-2.152300 0.412600
-2.130800 0.414600
-2.109200 0.412500
-2.087700 0.406200
-2.066100 0.398400
-2.044600 0.393800
-2.023000 0.391900
-2.001500 0.393400
-1.979900 0.395000
-1.958400 0.396600
-1.936800 0.398000
-1.915300 0.398600
-1.893700 0.398600
-1.872200 0.398200
-1.850600 0.397700
-1.829100 0.398000
-1.807500 0.399100
-1.786000 0.401200
-1.764500 0.403700
-1.742900 0.406100
-1.721400 0.408500
-1.699800 0.410900
-1.678300 0.413300
-1.656700 0.413900
-1.635200 0.423400
-1.613600 0.442200
-1.592100 0.475000
-1.570500 0.505100
-1.549000 0.525600
-1.527400 0.544700
-1.505900 0.564400
-1.484300 0.583600
-1.462800 0.591800
-1.441300 0.607200
-1.419700 0.623400
-1.398200 0.640700
-1.376600 0.658100
-1.355100 0.671400
-1.333500 0.681200
-1.312000 0.693400
-1.290400 0.707600
-1.268900 0.723900
-1.247300 0.742000
-1.225800 0.761400
-1.204200 0.782200
-1.182700 0.800500
-1.161100 0.804000
-1.139600 0.792600
-1.118100 0.798400
-1.096500 0.811900
-1.075000 0.820500
-1.053400 0.819200
-1.031900 0.815300
-1.010300 0.810200
-0.988800 0.802600
-0.967200 0.796400
-0.945700 0.791800
-0.924100 0.789000
-0.902600 0.788400
-0.881000 0.789700
-0.859500 0.791400
-0.837900 0.793600
-0.816400 0.795800
-0.794800 0.798000
-0.773300 0.800000
-0.751800 0.801900
-0.730200 0.803600
-0.708700 0.805000
-0.687100 0.803900
-0.665600 0.801400
-0.644000 0.799500
-0.622500 0.801800
-0.600900 0.808200
-0.579400 0.818700
-0.557800 0.831600
-0.536300 0.843100
-0.514700 0.853600
-0.493200 0.863200
-0.471600 0.872600
-0.450100 0.882100
-0.428600 0.891700
-0.407000 0.901600
-0.385500 0.911600
-0.363900 0.921300
-0.342400 0.930600
-0.320800 0.940000
-0.299300 0.950000
-0.277700 0.960300
-0.256200 0.970700
-0.234600 0.980700
-0.213100 0.989100
-0.191500 0.995500
-0.170000 1.000000
-0.148400 1.004500
-0.126900 1.009900
-0.105400 1.015900
-0.083800 1.022600
-0.062300 1.030100
-0.040700 1.037600
-0.019200 1.045100
0.002400 1.052700
0.023900 1.060200
0.045500 1.067900
0.067000 1.075600
0.088600 1.083400
0.110100 1.092200
0.131700 1.101400
0.153200 1.110400
0.174800 1.118700
0.196300 1.127200
0.217900 1.136200
0.239400 1.145700
0.260900 1.155200
0.282500 1.164600
0.304000 1.174000
0.325600 1.183300
0.347100 1.192800
0.368700 1.202300
0.390200 1.212900
0.411800 1.227600
0.433300 1.246100
0.454900 1.265700
0.476400 1.289200
0.498000 1.317400
0.519500 1.350000
0.541100 1.377500
0.562600 1.387800
0.584100 1.391500
0.605700 1.436500
0.627200 1.554300
0.648800 1.516100
0.670300 1.484800
0.691900 1.457100
0.713400 1.431200
0.735000 1.406100
0.756500 1.382500
0.778100 1.359000
0.799600 1.335000
0.821200 1.318200
0.842700 1.301500
0.864300 1.284200
0.885800 1.263700
0.907300 1.240300
0.928900 1.217700
0.950400 1.196000
0.972000 1.175400
0.993500 1.172800
1.015100 1.183900
1.036600 1.195200
1.058200 1.207500
1.079700 1.221100
1.101300 1.239700
1.122800 1.262400
1.144400 1.231700
1.165900 1.143200
1.187500 1.147500
1.209000 1.151300
1.230600 1.154900
1.252100 1.158500
1.273600 1.162300
1.295200 1.166300
1.316700 1.170600
1.338300 1.175300
1.359800 1.180300
1.381400 1.184000
1.402900 1.185900
1.424500 1.188000
1.446000 1.190200
1.467600 1.192500
1.489100 1.195500
1.510700 1.199600
1.532200 1.203900
1.553800 1.208400
1.575300 1.213200
1.596800 1.218500
1.618400 1.224200
1.639900 1.230300
1.661500 1.241300
1.683000 1.256700
1.704600 1.269300
1.726100 1.279600
1.747700 1.291400
1.769200 1.300900
1.790800 1.307900
1.812300 1.315100
1.833900 1.321900
1.855400 1.328400
1.877000 1.336400
1.898500 1.347100
1.920000 1.384600
1.941600 1.425100
1.963100 1.436600
1.984700 1.449200
2.006200 1.461500
2.027800 1.507300
2.049300 1.618000
2.070900 1.670400
2.092400 1.678900
2.114000 1.697400
2.135500 1.714700
2.157100 1.649300
2.178600 1.558700
2.200200 1.470200
2.221700 1.384400
2.243300 1.327600
2.264800 1.292600
2.286300 1.264100
2.307900 1.236800
2.329400 1.210000
2.351000 1.199100
2.372500 1.192400
2.394100 1.187000
2.415600 1.200400
2.437200 1.247500
2.458700 1.299700
2.480300 1.347700
2.501800 1.396400
2.523400 1.445400
2.544900 1.494700
2.566500 1.545900
2.588000 1.602600
2.609500 1.613400
2.631100 1.637300
2.652600 1.676100
2.674200 1.714800
2.695700 1.732400
2.717300 1.753200
2.738800 1.748200
2.760400 1.702200
2.781900 1.653800
2.803500 1.599400
2.825000 1.528300
2.846600 1.471500
2.868100 1.416200
2.889700 1.391200
2.911200 1.379300
2.932700 1.362900
2.954300 1.345800
2.975800 1.329700
2.997400 1.312900
3.018900 1.295500
3.040500 1.278700
3.062000 1.265100
3.083600 1.254300
3.105100 1.246300
3.126700 1.240800
3.148200 1.236100
3.169800 1.235000
3.191300 1.261300
3.212900 1.273600
3.234400 1.291700
3.256000 1.313700
3.277500 1.340000
3.299000 1.366900
3.320600 1.396200
3.342100 1.427900
3.363700 1.456100
3.385200 1.477700
3.406800 1.495800
3.428300 1.526400
3.449900 1.636900
3.471400 1.606500
3.493000 1.568000
3.514500 1.654100
3.536100 1.645900
3.557600 1.596800
3.579200 1.564000
3.600700 1.581200
3.622200 1.596800
3.643800 1.595700
3.665300 1.538400
3.686900 1.512300
3.708400 1.508700
3.730000 1.506200
3.751500 1.479500
3.773100 1.452600
3.794600 1.427700
3.816200 1.410000
3.837700 1.413000
3.859300 1.431000
3.880800 1.447200
3.902400 1.464900
3.923900 1.484900
3.945500 1.509300
3.967000 1.540300
3.988500 1.653500
4.010100 1.722200
4.031600 1.763000
4.053200 1.780000
4.074700 1.777700
4.096300 1.702100
4.117800 1.647600
4.139400 1.600900
4.160900 1.530200
4.182500 1.460400
4.204000 1.414200
4.225600 1.382900
4.247100 1.368000
4.268700 1.368700
4.290200 1.385700
4.311700 1.418600
4.333300 1.442500
4.354800 1.447600
4.376400 1.450900
4.397900 1.473100
4.419500 1.514200
4.441000 1.612000
4.462600 1.623700
4.484100 1.468400
4.505700 1.378500
4.527200 1.325300
4.548800 1.276000
4.570300 1.242600
4.591900 1.235800
4.613400 1.242000
4.634900 1.262400
4.656500 1.281500
4.678000 1.285900
4.699600 1.288400
4.721100 1.289700
4.742700 1.309900
4.764200 1.336600
4.785800 1.362300
4.807300 1.390900
4.828900 1.405900
4.850400 1.402800
4.872000 1.381600
4.893500 1.374100
4.915100 1.367600
4.936600 1.359700
4.958200 1.342100
4.979700 1.309100
5.001200 1.267000
5.022800 1.253600
5.044300 1.266700
5.065900 1.299700
5.087400 1.349500
5.109000 1.388400
5.130500 1.412300
5.152100 1.445500
5.173600 1.493500
5.195200 1.504200
5.216700 1.537600
5.238300 1.647100
5.259800 1.702500
5.281400 1.703900
5.302900 1.704100
5.324400 1.717600
5.346000 1.723100
5.367500 1.665200
5.389100 1.662300
5.410600 1.657600
5.432200 1.659200
5.453700 1.671100
5.475300 1.694100
5.496800 1.701100
5.518400 1.691800
5.539900 1.671700
5.561500 1.647300
5.583000 1.638500
5.604600 1.681300
5.626100 1.721100
5.647600 1.775300
5.669200 1.834100
5.690700 1.891900
5.712300 1.956600
5.733800 2.003500
5.755400 2.035700
5.776900 2.057200
5.798500 2.076600
5.820000 2.103400
5.841600 2.140600
5.863100 2.176600
5.884700 2.208800
5.906200 2.246100
5.927800 2.291700
5.949300 2.318800
5.970900 2.340500
5.992400 2.376400
6.013900 2.403200
6.035500 2.413400
6.057000 2.389500
6.078600 2.311000
6.100100 2.251800
6.121700 2.213700
6.143200 2.200900
6.164800 2.201600
6.186300 2.200200
6.207900 2.173100
6.229400 2.155300
6.251000 2.129800
6.272500 2.078800
6.294100 2.000900
6.315600 1.968700
6.337100 1.950000
6.358700 1.926600
6.380200 1.903500
6.401800 1.867800
6.423300 1.826100
6.444900 1.802400
6.466400 1.783500
6.488000 1.759000
6.509500 1.722300
6.531100 1.721800
6.552600 1.735600
6.574200 1.748100
6.595700 1.759700
6.617300 1.777200
6.638800 1.800000
6.660300 1.832700
6.681900 1.841500
6.703400 1.834600
6.725000 1.878500
6.746500 1.895500
6.768100 1.914300
6.789600 1.942700
6.811200 1.968800
6.832700 1.956800
6.854300 1.950800
6.875800 1.962500
6.897400 1.984000
6.918900 2.025700
6.940500 2.010600
6.962000 1.953700
6.983600 1.906600
7.005100 1.873700
7.026600 1.845700
7.048200 1.839600
7.069700 1.844300
7.091300 1.857100
7.112800 1.876100
7.134400 1.897300
7.155900 1.882900
7.177500 1.872800
7.199000 1.874700
7.220600 1.882200
7.242100 1.896600
7.263700 1.922800
7.285200 1.947500
7.306800 1.949800
7.328300 1.952700
7.349800 1.959900
7.371400 1.980400
7.392900 1.992000
7.414500 2.003800
7.436000 2.015300
7.457600 2.020200
7.479100 2.025700
7.500700 2.025100
7.522200 2.025400
7.543800 2.037000
7.565300 2.054400
7.586900 2.101500
7.608400 2.122100
7.630000 2.115200
7.651500 2.104800
7.673000 2.098900
7.694600 2.088000
7.716100 2.080100
7.737700 2.073400
7.759200 2.075800
7.780800 2.068900
7.802300 2.059900
7.823900 2.055000
7.845400 2.055100
7.867000 2.058100
7.888500 2.081900
7.910100 2.099600
7.931600 2.114600
7.953200 2.132400
7.974700 2.153700
7.996300 2.180200
8.017800 2.205000
8.039300 2.214400
8.060900 2.225600
8.082400 2.236800
8.104000 2.237500
8.125500 2.248700
8.147100 2.255500
8.168600 2.243400
8.190200 2.219800
8.211700 2.194600
8.233300 2.169900
8.254800 2.153500
8.276400 2.142800
8.297900 2.131800
8.319500 2.132200
8.341000 2.140800
8.362500 2.138000
8.384100 2.133900
8.405600 2.128800
8.427200 2.152200
8.448700 2.177000
8.470300 2.197800
8.491800 2.194200
8.513400 2.197500
8.534900 2.204900
8.556500 2.236500
8.578000 2.232400
8.599600 2.221800
8.621100 2.219900
8.642700 2.221100
8.664200 2.224200
8.685700 2.228400
8.707300 2.234100
8.728800 2.251000
8.750400 2.282500
8.771900 2.312900
8.793500 2.331700
8.815000 2.336400
8.836600 2.339200
8.858100 2.339800
8.879700 2.331700
8.901200 2.326400
8.922800 2.310100
8.944300 2.287900
8.965900 2.263300
8.987400 2.235500
9.009000 2.206900
9.030500 2.178400
9.052000 2.149500
9.073600 2.134100
9.095100 2.188700
9.116700 2.201600
9.138200 2.206100
9.159800 2.265700
9.181300 2.219300
9.202900 2.213400
9.224400 2.208400
9.246000 2.198600
9.267500 2.189600
9.289100 2.188000
9.310600 2.192500
9.332200 2.199300
9.353700 2.208000
9.375200 2.219600
9.396800 2.235700
9.418300 2.256300
9.439900 2.279100
9.461400 2.306500
9.483000 2.341200
9.504500 2.372000
9.526100 2.406600
9.547600 2.411900
9.569200 2.375300
9.590700 2.314700
9.612300 2.262400
9.633800 2.233900
9.655400 2.214800
9.676900 2.199400
9.698400 2.184300
9.720000 2.170300
9.741500 2.164000
9.763100 2.167200
9.784600 2.181100
9.806200 2.186000
9.827700 2.194700
9.849300 2.204700
9.870800 2.207500
9.892400 2.204900
9.913900 2.204400
9.935500 2.206400
9.957000 2.209700
9.978600 2.213600
10.000100 2.217600
10.021700 2.227600
10.043200 2.244900
10.064700 2.267300
10.086300 2.291900
10.107800 2.337100
10.129400 2.365200
10.150900 2.376800
10.172500 2.453700
10.194000 2.485900
10.215600 2.456400
10.237100 2.440500
10.258700 2.423200
10.280200 2.408000
10.301800 2.396900
10.323300 2.397400
10.344900 2.408200
10.366400 2.425800
10.387900 2.420100
10.409500 2.417000
10.431000 2.425500
10.452600 2.437500
10.474100 2.451500
10.495700 2.464400
10.517200 2.476300
10.538800 2.487400
10.560300 2.495500
10.581900 2.499600
10.603400 2.497400
10.625000 2.489000
10.646500 2.482200
10.668100 2.481700
10.689600 2.489200
10.711100 2.504300
10.732700 2.527100
10.754200 2.563400
10.775800 2.589500
10.797300 2.600900
10.818900 2.604800
10.840400 2.606000
10.862000 2.607600
10.883500 2.634000
10.905100 2.683600
10.926600 2.725200
10.948200 2.733200
10.969700 2.691400
10.991300 2.654000
11.012800 2.635700
11.034400 2.630600
11.055900 2.629500
11.077400 2.630700
11.099000 2.630200
11.120500 2.630200
11.142100 2.628800
11.163600 2.630100
11.185200 2.660600
11.206700 2.662700
11.228300 2.662500
11.249800 2.655500
11.271400 2.641400
11.292900 2.623900
11.314500 2.612600
11.336000 2.617300
11.357600 2.637200
11.379100 2.656900
11.400600 2.668900
11.422200 2.673800
11.443700 2.669700
11.465300 2.662700
11.486800 2.688100
11.508400 2.693100
11.529900 2.665900
11.551500 2.632200
11.573000 2.607200
11.594600 2.591900
11.616100 2.589000
11.637700 2.590200
11.659200 2.596000
11.680800 2.610600
11.702300 2.621400
11.723900 2.629900
11.745400 2.640700
11.766900 2.653500
11.788500 2.673800
11.810000 2.698300
11.831600 2.714400
11.853100 2.736000
11.874700 2.753300
11.896200 2.743900
11.917800 2.702300
11.939300 2.685400
11.960900 2.688000
11.982400 2.706600
12.004000 2.726800
12.025500 2.759700
12.047100 2.800100
12.068600 2.826900
12.090100 2.830700
12.111700 2.824900
12.133200 2.819400
12.154800 2.808600
12.176300 2.785200
12.197900 2.781000
12.219400 2.770600
12.241000 2.772100
12.262500 2.762200
12.284100 2.756700
12.305600 2.731300
12.327200 2.694900
12.348700 2.642800
12.370300 2.598700
12.391800 2.553100
12.413300 2.531100
12.434900 2.538700
12.456400 2.557000
12.478000 2.585300
12.499500 2.613100
12.521100 2.632100
12.542600 2.641800
12.564200 2.644400
12.585700 2.644900
12.607300 2.643200
12.628800 2.640300
12.650400 2.636900
12.671900 2.633200
12.693500 2.633900
12.715000 2.644000
12.736600 2.654600
12.758100 2.659000
12.779600 2.658300
12.801200 2.655900
12.822700 2.647200
12.844300 2.628600
12.865800 2.613500
12.887400 2.603900
12.908900 2.601700
12.930500 2.604500
12.952000 2.611200
12.973600 2.617900
12.995100 2.603000
13.016700 2.595000
13.038200 2.587800
13.059800 2.580100
13.081300 2.572400
13.102800 2.565800
13.124400 2.560400
13.145900 2.555900
13.167500 2.553800
13.189000 2.551300
13.210600 2.561300
13.232100 2.575000
13.253700 2.581100
13.275200 2.584500
13.296800 2.583500
13.318300 2.581500
13.339900 2.572300
13.361400 2.562100
13.383000 2.541200
13.404500 2.525700
13.426000 2.525600
13.447600 2.527400
13.469100 2.529300
13.490700 2.536400
13.512200 2.549700
13.533800 2.552000
13.555300 2.503000
13.576900 2.443600
13.598400 2.397700
13.620000 2.366700
13.641500 2.355800
13.663100 2.344300
13.684600 2.343700
13.706200 2.324100
13.727700 2.319600
13.749300 2.309300
13.770800 2.300700
13.792300 2.303600
13.813900 2.318000
13.835400 2.339200
13.857000 2.290500
13.878500 2.264000
13.900100 2.248100
13.921600 2.218400
13.943200 2.176800
13.964700 2.148600
13.986300 2.129000
14.007800 2.110700
14.029400 2.094900
14.050900 2.082100
14.072500 2.070500
14.094000 2.062500
14.115500 2.053300
14.137100 2.035700
14.158600 2.027000
14.180200 2.040800
14.201700 2.055100
14.223300 2.076300
14.244800 2.098900
14.266400 2.121300
14.287900 2.140600
14.309500 2.153900
14.331000 2.159600
14.352600 2.161700
14.374100 2.163100
14.395700 2.161400
14.417200 2.152200
14.438700 2.138600
14.460300 2.122100
14.481800 2.119600
14.503400 2.131000
14.524900 2.141600
14.546500 2.150700
14.568000 2.155900
14.589600 2.160100
14.611100 2.179700
14.632700 2.222200
14.654200 2.244200
14.675800 2.242500
14.697300 2.271500
14.718900 2.287600
14.740400 2.240300
14.762000 2.226800
14.783500 2.222100
14.805000 2.203400
14.826600 2.181300
14.848100 2.163100
14.869700 2.152300
14.891200 2.152200
14.912800 2.166800
14.934300 2.207600
14.955900 2.187000
14.977400 2.175600
14.999000 2.171600
15.020500 2.170400
15.042100 2.174100
15.063600 2.170800
15.085200 2.160600
15.106700 2.154000
15.128200 2.156700
15.149800 2.174200
15.171300 2.199700
15.192900 2.276400
15.214400 2.318700
15.236000 2.383700
15.257500 2.436900
15.279100 2.454700
15.300600 2.453300
15.322200 2.451800
15.343700 2.463400
15.365300 2.467500
15.386800 2.463600
15.408400 2.469000
15.429900 2.481300
15.451400 2.491700
15.473000 2.464700
15.494500 2.438000
15.516100 2.412600
15.537600 2.400200
15.559200 2.393900
15.580700 2.392800
15.602300 2.396800
15.623800 2.399200
15.645400 2.395800
15.666900 2.404100
15.688500 2.424600
15.710000 2.462400
15.731600 2.535000
15.753100 2.587600
15.774700 2.622000
15.796200 2.642100
15.817700 2.649100
15.839300 2.614300
15.860800 2.561100
15.882400 2.546600
15.903900 2.507100
15.925500 2.440100
15.947000 2.421400
15.968600 2.446700
15.990100 2.453700
16.011700 2.455100
16.033200 2.476700
16.054800 2.514800
16.076300 2.582000
16.097900 2.673900
16.119400 2.790200
16.140900 2.885600
16.162500 2.961700
16.184000 3.007600
16.205600 3.032500
16.227100 3.045000
16.248700 2.992900
16.270200 2.881400
16.291800 2.815800
16.313300 2.689800
16.334900 2.618600
16.356400 2.594200
16.378000 2.533000
16.399500 2.526300
16.421100 2.510400
16.442600 2.527300
16.464100 2.527500
16.485700 2.513900
16.507200 2.516000
16.528800 2.518600
16.550300 2.525400
16.571900 2.544800
16.593400 2.572300
16.615000 2.598000
16.636500 2.617400
16.658100 2.626500
16.679600 2.622500
16.701200 2.612200
16.722700 2.610700
16.744300 2.598600
16.765800 2.590400
16.787400 2.603300
16.808900 2.626800
16.830400 2.638600
16.852000 2.641500
16.873500 2.646200
16.895100 2.640200
16.916600 2.611300
16.938200 2.627700
16.959700 2.657100
16.981300 2.700100
17.002800 2.758000
17.024400 2.827900
17.045900 2.899700
17.067500 2.941400
17.089000 2.963300
17.110600 2.943200
17.132100 2.939700
17.153600 2.963700
17.175200 2.995800
17.196700 3.020700
17.218300 3.034300
17.239800 3.045800
17.261400 3.048900
17.282900 3.038400
17.304500 2.999200
17.326000 2.963000
17.347600 2.919700
17.369100 2.882800
17.390700 2.849100
17.412200 2.836100
17.433800 2.832100
17.455300 2.836900
17.476800 2.841800
17.498400 2.859300
17.519900 2.869100
17.541500 2.876000
17.563000 2.873800
17.584600 2.885600
17.606100 2.831400
17.627700 2.806800
17.649200 2.826600
17.670800 2.880800
17.692300 2.880300
17.713900 2.894200
17.735400 2.905800
17.757000 2.905400
17.778500 2.965800
17.800100 2.890500
17.821600 2.844300
17.843100 2.827300
17.864700 2.823300
17.886200 2.827400
17.907800 2.857700
17.929300 2.923100
17.950900 3.021800
17.972400 3.155400
17.994000 3.166000
18.015500 3.196500
18.037100 3.258800
18.058600 3.324700
18.080200 3.381900
18.101700 3.420000
18.123300 3.482600
18.144800 3.476000
18.166300 3.418700
18.187900 3.419300
18.209400 3.354600
18.231000 3.262800
18.252500 3.223600
18.274100 3.209200
18.295600 3.196800
18.317200 3.193500
18.338700 3.267800
18.360300 3.335900
18.381800 3.390300
18.403400 3.365300
18.424900 3.329800
18.446500 3.373600
18.468000 3.379400
18.489600 3.379300
18.511100 3.382300
18.532600 3.373800
18.554200 3.400500
18.575700 3.415600
18.597300 3.422200
18.618800 3.328400
18.640400 3.232900
18.661900 3.183000
18.683500 3.147900
18.705000 3.143300
18.726600 3.125000
18.748100 3.106500
18.769700 3.092200
18.791200 3.088600
18.812800 3.087000
18.834300 3.091600
18.855800 3.137000
18.877400 3.153200
18.898900 3.141400
18.920500 3.128900
18.942000 3.115900
18.963600 3.100400
18.985100 3.075600
19.006700 3.081700
19.028200 3.159300
19.049800 3.160700
19.071300 3.169700
19.092900 3.187300
19.114400 3.206800
19.136000 3.206400
19.157500 3.205600
19.179000 3.226300
19.200600 3.248100
19.222100 3.266900
19.243700 3.286200
19.265200 3.306700
19.286800 3.281200
19.308300 3.280200
19.329900 3.283800
19.351400 3.275200
19.373000 3.247800
19.394500 3.227400
19.416100 3.214900
19.437600 3.212700
19.459200 3.221100
19.480700 3.242100
19.502300 3.264700
19.523800 3.312500
19.545300 3.358600
19.566900 3.404900
19.588400 3.442800
19.610000 3.453200
19.631500 3.451000
19.653100 3.431900
19.674600 3.409900
19.696200 3.423800
19.717700 3.393000
19.739300 3.385200
19.760800 3.349400
19.782400 3.324800
19.803900 3.363500
19.825500 3.290600
19.847000 3.295700
19.868500 3.338600
19.890100 3.441300
19.911600 3.499400
19.933200 3.528600
19.954700 3.570200
19.976300 3.590500
19.997800 3.588200
20.019400 3.550100
20.040900 3.504900
20.062500 3.445200
20.084000 3.395400
20.105600 3.379700
20.127100 3.413500
20.148700 3.476100
20.170200 3.497300
20.191700 3.394300
20.213300 3.319400
20.234800 3.290800
20.256400 3.281500
20.277900 3.282300
20.299500 3.321600
20.321000 3.361800
20.342600 3.394800
20.364100 3.431200
20.385700 3.457300
20.407200 3.494600
20.428800 3.495200
20.450300 3.459400
20.471900 3.532900
20.493400 3.294900
20.515000 3.266600
20.536500 3.243600
20.558000 3.185000
20.579600 3.177600
20.601100 3.174800
20.622700 3.180100
20.644200 3.188100
20.665800 3.196000
20.687300 3.206100
20.708900 3.220000
20.730400 3.304100
20.752000 3.476700
20.773500 3.488600
20.795100 3.485000
20.816600 3.490100
20.838200 3.474900
20.859700 3.437200
20.881200 3.413000
20.902800 3.429800
20.924300 3.443600
20.945900 3.455200
20.967400 3.492100
20.989000 3.477200
21.010500 3.448200
21.032100 3.365900
21.053600 3.322400
21.075200 3.299400
21.096700 3.302600
21.118300 3.330900
21.139800 3.376600
21.161400 3.378700
21.182900 3.378300
21.204400 3.378700
21.226000 3.379200
21.247500 3.386900
21.269100 3.370400
21.290600 3.329600
21.312200 3.275900
21.333700 3.212600
21.355300 3.149800
21.376800 3.084300
21.398400 3.048600
21.419900 3.021200
21.441500 2.994200
21.463000 2.963700
21.484600 2.934400
21.506100 2.916600
21.527700 2.905500
21.549200 2.901500
21.570700 2.903700
21.592300 2.908400
21.613800 2.912400
21.635400 2.898300
21.656900 2.863800
21.678500 2.825400
21.700000 2.791600
21.721600 2.793700
21.743100 2.807400
21.764700 2.813000
21.786200 2.808200
21.807800 2.796300
21.829300 2.749200
21.850900 2.711500
21.872400 2.687900
21.893900 2.672300
21.915500 2.655900
21.937000 2.643600
21.958600 2.635300
21.980100 2.636200
22.001700 2.647400
22.023200 2.653200
22.044800 2.665200
22.066300 2.685800
22.087900 2.715300
22.109400 2.749000
22.131000 2.794100
22.152500 2.849800
22.174100 2.767900
22.195600 2.749600
22.217100 2.764500
22.238700 2.736700
22.260200 2.708300
22.281800 2.685800
22.303300 2.664000
22.324900 2.646400
22.346400 2.636100
22.368000 2.628400
22.389500 2.608200
22.411100 2.581200
22.432600 2.582800
22.454200 2.603200
22.475700 2.582700
22.497300 2.526400
22.518800 2.476300
22.540400 2.446300
22.561900 2.391700
22.583400 2.387000
22.605000 2.374900
22.626500 2.342600
22.648100 2.299100
22.669600 2.270100
22.691200 2.253700
22.712700 2.236100
22.734300 2.220900
22.755800 2.221600
22.777400 2.248900
22.798900 2.287800
22.820500 2.304600
22.842000 2.253000
22.863600 2.192900
22.885100 2.143600
22.906600 2.097800
22.928200 2.055500
22.949700 2.017800
22.971300 1.984400
22.992800 1.952700
23.014400 1.920900
23.035900 1.887300
23.057500 1.847500
23.079000 1.813700
23.100600 1.784700
23.122100 1.762300
23.143700 1.739900
23.165200 1.716200
23.186800 1.679000
23.208300 1.645400
23.229800 1.619500
23.251400 1.591200
23.272900 1.560800
23.294500 1.528300
23.316000 1.491500
23.337600 1.448300
23.359100 1.392900
23.380700 1.334700
23.402200 1.295700
23.423800 1.262300
23.445300 1.219900
23.466900 1.170600
23.488400 1.136000
23.510000 1.110600
23.531500 1.086400
23.553100 1.063000
23.574600 1.040200
23.596100 1.012400
23.617700 0.984000
23.639200 0.956100
23.660800 0.939900
23.682300 0.935800
23.703900 0.892400
23.725400 0.937200
23.747000 0.955000
23.768500 0.925400
23.790100 0.937400
23.811600 0.972800
23.833200 0.940000
23.854700 0.880400
23.876300 0.799200
23.897800 0.669500
23.919300 0.577100
23.940900 0.585500
23.962400 0.564500
23.984000 0.509500
24.005500 0.441100
24.027100 0.388100
24.048600 0.351000
24.070200 0.335900
24.091700 0.321900
24.113300 0.308100
24.134800 0.294700
24.156400 0.281900
24.177900 0.269500
24.199500 0.257800
24.221000 0.246500
24.242500 0.235800
24.264100 0.225600
24.285600 0.215700
24.307200 0.206200
24.328700 0.197300
24.350300 0.189000
24.371800 0.181000
24.393400 0.173400
24.414900 0.166200
24.436500 0.159400
24.458000 0.153100
24.479600 0.147300
24.501100 0.141900
24.522700 0.137000
24.544200 0.132500
24.565800 0.128400
24.587300 0.124800
24.608800 0.121400
24.630400 0.123500
24.651900 0.138400
24.673500 0.154200
24.695000 0.170300
24.716600 0.155200
24.738100 0.135000
24.759700 0.114600
24.781200 0.094000
24.802800 0.071000
24.824300 0.042300
24.845900 0.012900
24.867400 0.000100
24.889000 0.000000
24.910500 0.000000
24.932000 0.000000
24.953600 0.000000
24.975100 0.000000
24.996700 0.000000
25.018200 0.000000
25.039800 0.000000
25.061300 0.000000
25.082900 0.000000
25.104400 0.000000
25.126000 0.000000
25.147500 0.000000
25.169100 0.000000
25.190600 0.000000
25.212200 0.000000
25.233700 0.000000
25.255200 0.000000
25.276800 0.000000
25.298300 0.000000
25.319900 0.000000
25.341400 0.000000
25.363000 0.000000
25.384500 0.000000
25.406100 0.000000
25.427600 0.000000
25.449200 0.000000
25.470700 0.000000
25.492300 0.000000
25.513800 0.000000
25.535400 0.000000
25.556900 0.000000
25.578500 0.000000
25.600000 0.000000
25.621500 0.000000
25.643100 0.000000
25.664600 0.000000
25.686200 0.000000
25.707700 0.000000
25.729300 0.000000
25.750800 0.000000
25.772400 0.000000
25.793900 0.000000
25.815500 0.000000
25.837000 0.000000
25.858600 0.000000
25.880100 0.000000
25.901700 0.000000
25.923200 0.000000
25.944700 0.000000
25.966300 0.000000
25.987800 0.000000
26.009400 0.000000
26.030900 0.000000
26.052500 0.000000
26.074000 0.000000
26.095600 0.000000
26.117100 0.000000
26.138700 0.000000
26.160200 0.000000
26.181800 0.000000
26.203300 0.000000
26.224900 0.000000
26.246400 0.000000
26.268000 0.000000
26.289500 0.000000
26.311000 0.000000
26.332600 0.000000
26.354100 0.000000
26.375700 0.000000
26.397200 0.000000
26.418800 0.000000
26.440300 0.000000
26.461900 0.000000
26.483400 0.000000
26.505000 0.000000
26.526500 0.000000
26.548100 0.000000
26.569600 0.000000
26.591200 0.000000
26.612700 0.000000
26.634200 0.000000
26.655800 0.000000
26.677300 0.000000
26.698900 0.000000
26.720400 0.000000
26.742000 0.000000
26.763500 0.000000
26.785100 0.000000
26.806600 0.000000
26.828200 0.000000
26.849700 0.000000
e
