set title 'mp-1007652 - Density of States'
set xlabel 'Energy (eV)'
set ylabel 'DOS (states/eV)'
set grid
set xrange [-10:10]
set yrange [0:11.048]
set xzeroaxis lt -1
set terminal png size 800,600
set output 'mp-1007652_dos_gnuplot.png'
plot '-' using 1:2 with lines title 'DOS'
-12.415300 0.000000
-12.395300 0.000000
-12.375300 0.000000
-12.355200 0.000000
-12.335200 0.000000
-12.315200 0.000000
-12.295100 0.000000
-12.275100 0.000000
-12.255100 0.000000
-12.235000 0.000000
-12.215000 0.000000
-12.195000 0.000000
-12.175000 0.000000
-12.154900 0.000000
-12.134900 0.000000
-12.114900 0.000000
-12.094800 0.000000
-12.074800 0.000000
-12.054800 0.000000
-12.034700 0.000000
-12.014700 0.000000
-11.994700 0.000000
-11.974700 0.000000
-11.954600 0.000000
-11.934600 0.000000
-11.914600 0.000000
-11.894500 0.000000
-11.874500 0.000000
-11.854500 0.000000
-11.834400 0.000000
-11.814400 0.000000
-11.794400 0.000000
-11.774400 0.000000
-11.754300 0.000000
-11.734300 0.000000
-11.714300 0.000000
-11.694200 0.000000
-11.674200 0.000000
-11.654200 0.000000
-11.634100 0.000000
-11.614100 0.000000
-11.594100 0.000000
-11.574100 0.000000
-11.554000 0.000000
-11.534000 0.000000
-11.514000 0.000000
-11.493900 0.000000
-11.473900 0.000000
-11.453900 0.000000
-11.433800 0.000000
-11.413800 0.000000
-11.393800 0.000000
-11.373800 0.000000
-11.353700 0.000000
-11.333700 0.000000
-11.313700 0.000000
-11.293600 0.000000
-11.273600 0.000000
-11.253600 0.000000
-11.233500 0.000000
-11.213500 0.000000
-11.193500 0.000000
-11.173500 0.000000
-11.153400 0.000000
-11.133400 0.000000
-11.113400 0.000000
-11.093300 0.000000
-11.073300 0.000000
-11.053300 0.000000
-11.033200 0.000000
-11.013200 0.000000
-10.993200 0.000000
-10.973200 0.000000
-10.953100 0.000000
-10.933100 0.000000
-10.913100 0.000000
-10.893000 0.000000
-10.873000 0.000000
-10.853000 0.000000
-10.832900 0.000000
-10.812900 0.000000
-10.792900 0.000000
-10.772900 0.000000
-10.752800 0.000000
-10.732800 0.000000
-10.712800 0.000000
-10.692700 0.000000
-10.672700 0.000000
-10.652700 0.000000
-10.632600 0.000000
-10.612600 0.000000
-10.592600 16.028700
-10.572600 48.475900
-10.552500 58.868000
-10.532500 23.598900
-10.512500 12.832100
-10.492400 7.809900
-10.472400 3.501300
-10.452400 41.163400
-10.432300 246.541800
-10.412300 180.923600
-10.392300 0.000000
-10.372300 200.203300
-10.352200 179.598000
-10.332200 0.000000
-10.312200 0.000000
-10.292100 0.000000
-10.272100 0.000000
-10.252100 0.000000
-10.232000 0.000000
-10.212000 0.000000
-10.192000 0.000000
-10.172000 0.000000
-10.151900 0.000000
-10.131900 0.000000
-10.111900 0.000000
-10.091800 0.000000
-10.071800 0.000000
-10.051800 0.000000
-10.031700 0.000000
-10.011700 0.000000
-9.991700 0.000000
-9.971700 0.000000
-9.951600 0.000000
-9.931600 0.000000
-9.911600 0.000000
-9.891500 0.000000
-9.871500 0.000000
-9.851500 0.000000
-9.831400 0.000000
-9.811400 0.000000
-9.791400 0.000000
-9.771400 0.000000
-9.751300 0.000000
-9.731300 0.000000
-9.711300 0.000000
-9.691200 0.000000
-9.671200 0.000000
-9.651200 0.000000
-9.631100 0.000000
-9.611100 0.000000
-9.591100 0.000000
-9.571100 0.000000
-9.551000 0.000000
-9.531000 0.000000
-9.511000 0.000000
-9.490900 0.000000
-9.470900 0.000000
-9.450900 0.000000
-9.430800 0.000000
-9.410800 0.000000
-9.390800 0.000000
-9.370700 0.000000
-9.350700 0.000000
-9.330700 0.000000
-9.310700 0.000000
-9.290600 0.000000
-9.270600 0.000000
-9.250600 0.000000
-9.230500 0.000000
-9.210500 0.000000
-9.190500 0.000000
-9.170400 0.000000
-9.150400 0.000000
-9.130400 0.000000
-9.110400 0.000000
-9.090300 0.000000
-9.070300 0.000000
-9.050300 0.000000
-9.030200 0.000000
-9.010200 0.000000
-8.990200 0.000000
-8.970100 0.000000
-8.950100 0.000000
-8.930100 0.000000
-8.910100 0.000000
-8.890000 0.000000
-8.870000 0.000000
-8.850000 0.000000
-8.829900 0.000000
-8.809900 0.000000
-8.789900 0.000000
-8.769800 0.000000
-8.749800 0.000000
-8.729800 0.000000
-8.709800 0.000000
-8.689700 0.000000
-8.669700 0.000000
-8.649700 0.000000
-8.629600 0.000000
-8.609600 0.000000
-8.589600 0.000000
-8.569500 0.000000
-8.549500 0.000000
-8.529500 0.000000
-8.509500 0.000000
-8.489400 0.000000
-8.469400 0.000000
-8.449400 0.000000
-8.429300 0.000000
-8.409300 0.000000
-8.389300 0.000000
-8.369200 0.000000
-8.349200 0.000000
-8.329200 0.000000
-8.309200 0.000000
-8.289100 0.000000
-8.269100 0.000000
-8.249100 0.000000
-8.229000 0.000000
-8.209000 0.000000
-8.189000 0.000000
-8.168900 0.000000
-8.148900 0.000000
-8.128900 0.000000
-8.108900 0.000000
-8.088800 0.000000
-8.068800 0.000000
-8.048800 0.000000
-8.028700 0.000000
-8.008700 0.000000
-7.988700 0.000000
-7.968600 0.000000
-7.948600 0.000000
-7.928600 0.000000
-7.908600 0.000000
-7.888500 0.000000
-7.868500 0.000000
-7.848500 0.000000
-7.828400 0.000000
-7.808400 0.000000
-7.788400 0.000000
-7.768300 0.000000
-7.748300 0.000000
-7.728300 0.000000
-7.708300 0.000000
-7.688200 0.000000
-7.668200 0.000000
-7.648200 0.000000
-7.628100 0.000000
-7.608100 0.000000
-7.588100 0.000000
-7.568000 0.000000
-7.548000 0.027800
-7.528000 0.108900
-7.508000 0.235600
-7.487900 0.316700
-7.467900 0.337300
-7.447900 0.349100
-7.427800 0.394900
-7.407800 0.442500
-7.387800 0.491800
-7.367700 0.540100
-7.347700 0.577500
-7.327700 0.599800
-7.307700 0.619800
-7.287600 0.643000
-7.267600 0.670700
-7.247600 0.702000
-7.227500 0.733600
-7.207500 0.765300
-7.187500 0.797200
-7.167400 0.842600
-7.147400 0.943700
-7.127400 1.033000
-7.107400 0.990300
-7.087300 1.004800
-7.067300 1.019700
-7.047300 1.034700
-7.027200 1.048400
-7.007200 1.060700
-6.987200 1.070900
-6.967100 1.072900
-6.947100 1.078200
-6.927100 1.086500
-6.907100 1.101800
-6.887000 1.178400
-6.867000 1.293900
-6.847000 1.421600
-6.826900 1.363700
-6.806900 1.407400
-6.786900 1.452300
-6.766800 1.493700
-6.746800 1.544100
-6.726800 1.592600
-6.706800 1.632400
-6.686700 1.672700
-6.666700 1.720100
-6.646700 1.772900
-6.626600 1.827800
-6.606600 1.885300
-6.586600 1.947500
-6.566500 2.014700
-6.546500 2.081700
-6.526500 2.146400
-6.506400 2.224000
-6.486400 2.317500
-6.466400 2.417900
-6.446400 2.526700
-6.426300 2.658100
-6.406300 2.806500
-6.386300 2.968300
-6.366200 3.213200
-6.346200 3.613900
-6.326200 3.763200
-6.306100 3.856700
-6.286100 3.911200
-6.266100 3.960300
-6.246100 4.107100
-6.226000 4.174600
-6.206000 4.131400
-6.186000 4.181200
-6.165900 4.167200
-6.145900 4.122700
-6.125900 3.889300
-6.105800 3.707700
-6.085800 3.920100
-6.065800 3.876600
-6.045800 4.167600
-6.025700 4.505600
-6.005700 4.171800
-5.985700 4.066300
-5.965600 4.129900
-5.945600 4.291400
-5.925600 4.531500
-5.905500 4.585700
-5.885500 5.011800
-5.865500 5.885300
-5.845500 5.591600
-5.825400 7.679700
-5.805400 5.038500
-5.785400 0.000000
-5.765300 0.000000
-5.745300 0.000000
-5.725300 0.000000
-5.705200 0.000000
-5.685200 0.000000
-5.665200 0.000000
-5.645200 0.000000
-5.625100 0.000000
-5.605100 0.000000
-5.585100 0.000000
-5.565000 0.000000
-5.545000 0.000000
-5.525000 0.000000
-5.504900 0.000000
-5.484900 0.000000
-5.464900 0.000000
-5.444900 0.000000
-5.424800 0.000000
-5.404800 0.000000
-5.384800 0.000000
-5.364700 0.000000
-5.344700 0.000000
-5.324700 0.000000
-5.304600 0.000000
-5.284600 0.000000
-5.264600 0.000000
-5.244600 0.000000
-5.224500 0.000000
-5.204500 0.000000
-5.184500 0.000000
-5.164400 0.000000
-5.144400 0.000000
-5.124400 0.000000
-5.104300 0.000000
-5.084300 0.000000
-5.064300 0.000000
-5.044300 0.000000
-5.024200 0.000000
-5.004200 0.000000
-4.984200 0.000000
-4.964100 0.000000
-4.944100 0.000000
-4.924100 0.000000
-4.904000 0.000000
-4.884000 0.000000
-4.864000 0.000000
-4.844000 0.000000
-4.823900 0.000000
-4.803900 0.000000
-4.783900 0.000000
-4.763800 0.000000
-4.743800 0.000000
-4.723800 0.000000
-4.703700 0.000000
-4.683700 0.000000
-4.663700 0.000000
-4.643700 0.000000
-4.623600 0.000000
-4.603600 0.000000
-4.583600 0.000000
-4.563500 0.000000
-4.543500 0.000000
-4.523500 0.000000
-4.503400 0.000000
-4.483400 0.000000
-4.463400 0.000000
-4.443400 0.000000
-4.423300 0.000000
-4.403300 0.000000
-4.383300 0.000000
-4.363200 0.000000
-4.343200 0.000000
-4.323200 0.000000
-4.303100 0.000000
-4.283100 0.000000
-4.263100 0.000000
-4.243100 0.000000
-4.223000 0.000000
-4.203000 0.000000
-4.183000 0.000000
-4.162900 0.000000
-4.142900 0.000000
-4.122900 0.000000
-4.102800 0.000000
-4.082800 0.000000
-4.062800 0.000000
-4.042800 0.000000
-4.022700 0.000000
-4.002700 0.000000
-3.982700 0.000000
-3.962600 0.000000
-3.942600 0.000000
-3.922600 0.000000
-3.902500 0.000000
-3.882500 0.000000
-3.862500 0.000000
-3.842500 0.000000
-3.822400 0.000000
-3.802400 0.000000
-3.782400 0.000000
-3.762300 0.000000
-3.742300 0.000000
-3.722300 0.000000
-3.702200 0.000000
-3.682200 0.000000
-3.662200 0.000000
-3.642100 0.000000
-3.622100 0.000000
-3.602100 0.000000
-3.582100 0.000000
-3.562000 0.000000
-3.542000 0.000000
-3.522000 0.000000
-3.501900 0.000000
-3.481900 0.000000
-3.461900 0.000000
-3.441800 0.000000
-3.421800 0.000000
-3.401800 0.000000
-3.381800 0.000000
-3.361700 0.000000
-3.341700 0.000000
-3.321700 0.000000
-3.301600 0.000000
-3.281600 0.000000
-3.261600 0.000000
-3.241500 0.000000
-3.221500 0.000000
-3.201500 0.000000
-3.181500 0.000000
-3.161400 0.000000
-3.141400 0.000000
-3.121400 0.000000
-3.101300 0.000000
-3.081300 0.000000
-3.061300 0.000000
-3.041200 0.000000
-3.021200 0.000000
-3.001200 0.000000
-2.981200 0.000000
-2.961100 0.000000
-2.941100 0.000000
-2.921100 0.000000
-2.901000 0.000000
-2.881000 0.000000
-2.861000 0.000000
-2.840900 0.000000
-2.820900 0.000000
-2.800900 0.000000
-2.780900 0.000000
-2.760800 0.000000
-2.740800 0.000000
-2.720800 0.000000
-2.700700 0.000000
-2.680700 0.000000
-2.660700 0.000000
-2.640600 0.000000
-2.620600 0.000000
-2.600600 0.000000
-2.580600 0.000000
-2.560500 0.000000
-2.540500 0.000000
-2.520500 0.000000
-2.500400 0.000000
-2.480400 0.000000
-2.460400 0.000000
-2.440300 0.000000
-2.420300 0.000000
-2.400300 0.000000
-2.380300 0.000000
-2.360200 0.000000
-2.340200 0.000000
-2.320200 0.000000
-2.300100 0.000000
-2.280100 0.000000
-2.260100 0.000000
-2.240000 0.000000
-2.220000 0.000000
-2.200000 0.000000
-2.180000 0.000000
-2.159900 0.000000
-2.139900 0.000000
-2.119900 0.000000
-2.099800 0.000000
-2.079800 0.000000
-2.059800 0.000000
-2.039700 0.000000
-2.019700 0.000000
-1.999700 0.000000
-1.979700 0.000000
-1.959600 0.000000
-1.939600 0.000000
-1.919600 0.000000
-1.899500 0.000000
-1.879500 0.000000
-1.859500 0.000000
-1.839400 0.000000
-1.819400 0.000000
-1.799400 0.000000
-1.779400 0.000000
-1.759300 0.000000
-1.739300 0.000000
-1.719300 0.000000
-1.699200 1.161300
-1.679200 2.376200
-1.659200 2.884000
-1.639100 3.789800
-1.619100 4.314700
-1.599100 6.062100
-1.579100 6.565700
-1.559000 6.186300
-1.539000 5.424900
-1.519000 4.366600
-1.498900 4.192600
-1.478900 4.569500
-1.458900 4.880500
-1.438800 4.384400
-1.418800 3.906800
-1.398800 3.604000
-1.378800 3.428200
-1.358700 3.235400
-1.338700 2.937900
-1.318700 2.494400
-1.298600 2.435500
-1.278600 2.390000
-1.258600 2.356500
-1.238500 2.356000
-1.218500 2.353400
-1.198500 2.362000
-1.178500 2.374500
-1.158400 2.312500
-1.138400 2.293800
-1.118400 2.254400
-1.098300 2.233600
-1.078300 2.209000
-1.058300 2.217500
-1.038200 2.257500
-1.018200 2.244400
-0.998200 2.234200
-0.978200 2.225900
-0.958100 2.013500
-0.938100 1.947500
-0.918100 1.874100
-0.898000 1.775900
-0.878000 1.662900
-0.858000 1.592000
-0.837900 1.539500
-0.817900 1.489000
-0.797900 1.440400
-0.777800 1.393900
-0.757800 1.350600
-0.737800 1.308800
-0.717800 1.269800
-0.697700 1.233200
-0.677700 1.198900
-0.657700 1.165700
-0.637600 1.133300
-0.617600 1.103400
-0.597600 1.073200
-0.577500 1.053000
-0.557500 1.025400
-0.537500 0.999300
-0.517500 0.974700
-0.497400 0.954200
-0.477400 0.935700
-0.457400 0.917400
-0.437300 0.899600
-0.417300 0.882100
-0.397300 0.864900
-0.377200 0.847800
-0.357200 0.831100
-0.337200 0.830000
-0.317200 0.828900
-0.297100 0.827100
-0.277100 0.816300
-0.257100 0.793700
-0.237000 0.771600
-0.217000 0.750200
-0.197000 0.729200
-0.176900 0.941300
-0.156900 0.703600
-0.136900 0.542700
-0.116900 0.535900
-0.096800 0.529300
-0.076800 0.522500
-0.056800 0.515600
-0.036700 0.508600
-0.016700 0.501400
0.003300 0.494400
0.023400 0.487600
0.043400 0.481300
0.063400 0.475500
0.083400 0.470200
0.103500 0.465400
0.123500 0.461200
0.143500 0.457400
0.163600 0.453800
0.183600 0.450200
0.203600 0.446600
0.223700 0.442900
0.243700 0.439300
0.263700 0.436600
0.283700 0.435300
0.303800 0.433800
0.323800 0.432200
0.343800 0.429700
0.363900 0.427300
0.383900 0.426300
0.403900 0.424000
0.424000 0.420600
0.444000 0.417200
0.464000 0.557500
0.484000 0.623300
0.504100 0.628200
0.524100 0.662400
0.544100 0.697600
0.564200 0.733800
0.584200 0.771000
0.604200 0.809200
0.624300 0.855800
0.644300 1.027600
0.664300 1.173600
0.684300 1.416400
0.704400 1.989500
0.724400 2.319200
0.744400 2.456000
0.764500 2.564800
0.784500 2.636600
0.804500 2.720800
0.824600 2.628600
0.844600 2.449500
0.864600 2.243900
0.884600 2.067300
0.904700 2.042200
0.924700 1.956200
0.944700 1.832700
0.964800 1.809400
0.984800 1.791400
1.004800 1.781000
1.024900 1.770700
1.044900 1.760300
1.064900 1.737300
1.084900 1.706200
1.105000 1.676600
1.125000 1.648500
1.145000 1.704700
1.165100 1.892300
1.185100 2.098400
1.205100 2.197000
1.225200 2.262500
1.245200 2.286000
1.265200 2.300800
1.285200 2.334500
1.305300 2.364200
1.325300 2.396300
1.345300 2.432400
1.365400 2.470200
1.385400 2.496800
1.405400 2.548200
1.425500 2.577000
1.445500 2.613000
1.465500 2.651900
1.485500 2.693200
1.505600 2.807800
1.525600 2.848700
1.545600 2.876700
1.565700 2.783000
1.585700 2.798300
1.605700 2.807800
1.625800 2.811800
1.645800 2.809400
1.665800 2.807800
1.685800 2.822700
1.705900 2.861000
1.725900 2.920100
1.745900 3.369700
1.766000 3.690000
1.786000 3.644700
1.806000 3.291300
1.826100 3.264300
1.846100 3.307300
1.866100 3.327500
1.886100 3.084400
1.906200 3.021000
1.926200 3.037600
1.946200 2.984500
1.966300 2.963200
1.986300 2.948300
2.006300 2.954800
2.026400 2.978200
2.046400 3.054200
2.066400 3.373500
2.086500 3.814100
2.106500 3.800000
2.126500 3.876400
2.146500 3.957900
2.166600 4.151200
2.186600 4.335000
2.206600 4.364500
2.226700 4.333700
2.246700 4.308000
2.266700 4.147600
2.286800 4.134000
2.306800 4.137500
2.326800 4.078300
2.346800 4.017000
2.366900 3.953800
2.386900 3.939500
2.406900 3.825700
2.427000 3.697000
2.447000 3.719600
2.467000 3.766600
2.487100 3.829400
2.507100 4.061900
2.527100 5.013600
2.547100 10.043500
2.567200 7.805900
2.587200 6.712300
2.607200 4.595100
2.627300 4.398500
2.647300 4.208900
2.667300 4.027200
2.687400 3.848200
2.707400 3.748900
2.727400 3.654400
2.747400 3.563200
2.767500 3.440600
2.787500 3.328900
2.807500 3.224600
2.827600 3.126400
2.847600 3.039300
2.867600 2.960400
2.887700 2.912900
2.907700 2.874600
2.927700 2.816200
2.947700 2.729100
2.967800 2.609800
2.987800 2.488400
3.007800 2.369300
3.027900 2.246600
3.047900 2.157700
3.067900 2.037900
3.088000 1.939200
3.108000 1.871400
3.128000 1.806200
3.148000 1.717000
3.168100 1.642200
3.188100 1.577900
3.208100 1.522300
3.228200 1.469200
3.248200 1.422000
3.268200 1.384600
3.288300 1.347500
3.308300 1.306400
3.328300 1.262100
3.348300 1.218400
3.368400 1.247400
3.388400 1.197900
3.408400 1.145100
3.428500 1.088700
3.448500 1.028700
3.468500 0.964800
3.488600 0.919100
3.508600 0.876200
3.528600 0.837000
3.548600 0.806900
3.568700 0.775600
3.588700 0.744900
3.608700 0.697000
3.628800 0.650200
3.648800 0.601900
3.668800 0.551000
3.688900 0.498000
3.708900 0.446300
3.728900 0.396300
3.748900 0.352400
3.769000 0.330400
3.789000 0.295600
3.809000 0.247500
3.829100 0.137100
3.849100 0.064100
3.869100 0.019100
3.889200 0.000500
3.909200 0.000000
3.929200 0.000100
3.949200 0.000200
3.969300 0.000300
3.989300 0.000500
4.009300 0.000800
4.029400 0.001000
4.049400 0.001400
4.069400 0.001700
4.089500 0.002100
4.109500 0.002600
4.129500 0.003100
4.149500 0.003700
4.169600 0.004200
4.189600 0.004900
4.209600 0.005600
4.229700 0.006300
4.249700 0.007100
4.269700 0.007900
4.289800 0.008700
4.309800 0.009600
4.329800 0.010600
4.349800 0.011600
4.369900 0.012600
4.389900 0.013700
4.409900 0.014800
4.430000 0.016000
4.450000 0.017200
4.470000 0.018500
4.490100 0.019800
4.510100 0.021500
4.530100 0.024400
4.550100 0.028400
4.570200 0.033300
4.590200 0.038900
4.610200 0.045100
4.630300 0.051500
4.650300 0.057800
4.670300 0.064300
4.690400 0.071100
4.710400 0.078100
4.730400 0.085300
4.750400 0.092600
4.770500 0.100100
4.790500 0.107700
4.810500 0.115400
4.830600 0.123300
4.850600 0.131300
4.870600 0.139500
4.890700 0.147800
4.910700 0.156200
4.930700 0.165700
4.950800 0.175900
4.970800 0.186800
4.990800 0.197900
5.010800 0.209200
5.030900 0.220900
5.050900 0.233400
5.070900 0.247400
5.091000 0.262800
5.111000 0.279600
5.131000 0.484300
5.151100 0.575900
5.171100 0.659400
5.191100 0.739100
5.211100 0.819000
5.231200 0.899400
5.251200 0.980200
5.271200 1.061300
5.291300 1.142900
5.311300 1.228300
5.331300 1.311100
5.351400 1.394300
5.371400 1.488200
5.391400 1.591900
5.411400 1.693900
5.431500 1.786800
5.451500 1.864300
5.471500 1.944200
5.491600 2.093000
5.511600 2.224400
5.531600 2.376800
5.551700 2.486100
5.571700 2.573600
5.591700 2.648100
5.611700 2.709000
5.631800 2.757400
5.651800 2.904000
5.671800 2.969900
5.691900 3.029100
5.711900 3.077500
5.731900 3.054300
5.752000 3.114400
5.772000 3.190200
5.792000 3.276200
5.812000 3.387700
5.832100 3.530700
5.852100 3.731300
5.872100 4.055500
5.892200 4.351900
5.912200 3.824500
5.932200 3.754200
5.952300 3.794500
5.972300 3.391700
5.992300 3.325700
6.012300 3.291100
6.032400 3.273000
6.052400 3.253500
6.072400 3.239100
6.092500 3.275800
6.112500 2.745100
6.132500 2.969100
6.152600 2.849800
6.172600 2.713400
6.192600 2.576500
6.212600 2.441700
6.232700 2.318400
6.252700 2.205300
6.272700 2.115100
6.292800 2.036400
6.312800 1.958200
6.332800 1.883900
6.352900 1.820600
6.372900 1.771400
6.392900 1.697000
6.412900 1.652100
6.433000 1.606200
6.453000 1.561000
6.473000 1.516600
6.493100 1.476400
6.513100 1.439700
6.533100 1.403300
6.553200 1.367200
6.573200 1.331400
6.593200 1.296000
6.613200 1.299100
6.633300 1.287900
6.653300 1.287700
6.673300 1.283500
6.693400 1.273900
6.713400 1.256300
6.733400 1.238100
6.753500 1.224800
6.773500 1.171400
6.793500 1.060400
6.813500 0.965500
6.833600 0.877100
6.853600 0.831900
6.873600 0.922300
6.893700 0.989900
6.913700 1.211400
6.933700 1.675600
6.953800 1.407500
6.973800 0.979900
6.993800 0.613000
7.013800 0.489400
7.033900 0.452900
7.053900 0.551400
7.073900 0.573300
7.094000 0.605800
7.114000 0.648700
7.134000 0.702000
7.154100 0.765900
7.174100 0.833300
7.194100 0.874700
7.214100 1.006200
7.234200 1.071000
7.254200 1.178700
7.274200 1.312800
7.294300 1.501500
7.314300 1.896900
7.334300 2.443100
7.354400 3.201200
7.374400 4.212800
7.394400 6.517700
7.414400 6.270900
7.434500 5.449300
7.454500 5.093900
7.474500 4.873800
7.494600 4.772700
7.514600 4.909300
7.534600 4.994000
7.554700 5.015200
7.574700 4.996500
7.594700 4.944700
7.614700 4.668800
7.634800 4.250600
7.654800 3.817900
7.674800 3.381300
7.694900 3.960100
7.714900 3.919900
7.734900 3.607300
7.755000 2.845300
7.775000 2.436300
7.795000 2.276200
7.815100 2.311200
7.835100 2.213400
7.855100 2.308000
7.875100 2.438200
7.895200 2.565600
7.915200 2.699500
7.935200 2.844700
7.955300 2.983300
7.975300 3.114100
7.995300 3.242400
8.015400 3.708900
8.035400 4.845800
8.055400 6.147900
8.075400 4.263400
8.095500 3.467400
8.115500 3.346300
8.135500 2.983900
8.155600 2.785100
8.175600 2.573100
8.195600 2.369300
8.215700 2.251000
8.235700 2.190900
8.255700 2.169600
8.275700 2.146400
8.295800 2.516900
8.315800 2.223400
8.335800 2.087200
8.355900 2.077000
8.375900 2.149200
8.395900 2.228900
8.416000 2.261800
8.436000 2.313000
8.456000 2.584400
8.476000 2.710400
8.496100 2.540500
8.516100 2.500200
8.536100 2.505000
8.556200 2.647700
8.576200 2.945200
8.596200 3.343500
8.616300 3.848000
8.636300 4.474000
8.656300 4.962400
8.676300 5.266000
8.696400 5.166000
8.716400 4.832900
8.736400 4.582900
8.756500 4.362600
8.776500 4.360500
8.796500 4.311900
8.816600 3.909400
8.836600 3.724000
8.856600 3.630400
8.876600 3.584300
8.896700 3.273700
8.916700 3.169900
8.936700 3.056600
8.956800 2.954800
8.976800 2.845000
8.996800 2.740600
9.016900 2.637500
9.036900 2.367900
9.056900 2.304100
9.076900 2.227400
9.097000 2.180500
9.117000 2.137800
9.137000 2.085000
9.157100 2.053300
9.177100 2.019100
9.197100 1.988900
9.217200 1.976900
9.237200 2.207700
9.257200 2.498700
9.277200 2.294100
9.297300 2.136500
9.317300 2.120700
9.337300 2.104200
9.357400 2.818000
9.377400 2.104200
9.397400 2.106200
9.417500 2.097800
9.437500 2.097600
9.457500 2.089100
9.477500 2.064700
9.497600 2.038800
9.517600 2.072700
9.537600 2.108700
9.557700 2.263100
9.577700 2.284400
9.597700 2.333800
9.617800 2.387500
9.637800 2.435900
9.657800 2.501600
9.677800 2.568000
9.697900 2.644300
9.717900 2.732400
9.737900 2.860700
9.758000 2.930500
9.778000 2.957400
9.798000 2.964100
9.818100 2.955900
9.838100 2.938900
9.858100 2.936600
9.878100 2.930100
9.898200 2.916700
9.918200 2.893800
9.938200 2.910900
9.958300 2.856500
9.978300 2.991400
9.998300 2.694400
10.018400 2.640100
10.038400 2.584200
10.058400 2.533100
10.078400 2.516600
10.098500 2.535300
10.118500 2.563200
10.138500 2.578800
10.158600 3.730000
10.178600 2.704300
10.198600 2.707600
10.218700 2.718100
10.238700 2.774400
10.258700 2.791900
10.278700 2.814300
10.298800 3.279900
10.318800 3.232800
10.338800 3.771300
10.358900 3.132400
10.378900 2.721800
10.398900 2.715400
10.419000 2.673900
10.439000 2.711300
10.459000 2.743300
10.479000 2.718800
10.499100 2.764800
10.519100 3.197200
10.539100 3.530000
10.559200 3.782600
10.579200 3.875500
10.599200 3.152900
10.619300 3.022400
10.639300 3.022600
10.659300 3.290800
10.679400 2.958800
10.699400 2.920900
10.719400 2.899600
10.739400 2.894800
10.759500 2.913700
10.779500 3.064600
10.799500 3.514000
10.819600 3.840800
10.839600 3.556300
10.859600 3.152900
10.879700 3.086200
10.899700 3.080100
10.919700 2.996000
10.939700 2.937400
10.959800 2.757200
10.979800 2.641200
10.999800 2.570300
11.019900 2.478100
11.039900 2.389200
11.059900 2.297800
11.080000 2.207400
11.100000 2.176300
11.120000 2.220900
11.140000 2.102600
11.160100 2.032200
11.180100 1.925800
11.200100 1.827400
11.220200 1.734200
11.240200 1.649600
11.260200 1.581400
11.280300 1.521800
11.300300 1.468700
11.320300 1.420500
11.340300 1.373500
11.360400 1.323000
11.380400 1.313500
11.400400 1.439600
11.420500 1.698600
11.440500 2.513300
11.460500 2.326700
11.480600 2.007700
11.500600 1.885900
11.520600 1.890900
11.540600 1.895900
11.560700 1.895100
11.580700 1.894100
11.600700 1.908700
11.620800 1.951300
11.640800 2.087300
11.660800 2.190600
11.680900 2.293900
11.700900 2.384600
11.720900 2.517700
11.740900 2.599100
11.761000 2.690100
11.781000 2.791400
11.801000 3.068800
11.821100 3.302800
11.841100 3.524100
11.861100 3.483200
11.881200 3.463400
11.901200 3.474600
11.921200 3.553800
11.941200 3.485400
11.961300 3.402100
11.981300 3.229900
12.001300 2.963000
12.021400 2.796000
12.041400 2.682400
12.061400 2.615500
12.081500 2.606600
12.101500 2.655200
12.121500 2.678200
12.141500 2.672400
12.161600 2.667500
12.181600 2.672300
12.201600 3.174100
12.221700 2.943000
12.241700 3.022100
12.261700 3.126900
12.281800 3.252600
12.301800 3.350200
12.321800 3.181000
12.341800 3.180900
12.361900 3.177600
12.381900 3.266400
12.401900 3.523800
12.422000 3.749000
12.442000 2.919000
12.462000 2.852700
12.482100 2.774200
12.502100 2.553700
12.522100 2.374800
12.542100 2.365000
12.562200 2.378300
12.582200 2.684200
12.602200 2.558300
12.622300 2.630500
12.642300 2.685000
12.662300 2.765400
12.682400 2.848500
12.702400 2.933700
12.722400 2.946300
12.742400 3.037400
12.762500 3.127000
12.782500 3.608500
12.802500 3.209500
12.822600 3.277700
12.842600 3.061900
12.862600 2.978200
12.882700 2.925300
12.902700 2.861300
12.922700 2.802800
12.942700 2.749500
12.962800 2.640800
12.982800 2.601200
13.002800 2.635100
13.022900 2.684700
13.042900 2.734700
13.062900 3.026000
13.083000 2.611600
13.103000 2.604700
13.123000 2.612600
13.143000 2.634200
13.163100 2.671500
13.183100 3.075500
13.203100 2.943700
13.223200 2.931000
13.243200 2.899600
13.263200 2.762500
13.283300 2.705100
13.303300 2.667000
13.323300 2.621800
13.343300 2.577700
13.363400 2.723300
13.383400 2.924900
13.403400 2.767800
13.423500 2.584200
13.443500 2.682100
13.463500 2.736500
13.483600 2.720100
13.503600 2.658300
13.523600 2.652400
13.543700 2.641600
13.563700 2.708700
13.583700 3.311300
13.603700 2.989000
13.623800 3.147700
13.643800 3.304600
13.663800 3.217800
13.683900 3.160600
13.703900 2.979200
13.723900 2.800600
13.744000 2.820600
13.764000 2.986600
13.784000 3.187400
13.804000 3.344900
13.824100 3.391800
13.844100 3.395300
13.864100 3.285400
13.884200 3.199500
13.904200 3.117100
13.924200 3.025800
13.944300 2.951200
13.964300 2.918400
13.984300 2.895400
14.004300 3.427200
14.024400 3.226400
14.044400 3.181000
14.064400 3.127000
14.084500 3.066700
14.104500 2.991700
14.124500 2.958200
14.144600 2.934200
14.164600 2.895300
14.184600 2.867100
14.204600 2.841500
14.224700 2.805500
14.244700 2.767600
14.264700 2.717800
14.284800 2.602900
14.304800 2.633800
14.324800 2.532000
14.344900 2.654100
14.364900 2.841900
14.384900 2.988700
14.404900 3.224200
14.425000 3.494000
14.445000 3.677500
14.465000 3.876000
14.485100 4.076300
14.505100 4.261000
14.525100 4.426500
14.545200 4.587800
14.565200 4.501000
14.585200 4.377400
14.605200 4.784300
14.625300 4.418600
14.645300 3.320600
14.665300 3.168700
14.685400 2.993900
14.705400 2.808300
14.725400 2.648000
14.745500 2.541800
14.765500 2.521300
14.785500 2.557400
14.805500 2.511000
14.825600 2.455800
14.845600 2.421300
14.865600 2.377900
14.885700 2.409800
14.905700 2.455200
14.925700 2.483200
14.945800 2.483000
14.965800 2.515700
14.985800 2.633100
15.005800 2.811600
15.025900 3.031300
15.045900 3.241300
15.065900 3.433400
15.086000 3.768000
15.106000 4.027500
15.126000 4.268400
15.146100 4.767400
15.166100 4.766700
15.186100 4.779500
15.206100 4.811100
15.226200 5.103400
15.246200 5.201800
15.266200 5.235800
15.286300 4.949700
15.306300 4.397000
15.326300 4.037600
15.346400 3.493700
15.366400 2.861900
15.386400 2.852500
15.406400 3.035100
15.426500 3.203500
15.446500 3.344700
15.466500 3.422600
15.486600 3.491000
15.506600 3.186800
15.526600 3.344700
15.546700 3.798600
15.566700 4.084100
15.586700 4.047700
15.606700 3.880900
15.626800 3.730800
15.646800 3.749900
15.666800 3.804600
15.686900 3.922000
15.706900 3.965400
15.726900 3.992000
15.747000 4.066300
15.767000 3.961100
15.787000 4.001200
15.807000 4.044900
15.827100 4.077700
15.847100 4.108800
15.867100 4.146400
15.887200 4.151500
15.907200 4.129100
15.927200 4.052300
15.947300 3.985200
15.967300 3.802000
15.987300 4.006700
16.007300 4.314800
16.027400 4.787700
16.047400 5.285100
16.067400 4.461500
16.087500 4.113700
16.107500 3.927100
16.127500 3.778000
16.147600 3.659100
16.167600 3.520700
16.187600 3.418200
16.207700 3.328600
16.227700 3.257400
16.247700 3.225500
16.267700 3.180900
16.287800 3.179100
16.307800 3.170700
16.327800 3.223200
16.347900 3.255600
16.367900 3.242600
16.387900 3.281200
16.408000 3.295800
16.428000 3.263400
16.448000 3.242300
16.468000 3.170800
16.488100 3.125600
16.508100 3.176300
16.528100 3.209100
16.548200 3.149100
16.568200 3.063900
16.588200 2.905700
16.608300 2.853900
16.628300 2.808500
16.648300 2.775600
16.668300 2.761600
16.688400 2.760700
16.708400 3.207400
16.728400 2.716100
16.748500 2.733900
16.768500 2.812600
16.788500 2.838100
16.808600 2.920000
16.828600 3.004100
16.848600 3.076900
16.868600 3.125900
16.888700 3.150000
16.908700 3.146200
16.928700 3.104700
16.948800 3.051900
16.968800 2.995200
16.988800 2.937000
17.008900 2.881100
17.028900 2.842200
17.048900 2.810400
17.068900 2.778600
17.089000 2.758100
17.109000 2.774900
17.129000 2.776200
17.149100 2.774300
17.169100 2.777900
17.189100 2.785200
17.209200 2.932200
17.229200 2.930400
17.249200 2.932500
17.269200 2.920400
17.289300 2.962800
17.309300 3.039600
17.329300 3.123900
17.349400 3.219500
17.369400 3.266200
17.389400 3.259800
17.409500 3.261500
17.429500 3.321200
17.449500 3.415200
17.469500 3.448100
17.489600 3.497500
17.509600 3.538400
17.529600 3.531900
17.549700 3.536000
17.569700 3.575200
17.589700 3.532400
17.609800 3.482400
17.629800 3.400800
17.649800 3.194300
17.669800 3.111800
17.689900 3.102500
17.709900 3.089600
17.729900 3.104900
17.750000 3.107600
17.770000 3.056800
17.790000 3.095700
17.810100 2.915600
17.830100 2.787600
17.850100 2.703700
17.870100 2.714500
17.890200 2.775300
17.910200 3.110400
17.930200 3.240400
17.950300 3.294500
17.970300 3.387000
17.990300 3.441900
18.010400 3.514600
18.030400 3.553800
18.050400 3.585600
18.070400 3.686100
18.090500 3.832900
18.110500 4.089400
18.130500 4.617700
18.150600 4.931400
18.170600 5.308000
18.190600 5.262700
18.210700 5.126400
18.230700 5.070700
18.250700 5.006500
18.270700 4.902600
18.290800 4.592000
18.310800 4.475000
18.330800 4.387000
18.350900 4.158800
18.370900 4.017800
18.390900 3.922700
18.411000 3.849200
18.431000 3.776800
18.451000 3.697200
18.471000 3.704900
18.491100 3.869100
18.511100 3.804200
18.531100 3.916100
18.551200 4.093400
18.571200 4.296600
18.591200 4.471100
18.611300 4.578900
18.631300 4.581300
18.651300 4.623800
18.671300 4.548400
18.691400 4.381400
18.711400 4.200600
18.731400 3.990900
18.751500 3.778600
18.771500 3.658700
18.791500 3.579500
18.811600 3.505800
18.831600 3.440100
18.851600 3.405400
18.871600 3.321200
18.891700 3.278900
18.911700 3.288600
18.931700 3.270200
18.951800 3.329400
18.971800 3.446600
18.991800 3.597700
19.011900 3.677300
19.031900 3.930700
19.051900 4.104800
19.072000 4.351200
19.092000 4.463500
19.112000 4.468900
19.132000 4.529600
19.152100 4.562200
19.172100 4.544200
19.192100 4.388100
19.212200 4.180300
19.232200 4.013500
19.252200 3.864200
19.272300 3.722900
19.292300 3.613700
19.312300 3.511800
19.332300 3.478300
19.352400 3.466000
19.372400 3.477200
19.392400 3.483600
19.412500 3.499700
19.432500 3.461600
19.452500 3.335700
19.472600 3.391200
19.492600 3.650000
19.512600 3.780500
19.532600 3.925300
19.552700 4.032300
19.572700 4.108900
19.592700 4.163800
19.612800 4.180000
19.632800 4.177200
19.652800 4.213100
19.672900 4.301600
19.692900 4.257000
19.712900 4.317700
19.732900 3.898800
19.753000 3.863400
19.773000 3.986400
19.793000 4.019200
19.813100 4.161200
19.833100 4.179300
19.853100 4.167000
19.873200 4.097100
19.893200 3.975900
19.913200 3.835700
19.933200 3.828000
19.953300 3.846100
19.973300 4.227300
19.993300 4.624400
20.013400 4.542000
20.033400 4.300300
20.053400 3.905300
20.073500 3.787500
20.093500 3.655300
20.113500 3.666000
20.133500 3.808800
20.153600 3.832900
20.173600 3.821300
20.193600 3.797900
20.213700 3.719100
20.233700 3.588700
20.253700 3.484400
20.273800 3.406600
20.293800 3.340800
20.313800 3.288700
20.333800 3.460000
20.353900 3.483900
20.373900 3.513100
20.393900 3.517600
20.414000 3.378200
20.434000 3.349100
20.454000 3.347100
20.474100 3.362200
20.494100 3.409700
20.514100 3.430400
20.534100 3.408700
20.554200 3.379400
20.574200 3.381800
20.594200 3.395500
20.614300 3.453000
20.634300 4.092100
20.654300 4.066200
20.674400 3.960600
20.694400 3.905700
20.714400 3.996000
20.734400 4.094900
20.754500 4.088900
20.774500 4.299500
20.794500 4.555800
20.814600 4.487400
20.834600 4.398700
20.854600 4.425700
20.874700 4.392000
20.894700 4.305900
20.914700 4.251700
20.934700 3.749300
20.954800 3.651400
20.974800 3.551600
20.994800 3.459600
21.014900 3.332400
21.034900 3.273300
21.054900 3.220300
21.075000 3.210100
21.095000 3.274400
21.115000 3.443800
21.135000 3.797200
21.155100 3.986000
21.175100 4.108300
21.195100 4.272800
21.215200 4.751300
21.235200 5.085200
21.255200 5.217700
21.275300 5.305000
21.295300 5.227500
21.315300 4.927500
21.335300 4.770500
21.355400 4.623800
21.375400 4.495100
21.395400 4.349000
21.415500 4.143400
21.435500 3.782700
21.455500 3.612600
21.475600 3.486000
21.495600 3.426800
21.515600 3.421300
21.535600 3.346500
21.555700 3.639600
21.575700 3.816900
21.595700 4.254300
21.615800 4.549300
21.635800 4.889600
21.655800 4.988900
21.675900 4.622100
21.695900 4.712800
21.715900 4.837000
21.735900 5.178300
21.756000 4.870700
21.776000 4.449400
21.796000 4.110600
21.816100 3.725600
21.836100 3.336700
21.856100 2.957200
21.876200 2.818100
21.896200 2.799900
21.916200 2.824100
21.936300 2.881500
21.956300 2.966600
21.976300 3.063800
21.996300 3.165900
22.016400 3.248800
22.036400 3.424900
22.056400 3.557100
22.076500 3.683100
22.096500 4.137500
22.116500 4.457500
22.136600 5.004600
22.156600 4.350000
22.176600 4.267400
22.196600 4.205700
22.216700 4.303900
22.236700 4.652700
22.256700 4.305900
22.276800 4.218300
22.296800 4.116300
22.316800 4.046000
22.336900 4.038200
22.356900 4.080200
22.376900 4.063300
22.396900 4.067900
22.417000 3.992100
22.437000 3.924900
22.457000 3.888100
22.477100 3.884900
22.497100 3.888300
22.517100 3.938400
22.537200 4.309700
22.557200 3.945000
22.577200 4.025400
22.597200 4.139300
22.617300 4.293200
22.637300 4.494100
22.657300 4.783400
22.677400 5.225100
22.697400 5.137800
22.717400 5.090000
22.737500 5.143800
22.757500 5.063200
22.777500 4.992100
22.797500 4.891000
22.817600 4.784100
22.837600 5.278800
22.857600 4.678300
22.877700 4.401800
22.897700 4.193300
22.917700 4.022200
22.937800 3.973800
22.957800 3.908700
22.977800 3.879400
22.997800 3.742700
23.017900 3.630000
23.037900 3.442600
23.057900 3.251800
23.078000 3.327400
23.098000 3.245000
23.118000 3.243800
23.138100 3.178900
23.158100 3.109200
23.178100 3.160600
23.198100 3.250900
23.218200 3.350400
23.238200 3.448200
23.258200 3.619200
23.278300 3.830500
23.298300 4.101100
23.318300 4.328300
23.338400 4.502000
23.358400 4.401700
23.378400 4.223700
23.398400 4.088900
23.418500 3.977100
23.438500 3.794900
23.458500 3.560500
23.478600 3.398900
23.498600 3.170000
23.518600 3.086000
23.538700 2.539300
23.558700 2.400200
23.578700 2.248900
23.598700 2.091000
23.618800 1.937500
23.638800 1.797900
23.658800 1.685200
23.678900 1.602200
23.698900 1.526200
23.718900 1.411600
23.739000 1.236300
23.759000 1.179300
23.779000 1.126400
23.799000 1.088600
23.819100 1.067600
23.839100 0.932600
23.859100 0.874100
23.879200 0.798700
23.899200 0.726200
23.919200 0.656900
23.939300 0.591100
23.959300 0.532300
23.979300 0.494700
23.999300 0.480000
24.019400 0.480400
24.039400 0.484700
24.059400 0.472400
24.079500 0.442100
24.099500 0.416800
24.119500 0.393600
24.139600 0.376500
24.159600 0.363800
24.179600 0.350500
24.199600 0.342400
24.219700 0.336100
24.239700 0.329900
24.259700 0.323700
24.279800 0.316500
24.299800 0.308100
24.319800 0.299900
24.339900 0.291800
24.359900 0.283800
24.379900 0.276000
24.399900 0.268400
24.420000 0.260900
24.440000 0.253600
24.460000 0.246500
24.480100 0.239500
24.500100 0.232700
24.520100 0.226000
24.540200 0.219500
24.560200 0.210300
24.580200 0.204600
24.600200 0.176900
24.620300 0.172200
24.640300 0.167700
24.660300 0.163400
24.680400 0.159200
24.700400 0.155200
24.720400 0.151300
24.740500 0.147600
24.760500 0.144000
24.780500 0.140500
24.800600 0.136900
24.820600 0.133500
24.840600 0.137900
24.860600 0.133300
24.880700 0.128700
24.900700 0.124100
24.920700 0.119500
24.940800 0.115000
24.960800 0.110500
24.980800 0.105900
25.000900 0.101400
25.020900 0.096900
25.040900 0.092500
25.060900 0.088000
25.081000 0.083600
25.101000 0.079100
25.121000 0.074700
25.141100 0.070300
25.161100 0.066000
25.181100 0.061600
25.201200 0.057300
25.221200 0.052900
25.241200 0.048600
25.261200 0.044300
25.281300 0.040000
25.301300 0.035800
25.321300 0.031900
25.341400 0.029400
25.361400 0.027000
25.381400 0.024800
25.401500 0.022600
25.421500 0.020500
25.441500 0.018600
25.461500 0.016700
25.481600 0.015000
25.501600 0.013300
25.521600 0.011800
25.541700 0.010400
25.561700 0.009000
25.581700 0.007800
25.601800 0.006700
25.621800 0.005700
25.641800 0.004800
25.661800 0.003900
25.681900 0.003100
25.701900 0.002400
25.721900 0.001700
25.742000 0.001200
25.762000 0.000700
25.782000 0.000300
25.802100 0.000100
25.822100 0.000000
25.842100 0.000000
25.862100 0.000000
25.882200 0.000000
25.902200 0.000000
25.922200 0.000000
25.942300 0.000000
25.962300 0.000000
25.982300 0.000000
26.002400 0.000000
26.022400 0.000000
26.042400 0.000000
26.062400 0.000000
26.082500 0.000000
26.102500 0.000000
26.122500 0.000000
26.142600 0.000000
26.162600 0.000000
26.182600 0.000000
26.202700 0.000000
26.222700 0.000000
26.242700 0.000000
26.262700 0.000000
26.282800 0.000000
26.302800 0.000000
26.322800 0.000000
26.342900 0.000000
26.362900 0.000000
26.382900 0.000000
26.403000 0.000000
26.423000 0.000000
26.443000 0.000000
26.463000 0.000000
26.483100 0.000000
26.503100 0.000000
26.523100 0.000000
26.543200 0.000000
26.563200 0.000000
26.583200 0.000000
26.603300 0.000000
26.623300 0.000000
26.643300 0.000000
26.663300 0.000000
26.683400 0.000000
26.703400 0.000000
26.723400 0.000000
26.743500 0.000000
26.763500 0.000000
26.783500 0.000000
26.803600 0.000000
26.823600 0.000000
26.843600 0.000000
26.863600 0.000000
26.883700 0.000000
26.903700 0.000000
26.923700 0.000000
26.943800 0.000000
26.963800 0.000000
26.983800 0.000000
27.003900 0.000000
27.023900 0.000000
27.043900 0.000000
27.063900 0.000000
27.084000 0.000000
27.104000 0.000000
27.124000 0.000000
27.144100 0.000000
27.164100 0.000000
27.184100 0.000000
27.204200 0.000000
27.224200 0.000000
27.244200 0.000000
27.264200 0.000000
27.284300 0.000000
27.304300 0.000000
27.324300 0.000000
27.344400 0.000000
27.364400 0.000000
27.384400 0.000000
27.404500 0.000000
27.424500 0.000000
27.444500 0.000000
27.464500 0.000000
27.484600 0.000000
27.504600 0.000000
27.524600 0.000000
27.544700 0.000000
27.564700 0.000000
27.584700 0.000000
27.604800 0.000000
27.624800 0.000000
27.644800 0.000000
e
