set title 'mp-1183224 - Density of States'
set xlabel 'Energy (eV)'
set ylabel 'DOS (states/eV)'
set grid
set xrange [-10:10]
set yrange [0:18.437]
set xzeroaxis lt -1
set terminal png size 800,600
set output 'mp-1183224_dos_gnuplot.png'
plot '-' using 1:2 with lines title 'DOS'
-6.184400 0.000000
-6.164000 0.000000
-6.143500 0.000000
-6.123100 0.000000
-6.102600 0.000000
-6.082200 0.000000
-6.061700 0.000000
-6.041300 0.000000
-6.020800 0.000000
-6.000400 0.000000
-5.979900 0.000000
-5.959500 0.000000
-5.939000 0.000000
-5.918600 0.000000
-5.898100 0.000000
-5.877700 0.000000
-5.857200 0.000000
-5.836800 0.000000
-5.816300 0.000000
-5.795900 0.000000
-5.775400 0.000000
-5.755000 0.000000
-5.734600 0.000000
-5.714100 0.000000
-5.693700 0.000000
-5.673200 0.000000
-5.652800 0.000000
-5.632300 0.000000
-5.611900 0.000000
-5.591400 0.000000
-5.571000 0.000000
-5.550500 0.000000
-5.530100 0.000000
-5.509600 0.000000
-5.489200 0.000000
-5.468700 0.000000
-5.448300 0.000000
-5.427800 0.000000
-5.407400 0.000000
-5.386900 0.000000
-5.366500 0.000000
-5.346000 0.000000
-5.325600 0.000000
-5.305100 0.000000
-5.284700 0.000000
-5.264300 0.000000
-5.243800 0.000000
-5.223400 0.000000
-5.202900 0.000000
-5.182500 0.000000
-5.162000 0.000000
-5.141600 0.000000
-5.121100 0.000000
-5.100700 0.000000
-5.080200 0.000000
-5.059800 0.000000
-5.039300 0.000000
-5.018900 0.000000
-4.998400 0.000000
-4.978000 0.000000
-4.957500 0.000000
-4.937100 0.000000
-4.916600 0.000000
-4.896200 0.000000
-4.875700 0.000000
-4.855300 0.000000
-4.834800 0.000000
-4.814400 0.000000
-4.794000 0.000000
-4.773500 0.000000
-4.753100 0.000000
-4.732600 0.000000
-4.712200 0.000000
-4.691700 0.000000
-4.671300 0.000000
-4.650800 0.000000
-4.630400 0.000000
-4.609900 0.000000
-4.589500 0.000000
-4.569000 0.000000
-4.548600 0.000000
-4.528100 0.000000
-4.507700 0.000000
-4.487200 0.000000
-4.466800 0.000000
-4.446300 0.000000
-4.425900 0.000000
-4.405400 0.000000
-4.385000 0.000000
-4.364500 0.000000
-4.344100 0.000000
-4.323700 0.000000
-4.303200 0.005000
-4.282800 0.018300
-4.262300 0.039900
-4.241900 0.070000
-4.221400 0.096500
-4.201000 0.119800
-4.180500 0.123600
-4.160100 0.129300
-4.139600 0.136900
-4.119200 0.145700
-4.098700 0.155500
-4.078300 0.166400
-4.057800 0.177400
-4.037400 0.183100
-4.016900 0.193300
-3.996500 0.203800
-3.976000 0.214600
-3.955600 0.225000
-3.935100 0.233200
-3.914700 0.239000
-3.894200 0.242500
-3.873800 0.245100
-3.853400 0.253700
-3.832900 0.261100
-3.812500 0.268500
-3.792000 0.275700
-3.771600 0.282500
-3.751100 0.288900
-3.730700 0.295000
-3.710200 0.300900
-3.689800 0.307000
-3.669300 0.313400
-3.648900 0.320200
-3.628400 0.327200
-3.608000 0.334600
-3.587500 0.342400
-3.567100 0.350700
-3.546600 0.359200
-3.526200 0.367800
-3.505700 0.374300
-3.485300 0.380800
-3.464800 0.387300
-3.444400 0.393700
-3.423900 0.400100
-3.403500 0.406100
-3.383100 0.412300
-3.362600 0.418900
-3.342200 0.425600
-3.321700 0.432300
-3.301300 0.439100
-3.280800 0.445900
-3.260400 0.452800
-3.239900 0.459700
-3.219500 0.468300
-3.199000 0.476300
-3.178600 0.484500
-3.158100 0.492800
-3.137700 0.501200
-3.117200 0.509900
-3.096800 0.518700
-3.076300 0.527500
-3.055900 0.536400
-3.035400 0.545500
-3.015000 0.554800
-2.994500 0.564600
-2.974100 0.575200
-2.953600 0.585900
-2.933200 0.596200
-2.912700 0.606600
-2.892300 0.617400
-2.871900 0.628600
-2.851400 0.640300
-2.831000 0.652300
-2.810500 0.664800
-2.790100 0.677700
-2.769600 0.691000
-2.749200 0.704600
-2.728700 0.718400
-2.708300 0.733300
-2.687800 0.748500
-2.667400 0.764100
-2.646900 0.780200
-2.626500 0.796800
-2.606000 0.813800
-2.585600 0.831700
-2.565100 0.853700
-2.544700 0.885800
-2.524200 0.915400
-2.503800 0.943300
-2.483300 0.970800
-2.462900 0.998800
-2.442400 1.025100
-2.422000 1.067400
-2.401600 1.106900
-2.381100 1.127700
-2.360700 1.157900
-2.340200 1.194000
-2.319800 1.231700
-2.299300 1.270600
-2.278900 1.319900
-2.258400 1.384300
-2.238000 1.468400
-2.217500 1.567200
-2.197100 1.665800
-2.176600 1.994200
-2.156200 2.468500
-2.135700 3.090800
-2.115300 3.344000
-2.094800 3.575800
-2.074400 3.908800
-2.053900 4.597000
-2.033500 4.659700
-2.013000 3.884700
-1.992600 3.380300
-1.972100 2.168800
-1.951700 2.153700
-1.931300 2.258400
-1.910800 2.649800
-1.890400 2.549700
-1.869900 2.598600
-1.849500 2.726300
-1.829000 2.829600
-1.808600 3.060400
-1.788100 3.334500
-1.767700 3.327700
-1.747200 3.755800
-1.726800 4.280200
-1.706300 4.266000
-1.685900 4.700900
-1.665400 5.366000
-1.645000 5.923500
-1.624500 6.710000
-1.604100 7.063300
-1.583600 7.508300
-1.563200 7.981700
-1.542700 8.414600
-1.522300 8.891100
-1.501800 8.954100
-1.481400 9.068900
-1.461000 9.242500
-1.440500 9.718700
-1.420100 9.719300
-1.399600 9.211500
-1.379200 9.101000
-1.358700 9.483300
-1.338300 9.762900
-1.317800 9.674500
-1.297400 9.503600
-1.276900 9.601100
-1.256500 9.614400
-1.236000 9.833000
-1.215600 9.467200
-1.195100 9.372600
-1.174700 8.782900
-1.154200 8.379200
-1.133800 8.101400
-1.113300 7.910100
-1.092900 7.905100
-1.072400 7.802700
-1.052000 8.058100
-1.031500 8.421200
-1.011100 8.283700
-0.990700 8.685200
-0.970200 9.099100
-0.949800 8.678000
-0.929300 7.862400
-0.908900 7.105200
-0.888400 6.497000
-0.868000 5.908500
-0.847500 5.641000
-0.827100 5.640800
-0.806600 5.645900
-0.786200 5.639100
-0.765700 6.029700
-0.745300 6.274600
-0.724800 6.464200
-0.704400 6.531400
-0.683900 6.780600
-0.663500 7.323600
-0.643000 7.616900
-0.622600 8.081200
-0.602100 8.889300
-0.581700 9.973200
-0.561200 9.162300
-0.540800 9.265900
-0.520400 9.280100
-0.499900 8.776700
-0.479500 8.807500
-0.459000 9.296600
-0.438600 9.322500
-0.418100 9.142300
-0.397700 8.968300
-0.377200 8.989200
-0.356800 9.346300
-0.336300 9.264900
-0.315900 10.034600
-0.295400 9.961400
-0.275000 9.265600
-0.254500 8.757900
-0.234100 8.768500
-0.213600 9.102300
-0.193200 9.579300
-0.172700 10.878500
-0.152300 10.330800
-0.131800 9.892200
-0.111400 9.130300
-0.090900 10.208400
-0.070500 9.213700
-0.050100 9.424200
-0.029600 9.658800
-0.009200 9.734300
0.011300 10.148800
0.031700 10.895800
0.052200 11.583900
0.072600 12.613900
0.093100 12.426000
0.113500 13.390100
0.134000 14.510700
0.154400 16.112500
0.174900 16.415800
0.195300 16.761200
0.215800 15.778900
0.236200 15.852400
0.256700 15.139900
0.277100 14.791800
0.297600 14.124700
0.318000 13.597500
0.338500 13.025500
0.358900 13.515400
0.379400 12.583700
0.399800 11.189700
0.420200 9.860700
0.440700 8.897800
0.461100 8.307800
0.481600 7.287700
0.502000 7.184800
0.522500 7.404600
0.542900 7.795700
0.563400 8.153400
0.583800 8.376000
0.604300 8.706500
0.624700 8.810800
0.645200 8.796100
0.665600 8.966400
0.686100 9.420400
0.706500 10.103400
0.727000 10.832900
0.747400 10.535600
0.767900 10.124400
0.788300 10.052900
0.808800 10.546000
0.829200 10.621100
0.849700 10.660800
0.870100 10.051600
0.890500 9.264100
0.911000 9.090900
0.931400 9.760600
0.951900 10.762100
0.972300 8.955200
0.992800 8.494200
1.013200 8.328700
1.033700 8.115500
1.054100 8.026500
1.074600 8.140500
1.095000 7.943200
1.115500 7.849100
1.135900 7.891800
1.156400 7.996900
1.176800 8.529900
1.197300 9.109500
1.217700 8.720500
1.238200 9.314800
1.258600 9.397600
1.279100 9.619300
1.299500 9.827400
1.320000 9.823600
1.340400 11.078200
1.360800 11.177200
1.381300 10.480800
1.401700 10.572600
1.422200 9.506600
1.442600 8.478300
1.463100 8.019600
1.483500 8.647200
1.504000 8.787800
1.524400 8.709200
1.544900 8.410500
1.565300 8.384200
1.585800 8.588200
1.606200 9.267800
1.626700 9.431300
1.647100 9.136800
1.667600 8.762700
1.688000 8.413600
1.708500 8.356200
1.728900 8.210300
1.749400 8.619900
1.769800 9.205200
1.790300 9.522700
1.810700 9.150600
1.831100 9.084900
1.851600 8.966200
1.872000 8.985500
1.892500 8.917300
1.912900 8.391500
1.933400 8.027400
1.953800 8.188600
1.974300 8.593800
1.994700 8.687600
2.015200 9.281300
2.035600 10.139000
2.056100 10.448100
2.076500 12.010600
2.097000 10.954600
2.117400 11.033700
2.137900 9.143900
2.158300 8.966300
2.178800 9.751900
2.199200 10.848200
2.219700 10.200500
2.240100 13.564300
2.260600 11.332100
2.281000 9.892900
2.301400 9.274400
2.321900 9.304100
2.342300 8.361100
2.362800 8.803300
2.383200 8.482600
2.403700 8.197000
2.424100 7.841700
2.444600 6.358100
2.465000 5.062400
2.485500 3.024200
2.505900 2.356200
2.526400 2.057900
2.546800 1.950000
2.567300 1.853000
2.587700 1.830800
2.608200 1.817300
2.628600 1.832700
2.649100 1.882300
2.669500 1.889700
2.690000 1.826100
2.710400 1.725400
2.730900 1.642900
2.751300 1.557100
2.771700 1.457800
2.792200 1.361700
2.812600 1.310800
2.833100 1.282700
2.853500 1.272900
2.874000 1.260100
2.894400 1.241200
2.914900 1.226200
2.935300 1.219900
2.955800 1.212900
2.976200 1.200600
2.996700 1.165800
3.017100 1.153600
3.037600 1.142000
3.058000 1.131800
3.078500 1.122800
3.098900 1.126200
3.119400 1.136700
3.139800 1.145700
3.160300 1.184300
3.180700 1.150400
3.201200 1.140500
3.221600 1.109700
3.242000 1.085600
3.262500 1.072000
3.282900 1.059300
3.303400 1.049000
3.323800 1.111500
3.344300 1.298600
3.364700 0.972500
3.385200 0.974800
3.405600 0.991100
3.426100 1.053400
3.446500 1.076000
3.467000 1.071700
3.487400 1.064100
3.507900 1.053300
3.528300 1.041300
3.548800 1.039600
3.569200 1.045500
3.589700 1.050400
3.610100 1.054900
3.630600 1.059500
3.651000 1.064200
3.671500 1.069800
3.691900 1.075700
3.712400 1.081800
3.732800 1.085900
3.753200 1.090800
3.773700 1.095100
3.794100 1.098800
3.814600 1.102200
3.835000 1.106800
3.855500 1.111300
3.875900 1.115700
3.896400 1.119700
3.916800 1.151000
3.937300 1.180400
3.957700 1.209500
3.978200 1.315300
3.998600 1.360800
4.019100 1.185600
4.039500 1.126700
4.060000 1.037900
4.080400 1.000400
4.100900 1.001700
4.121300 1.435200
4.141800 1.138300
4.162200 1.169000
4.182700 1.980500
4.203100 1.076500
4.223500 1.078600
4.244000 1.081300
4.264400 1.086100
4.284900 1.090600
4.305300 1.094200
4.325800 1.096300
4.346200 1.097200
4.366700 1.096900
4.387100 1.095900
4.407600 1.095000
4.428000 1.094300
4.448500 1.093600
4.468900 1.093100
4.489400 1.092600
4.509800 1.092400
4.530300 1.092300
4.550700 1.091700
4.571200 1.091700
4.591600 1.093200
4.612100 1.094900
4.632500 1.096800
4.653000 1.099000
4.673400 1.101500
4.693800 1.105500
4.714300 1.110100
4.734700 1.120400
4.755200 1.131600
4.775600 1.141200
4.796100 1.151600
4.816500 1.161900
4.837000 1.167200
4.857400 1.171800
4.877900 1.175500
4.898300 1.178200
4.918800 1.179900
4.939200 1.274100
4.959700 1.161200
4.980100 1.159600
5.000600 1.162100
5.021000 1.165000
5.041500 1.167900
5.061900 1.162500
5.082400 1.164300
5.102800 1.215400
5.123300 1.156800
5.143700 1.120200
5.164100 1.096700
5.184600 1.093900
5.205000 1.095600
5.225500 1.099800
5.245900 1.104200
5.266400 1.107900
5.286800 1.109500
5.307300 1.111300
5.327700 1.112900
5.348200 1.113700
5.368600 1.115600
5.389100 1.116900
5.409500 1.117900
5.430000 1.119000
5.450400 1.117900
5.470900 1.115300
5.491300 1.111800
5.511800 1.107700
5.532200 1.106200
5.552700 1.105400
5.573100 1.104800
5.593600 1.104700
5.614000 1.106400
5.634400 1.109800
5.654900 1.116600
5.675300 1.126700
5.695800 1.139300
5.716200 1.153900
5.736700 1.144100
5.757100 1.150500
5.777600 1.158500
5.798000 1.166300
5.818500 1.173400
5.838900 1.182300
5.859400 1.191300
5.879800 1.201700
5.900300 1.213600
5.920700 1.224100
5.941200 1.233000
5.961600 1.240100
5.982100 1.245900
6.002500 1.250200
6.023000 1.253000
6.043400 1.254400
6.063900 1.254300
6.084300 1.262400
6.104700 1.257500
6.125200 1.251800
6.145600 1.235600
6.166100 1.211200
6.186500 1.195100
6.207000 1.181100
6.227400 1.166300
6.247900 1.145600
6.268300 1.121500
6.288800 1.096500
6.309200 1.072500
6.329700 1.049400
6.350100 1.028400
6.370600 1.009700
6.391000 0.992100
6.411500 0.976100
6.431900 0.961600
6.452400 0.948500
6.472800 0.936700
6.493300 0.925200
6.513700 0.913300
6.534200 0.903000
6.554600 0.894000
6.575000 0.887700
6.595500 0.872400
6.615900 0.859800
6.636400 0.859900
6.656800 0.857500
6.677300 0.856800
6.697700 0.857000
6.718200 0.858600
6.738600 0.863500
6.759100 0.868700
6.779500 0.873200
6.800000 0.876200
6.820400 0.877800
6.840900 0.879200
6.861300 0.880700
6.881800 0.884300
6.902200 0.893700
6.922700 0.907500
6.943100 0.905400
6.963600 0.901200
6.984000 0.911200
7.004500 0.924200
7.024900 0.941000
7.045300 0.964400
7.065800 0.994900
7.086200 1.033700
7.106700 1.082000
7.127100 1.069700
7.147600 1.086500
7.168000 1.096000
7.188500 1.100300
7.208900 1.106700
7.229400 1.137600
7.249800 1.158000
7.270300 1.178600
7.290700 1.184000
7.311200 1.187300
7.331600 1.180500
7.352100 1.171100
7.372500 1.191600
7.393000 1.205900
7.413400 1.220600
7.433900 1.241600
7.454300 1.265900
7.474800 1.295100
7.495200 1.323900
7.515600 1.352500
7.536100 1.388900
7.556500 1.459200
7.577000 1.473000
7.597400 1.485400
7.617900 1.472800
7.638300 1.474600
7.658800 1.474600
7.679200 1.472700
7.699700 1.469700
7.720100 1.466000
7.740600 1.461600
7.761000 1.455900
7.781500 1.479900
7.801900 1.495400
7.822400 1.482300
7.842800 1.475900
7.863300 1.453100
7.883700 1.470200
7.904200 1.357500
7.924600 1.294600
7.945100 1.266500
7.965500 1.236100
7.985900 1.206700
8.006400 1.190100
8.026800 1.176000
8.047300 1.163000
8.067700 1.242000
8.088200 1.122000
8.108600 1.138100
8.129100 1.159600
8.149500 1.183600
8.170000 1.211800
8.190400 1.213400
8.210900 1.244600
8.231300 1.271100
8.251800 1.266100
8.272200 1.230000
8.292700 1.211800
8.313100 1.178300
8.333600 1.166300
8.354000 1.154600
8.374500 1.143600
8.394900 1.137100
8.415400 1.131400
8.435800 1.126200
8.456200 1.121600
8.476700 1.118100
8.497100 1.115600
8.517600 1.114000
8.538000 1.113000
8.558500 1.112300
8.578900 1.111800
8.599400 1.112100
8.619800 1.113600
8.640300 1.116100
8.660700 1.119600
8.681200 1.180600
8.701600 1.154200
8.722100 1.132800
8.742500 1.116700
8.763000 1.105900
8.783400 1.101300
8.803900 1.101300
8.824300 1.099500
8.844800 1.099400
8.865200 1.099700
8.885700 1.100600
8.906100 1.097100
8.926500 1.101000
8.947000 1.116000
8.967400 1.124400
8.987900 1.119700
9.008300 1.126500
9.028800 1.132400
9.049200 1.138100
9.069700 1.144500
9.090100 1.151600
9.110600 1.159600
9.131000 1.168400
9.151500 1.178200
9.171900 1.197300
9.192400 1.212100
9.212800 1.226700
9.233300 1.246100
9.253700 1.292800
9.274200 1.296800
9.294600 1.309500
9.315100 1.322400
9.335500 1.336500
9.356000 1.365400
9.376400 1.374700
9.396800 1.385900
9.417300 1.398600
9.437700 1.413500
9.458200 1.430300
9.478600 1.445000
9.499100 1.507100
9.519500 1.563400
9.540000 1.616600
9.560400 1.532800
9.580900 1.561000
9.601300 1.566400
9.621800 1.589000
9.642200 1.587600
9.662700 1.585400
9.683100 1.582000
9.703600 1.580200
9.724000 1.580500
9.744500 1.579500
9.764900 1.576300
9.785400 1.574300
9.805800 1.573400
9.826300 1.571300
9.846700 1.567300
9.867100 1.562300
9.887600 1.560800
9.908000 1.564400
9.928500 1.554800
9.948900 1.545100
9.969400 1.535700
9.989800 1.527900
10.010300 1.522900
10.030700 1.522400
10.051200 1.547700
10.071600 1.536000
10.092100 1.523400
10.112500 1.513100
10.133000 1.501900
10.153400 1.477900
10.173900 1.427000
10.194300 1.369100
10.214800 1.336600
10.235200 1.324800
10.255700 1.313700
10.276100 1.303900
10.296600 1.295200
10.317000 1.287300
10.337500 1.258300
10.357900 1.247400
10.378300 1.237000
10.398800 1.228000
10.419200 1.221600
10.439700 1.217500
10.460100 1.214000
10.480600 1.218200
10.501000 1.218200
10.521500 1.215400
10.541900 1.212800
10.562400 1.210300
10.582800 1.208000
10.603300 1.206400
10.623700 1.205300
10.644200 1.204500
10.664600 1.203700
10.685100 1.203200
10.705500 1.203400
10.726000 1.208200
10.746400 1.217500
10.766900 1.230500
10.787300 1.245000
10.807800 1.214900
10.828200 1.216800
10.848600 1.218900
10.869100 1.221300
10.889500 1.223800
10.910000 1.230600
10.930400 1.278600
10.950900 1.276400
10.971300 1.287600
10.991800 1.297400
11.012200 1.304200
11.032700 1.308900
11.053100 1.312200
11.073600 1.308600
11.094000 1.320000
11.114500 1.340700
11.134900 1.356500
11.155400 1.367800
11.175800 1.374100
11.196300 1.378300
11.216700 1.385800
11.237200 1.392400
11.257600 1.397400
11.278100 1.403600
11.298500 1.407000
11.318900 1.409500
11.339400 1.404100
11.359800 1.375700
11.380300 1.362600
11.400700 1.345600
11.421200 1.328500
11.441600 1.313800
11.462100 1.301700
11.482500 1.304800
11.503000 1.311900
11.523400 1.320400
11.543900 1.328400
11.564300 1.333300
11.584800 1.335600
11.605200 1.314300
11.625700 1.304700
11.646100 1.311800
11.666600 1.339300
11.687000 1.335900
11.707500 1.317600
11.727900 1.321400
11.748400 1.330600
11.768800 1.340300
11.789200 1.345400
11.809700 1.346200
11.830100 1.342700
11.850600 1.350100
11.871000 1.360300
11.891500 1.372900
11.911900 1.387600
11.932400 1.403400
11.952800 1.425100
11.973300 1.438900
11.993700 1.452600
12.014200 1.465600
12.034600 1.477800
12.055100 1.489800
12.075500 1.501700
12.096000 1.519400
12.116400 1.549000
12.136900 1.594600
12.157300 1.614200
12.177800 1.590000
12.198200 1.610800
12.218700 1.626100
12.239100 1.636000
12.259500 1.642100
12.280000 1.655100
12.300400 1.668500
12.320900 1.681400
12.341300 1.701500
12.361800 1.723700
12.382200 1.745200
12.402700 1.767800
12.423100 1.784500
12.443600 1.796700
12.464000 1.882800
12.484500 2.015300
12.504900 1.979900
12.525400 1.913400
12.545800 1.859700
12.566300 1.816100
12.586700 1.812600
12.607200 1.819800
12.627600 1.853700
12.648100 1.867500
12.668500 1.849600
12.689000 1.836000
12.709400 1.836500
12.729800 1.837400
12.750300 1.833300
12.770700 1.813700
12.791200 1.774400
12.811600 1.728300
12.832100 1.678400
12.852500 1.625900
12.873000 1.573100
12.893400 1.522300
12.913900 1.497400
12.934300 1.467700
12.954800 1.427100
12.975200 1.381300
12.995700 1.346800
13.016100 1.316900
13.036600 1.290300
13.057000 1.267900
13.077500 1.249100
13.097900 1.233500
13.118400 1.221300
13.138800 1.211800
13.159300 1.204000
13.179700 1.197800
13.200100 1.198500
13.220600 1.199600
13.241000 1.201100
13.261500 1.206300
13.281900 1.221600
13.302400 1.242100
13.322800 1.249700
13.343300 1.257200
13.363700 1.266900
13.384200 1.277600
13.404600 1.289000
13.425100 1.301500
13.445500 1.315400
13.466000 1.330100
13.486400 1.348100
13.506900 1.365100
13.527300 1.381800
13.547800 1.398900
13.568200 1.416000
13.588700 1.433200
13.609100 1.462000
13.629600 1.498600
13.650000 1.547400
13.670400 1.582100
13.690900 1.618200
13.711300 1.658400
13.731800 1.694100
13.752200 1.748700
13.772700 1.795500
13.793100 1.800900
13.813600 1.795200
13.834000 1.786000
13.854500 1.780600
13.874900 1.778800
13.895400 1.778000
13.915800 1.782400
13.936300 1.788100
13.956700 1.793100
13.977200 1.799300
13.997600 1.802900
14.018100 1.806000
14.038500 1.808700
14.059000 1.813200
14.079400 1.834600
14.099900 1.999800
14.120300 2.027600
14.140700 2.000100
14.161200 2.004700
14.181600 1.989000
14.202100 1.995300
14.222500 2.004900
14.243000 2.033200
14.263400 2.044800
14.283900 2.046500
14.304300 2.045500
14.324800 2.032600
14.345200 2.019100
14.365700 2.004100
14.386100 1.975500
14.406600 1.939900
14.427000 1.911600
14.447500 1.891300
14.467900 1.869600
14.488400 1.873300
14.508800 1.887800
14.529300 1.906500
14.549700 1.934100
14.570200 1.971100
14.590600 2.003900
14.611000 2.063500
14.631500 2.078800
14.651900 2.090400
14.672400 2.105700
14.692800 2.146300
14.713300 2.213300
14.733700 2.242800
14.754200 2.261600
14.774600 2.273400
14.795100 2.313900
14.815500 2.321400
14.836000 2.350500
14.856400 2.368600
14.876900 2.372400
14.897300 2.377400
14.917800 2.383100
14.938200 2.380900
14.958700 2.382500
14.979100 2.375800
14.999600 2.364500
15.020000 2.351200
15.040500 2.318500
15.060900 2.280700
15.081300 2.210800
15.101800 2.151200
15.122200 2.089400
15.142700 2.078800
15.163100 2.074600
15.183600 2.074900
15.204000 2.079900
15.224500 2.090900
15.244900 2.105600
15.265400 2.116500
15.285800 2.130700
15.306300 2.139200
15.326700 2.129800
15.347200 2.131500
15.367600 2.138600
15.388100 2.146500
15.408500 2.155200
15.429000 2.162100
15.449400 2.172900
15.469900 2.190700
15.490300 2.212600
15.510800 2.235400
15.531200 2.220800
15.551600 2.179100
15.572100 2.115500
15.592500 2.043900
15.613000 2.000800
15.633400 1.965800
15.653900 1.934000
15.674300 1.913400
15.694800 1.918100
15.715200 1.943800
15.735700 2.004600
15.756100 2.141100
15.776600 2.248300
15.797000 2.296900
15.817500 2.296700
15.837900 2.244000
15.858400 2.142700
15.878800 2.106000
15.899300 2.097700
15.919700 2.092800
15.940200 2.091900
15.960600 2.105200
15.981100 2.120300
16.001500 2.171600
16.021900 2.400200
16.042400 2.528200
16.062800 2.164800
16.083300 2.138800
16.103700 2.133300
16.124200 2.131400
16.144600 2.117300
16.165100 2.043200
16.185500 2.013400
16.206000 1.991000
16.226400 1.972500
16.246900 1.968700
16.267300 1.985700
16.287800 1.994100
16.308200 2.004100
16.328700 2.000900
16.349100 1.996400
16.369600 1.990000
16.390000 1.967800
16.410500 1.858300
16.430900 1.831800
16.451400 1.848700
16.471800 1.861100
16.492300 1.853700
16.512700 1.845800
16.533100 1.843200
16.553600 1.844700
16.574000 1.845800
16.594500 1.846100
16.614900 1.841600
16.635400 1.843500
16.655800 1.845700
16.676300 1.846100
16.696700 1.833400
16.717200 1.824500
16.737600 1.821200
16.758100 1.821700
16.778500 1.820300
16.799000 1.816700
16.819400 1.811800
16.839900 1.805800
16.860300 1.800600
16.880800 1.799900
16.901200 1.786600
16.921700 1.794600
16.942100 1.802300
16.962600 1.814400
16.983000 1.822300
17.003400 1.825900
17.023900 1.832300
17.044300 1.842200
17.064800 1.852000
17.085200 1.864300
17.105700 1.875400
17.126100 1.887400
17.146600 1.900500
17.167000 1.914000
17.187500 1.921700
17.207900 1.919800
17.228400 1.913200
17.248800 1.907600
17.269300 1.903000
17.289700 1.897500
17.310200 1.893100
17.330600 1.891500
17.351100 1.892400
17.371500 1.893300
17.392000 1.893200
17.412400 1.892200
17.432900 1.895500
17.453300 1.887600
17.473700 1.903700
17.494200 1.928600
17.514600 2.035800
17.535100 2.135000
17.555500 2.193600
17.576000 2.236200
17.596400 2.248500
17.616900 2.233800
17.637300 2.221800
17.657800 2.191200
17.678200 2.140800
17.698700 2.070200
17.719100 2.055500
17.739600 2.048100
17.760000 2.055300
17.780500 2.061800
17.800900 2.065700
17.821400 2.067600
17.841800 2.068500
17.862300 2.069200
17.882700 2.068200
17.903200 2.067700
17.923600 2.058800
17.944000 2.051200
17.964500 2.044900
17.984900 2.040600
18.005400 2.034500
18.025800 2.023800
18.046300 2.002400
18.066700 1.988300
18.087200 1.972000
18.107600 1.957900
18.128100 1.945400
18.148500 1.954400
18.169000 1.949500
18.189400 1.925300
18.209900 1.913100
18.230300 1.901300
18.250800 1.882600
18.271200 1.874300
18.291700 1.868800
18.312100 1.864100
18.332600 1.907700
18.353000 1.941300
18.373500 1.905100
18.393900 1.914100
18.414300 1.923500
18.434800 1.929600
18.455200 1.934100
18.475700 1.938300
18.496100 1.939500
18.516600 1.938300
18.537000 1.934700
18.557500 1.928700
18.577900 1.921100
18.598400 1.917400
18.618800 1.913700
18.639300 1.912500
18.659700 1.910200
18.680200 1.908000
18.700600 1.905900
18.721100 1.906000
18.741500 1.907300
18.762000 1.909500
18.782400 1.911400
18.802900 1.939300
18.823300 2.005300
18.843800 2.246100
18.864200 2.092200
18.884600 2.072600
18.905100 2.046500
18.925500 2.018000
18.946000 1.997200
18.966400 1.971900
18.986900 1.941800
19.007300 1.920800
19.027800 1.907600
19.048200 1.905600
19.068700 1.922200
19.089100 1.940000
19.109600 1.966700
19.130000 2.000000
19.150500 2.034200
19.170900 2.050500
19.191400 2.045300
19.211800 2.039900
19.232300 2.040000
19.252700 2.038200
19.273200 2.373000
19.293600 2.081900
19.314100 2.039000
19.334500 2.207900
19.354900 1.953400
19.375400 1.624500
19.395800 1.610200
19.416300 1.561700
19.436700 1.591300
19.457200 1.618600
19.477600 1.661500
19.498100 1.706500
19.518500 1.755600
19.539000 1.835600
19.559400 1.923300
19.579900 2.019000
19.600300 2.136500
19.620800 2.303400
19.641200 2.340000
19.661700 2.326100
19.682100 2.337100
19.702600 2.332900
19.723000 2.243200
19.743500 2.236900
19.763900 2.170200
19.784400 2.141300
19.804800 2.114100
19.825200 2.093600
19.845700 2.078600
19.866100 2.071100
19.886600 2.100700
19.907000 2.193900
19.927500 2.300600
19.947900 2.390100
19.968400 2.488400
19.988800 2.572600
20.009300 2.641000
20.029700 2.576100
20.050200 2.471200
20.070600 2.335500
20.091100 2.292500
20.111500 2.313800
20.132000 2.362100
20.152400 2.571200
20.172900 2.611800
20.193300 2.524800
20.213800 2.184400
20.234200 2.034500
20.254700 2.087800
20.275100 1.848200
20.295500 1.752600
20.316000 1.666100
20.336400 1.591100
20.356900 1.555300
20.377300 1.521500
20.397800 1.488900
20.418200 1.456200
20.438700 1.425600
20.459100 1.447100
20.479600 1.446100
20.500000 1.431700
20.520500 1.437800
20.540900 1.452600
20.561400 1.494800
20.581800 1.523700
20.602300 1.555900
20.622700 1.600700
20.643200 1.657700
20.663600 1.726900
20.684100 1.792500
20.704500 1.831500
20.725000 1.876300
20.745400 1.928000
20.765800 1.964200
20.786300 2.040000
20.806700 2.123800
20.827200 2.215500
20.847600 2.304600
20.868100 2.432700
20.888500 2.626200
20.909000 2.787900
20.929400 3.105800
20.949900 3.333300
20.970300 3.441100
20.990800 3.415300
21.011200 3.322800
21.031700 3.249800
21.052100 3.222900
21.072600 3.211400
21.093000 3.222500
21.113500 3.253500
21.133900 3.309400
21.154400 3.400700
21.174800 3.511200
21.195300 3.518300
21.215700 3.572800
21.236100 3.662600
21.256600 3.696500
21.277000 3.762900
21.297500 3.895500
21.317900 3.924100
21.338400 3.946200
21.358800 3.974800
21.379300 3.973800
21.399700 3.927000
21.420200 3.886600
21.440600 3.889000
21.461100 3.872800
21.481500 3.877700
21.502000 3.831100
21.522400 3.730200
21.542900 3.647900
21.563300 3.589500
21.583800 3.518100
21.604200 3.467500
21.624700 3.372700
21.645100 3.352200
21.665600 3.363600
21.686000 3.412300
21.706400 3.287500
21.726900 3.251600
21.747300 3.234300
21.767800 3.246200
21.788200 3.282100
21.808700 3.327800
21.829100 3.585400
21.849600 3.265900
21.870000 3.215800
21.890500 3.201200
21.910900 3.212700
21.931400 3.213900
21.951800 3.196800
21.972300 3.144200
21.992700 3.124600
22.013200 3.112200
22.033600 3.086400
22.054100 3.054400
22.074500 3.035700
22.095000 2.988500
22.115400 2.979000
22.135900 2.956500
22.156300 2.952500
22.176700 2.949600
22.197200 2.907700
22.217600 2.875500
22.238100 2.881600
22.258500 2.890300
22.279000 2.892200
22.299400 2.897000
22.319900 2.908600
22.340300 2.933500
22.360800 2.974500
22.381200 3.028100
22.401700 3.078000
22.422100 3.109700
22.442600 3.133700
22.463000 3.150000
22.483500 3.217600
22.503900 3.264000
22.524400 3.266900
22.544800 3.169300
22.565300 3.093300
22.585700 3.072900
22.606200 2.988000
22.626600 2.901000
22.647000 2.884600
22.667500 2.966200
22.687900 3.032700
22.708400 3.087700
22.728800 3.132100
22.749300 3.186500
22.769700 3.254800
22.790200 3.261700
22.810600 3.228100
22.831100 3.184000
22.851500 3.144500
22.872000 3.108400
22.892400 3.093000
22.912900 3.061900
22.933300 3.018600
22.953800 2.906300
22.974200 2.817700
22.994700 2.760800
23.015100 2.717900
23.035600 2.664100
23.056000 2.611900
23.076500 2.572100
23.096900 2.540100
23.117400 2.519600
23.137800 2.512600
23.158200 2.515300
23.178700 2.499100
23.199100 2.462100
23.219600 2.424100
23.240000 2.385400
23.260500 2.345800
23.280900 2.305500
23.301400 2.267100
23.321800 2.248300
23.342300 2.238200
23.362700 2.248700
23.383200 2.356000
23.403600 2.329200
23.424100 2.327200
23.444500 2.330500
23.465000 2.334100
23.485400 2.335100
23.505900 2.339600
23.526300 2.349300
23.546800 2.372400
23.567200 2.407700
23.587700 2.447700
23.608100 2.476500
23.628500 2.485300
23.649000 2.474500
23.669400 2.454000
23.689900 2.339100
23.710300 2.289300
23.730800 2.241400
23.751200 2.200700
23.771700 2.165400
23.792100 2.135600
23.812600 2.137600
23.833000 2.119200
23.853500 2.102900
23.873900 2.128600
23.894400 2.039100
23.914800 2.041400
23.935300 2.045800
23.955700 2.050800
23.976200 2.053700
23.996600 2.064300
24.017100 2.073600
24.037500 2.092300
24.058000 2.092800
24.078400 2.077600
24.098800 2.082400
24.119300 2.087000
24.139700 2.088600
24.160200 2.086200
24.180600 2.082200
24.201100 2.086300
24.221500 2.091500
24.242000 2.099000
24.262400 2.007000
24.282900 1.967000
24.303300 1.924500
24.323800 1.886300
24.344200 1.850900
24.364700 1.822300
24.385100 1.848500
24.405600 1.739800
24.426000 1.705500
24.446500 1.723800
24.466900 1.675600
24.487400 1.644800
24.507800 1.625500
24.528300 1.609300
24.548700 1.603700
24.569100 1.599800
24.589600 1.597000
24.610000 1.582400
24.630500 1.552300
24.650900 1.515800
24.671400 1.482300
24.691800 1.453100
24.712300 1.427600
24.732700 1.404100
24.753200 1.382100
24.773600 1.361200
24.794100 1.349600
24.814500 1.335400
24.835000 1.312000
24.855400 1.273300
24.875900 1.227700
24.896300 1.237800
24.916800 1.248200
24.937200 1.231600
24.957700 1.220400
24.978100 1.215200
24.998600 1.217200
25.019000 1.226400
25.039400 1.242400
25.059900 1.261500
25.080300 1.282800
25.100800 1.313700
25.121200 1.347500
25.141700 1.368900
25.162100 1.391600
25.182600 1.413900
25.203000 1.451000
25.223500 1.456300
25.243900 1.478300
25.264400 1.498900
25.284800 1.518100
25.305300 1.535800
25.325700 1.551800
25.346200 1.565100
25.366600 1.575300
25.387100 1.583000
25.407500 1.587500
25.428000 1.587900
25.448400 1.585300
25.468900 1.589700
25.489300 1.596800
25.509700 1.601300
25.530200 1.603200
25.550600 1.602800
25.571100 1.601900
25.591500 1.602300
25.612000 1.603100
25.632400 1.605600
25.652900 1.609100
25.673300 1.619900
25.693800 1.638800
25.714200 1.665000
25.734700 1.700000
25.755100 1.749700
25.775600 2.034300
25.796000 2.000600
25.816500 1.982200
25.836900 1.824900
25.857400 1.755400
25.877800 1.730600
25.898300 1.720300
25.918700 1.717700
25.939200 1.725300
25.959600 1.754100
25.980000 1.788200
26.000500 1.826400
26.020900 1.839100
26.041400 1.821800
26.061800 1.797100
26.082300 1.779200
26.102700 1.764500
26.123200 1.753900
26.143600 1.744400
26.164100 1.728500
26.184500 1.716000
26.205000 1.703600
26.225400 1.688700
26.245900 1.676200
26.266300 1.664900
26.286800 1.653500
26.307200 1.642300
26.327700 1.631200
26.348100 1.630000
26.368600 1.622900
26.389000 1.617200
26.409500 1.613300
26.429900 1.614100
26.450300 1.618600
26.470800 1.623100
26.491200 1.627500
26.511700 1.633500
26.532100 1.688100
26.552600 1.711100
26.573000 1.744300
26.593500 1.774700
26.613900 1.806300
26.634400 1.822800
26.654800 1.818800
26.675300 1.833500
26.695700 1.856400
26.716200 1.883700
26.736600 1.907500
26.757100 1.936000
26.777500 1.907500
26.798000 1.905300
26.818400 1.905000
26.838900 1.906200
26.859300 1.908700
26.879800 1.898900
26.900200 1.891900
26.920600 1.890700
26.941100 1.894400
26.961500 1.900000
26.982000 1.907400
27.002400 1.917300
27.022900 1.932700
27.043300 1.956900
27.063800 1.987200
27.084200 2.029700
27.104700 2.071400
27.125100 2.108000
27.145600 2.142800
27.166000 2.177700
27.186500 2.200800
27.206900 2.226500
27.227400 2.257400
27.247800 2.293000
27.268300 2.348900
27.288700 2.394900
27.309200 2.430400
27.329600 2.467800
27.350100 2.553000
27.370500 2.662900
27.390900 2.860700
27.411400 2.909100
27.431800 2.826100
27.452300 2.859500
27.472700 2.830700
27.493200 2.822000
27.513600 2.868800
27.534100 2.885100
27.554500 2.979600
27.575000 2.992600
27.595400 2.983000
27.615900 2.953900
27.636300 2.924100
27.656800 2.896400
27.677200 2.879600
27.697700 2.871900
27.718100 2.882500
27.738600 3.034900
27.759000 3.155200
27.779500 3.061800
27.799900 2.827600
27.820400 2.709500
27.840800 2.646600
27.861200 2.581600
27.881700 2.566700
27.902100 2.565100
27.922600 2.578200
27.943000 2.673100
27.963500 2.765600
27.983900 2.916900
28.004400 3.084100
28.024800 3.148800
28.045300 3.194600
28.065700 3.299300
28.086200 3.425600
28.106600 3.390700
28.127100 3.371700
28.147500 3.355400
28.168000 3.362500
28.188400 3.370600
28.208900 3.451100
28.229300 3.536500
28.249800 3.380600
28.270200 3.373100
28.290700 3.359500
28.311100 3.338900
28.331500 3.316600
28.352000 3.288800
28.372400 3.270000
28.392900 3.188600
28.413300 3.070900
28.433800 2.895000
28.454200 2.736500
28.474700 2.597600
28.495100 2.464900
28.515600 2.335600
28.536000 2.207400
28.556500 2.094700
28.576900 2.015700
28.597400 1.978200
28.617800 1.950100
28.638300 1.942700
28.658700 1.879200
28.679200 1.842200
28.699600 1.842000
28.720100 1.851900
28.740500 1.868300
28.761000 1.949600
28.781400 2.012000
28.801800 2.080000
28.822300 2.159500
28.842700 2.252300
28.863200 2.388600
28.883600 2.545200
28.904100 2.713800
28.924500 2.879600
28.945000 3.212300
28.965400 3.296900
28.985900 3.252100
29.006300 3.318000
29.026800 3.430200
29.047200 3.719800
29.067700 3.830700
29.088100 3.841400
29.108600 3.808300
29.129000 3.757600
29.149500 3.651200
29.169900 3.534300
29.190400 3.417000
29.210800 3.321500
29.231300 3.251000
29.251700 3.168800
29.272100 2.987300
29.292600 2.901500
29.313000 2.871600
29.333500 2.862700
29.353900 2.859700
29.374400 2.875500
29.394800 2.903500
29.415300 2.934400
29.435700 3.008500
29.456200 3.088500
29.476600 3.160200
29.497100 3.178300
29.517500 3.190400
29.538000 3.215500
29.558400 3.205500
29.578900 3.215500
29.599300 3.264400
29.619800 3.333800
29.640200 3.476000
29.660700 3.650900
29.681100 3.894700
29.701600 4.074100
29.722000 4.098500
29.742500 4.117200
29.762900 4.090900
29.783300 4.010200
29.803800 3.955700
29.824200 3.969800
29.844700 3.981800
29.865100 3.955000
29.885600 3.927600
29.906000 3.825900
29.926500 3.704600
29.946900 3.598100
29.967400 3.501900
29.987800 3.418100
30.008300 3.293300
30.028700 3.173000
30.049200 3.088300
30.069600 3.047800
30.090100 3.048300
30.110500 3.032100
30.131000 3.013500
30.151400 3.050700
30.171900 3.141900
30.192300 3.137300
30.212800 3.079400
30.233200 2.964800
30.253600 2.888100
30.274100 2.895600
30.294500 2.958500
30.315000 2.955800
30.335400 2.864900
30.355900 2.806900
30.376300 2.773500
30.396800 2.754800
30.417200 2.741700
30.437700 2.721600
30.458100 2.693900
30.478600 2.577500
30.499000 2.425500
30.519500 2.339700
30.539900 2.261100
30.560400 2.166600
30.580800 2.075600
30.601300 1.982200
30.621700 1.919800
30.642200 1.852500
30.662600 1.796100
30.683100 1.748100
30.703500 1.707700
30.723900 1.588600
30.744400 1.512700
30.764800 1.444400
30.785300 1.389600
30.805700 1.327000
30.826200 1.289100
30.846600 1.256300
30.867100 1.230700
30.887500 1.211600
30.908000 1.189900
30.928400 1.158900
30.948900 1.119700
30.969300 1.072700
30.989800 1.017500
31.010200 0.964600
31.030700 0.911700
31.051100 0.860500
31.071600 0.813100
31.092000 0.755400
31.112500 0.698300
31.132900 0.639600
31.153400 0.597700
31.173800 0.562600
31.194200 0.531300
31.214700 0.504000
31.235100 0.480700
31.255600 0.461000
31.276000 0.444100
31.296500 0.419100
31.316900 0.395900
31.337400 0.374200
31.357800 0.359800
31.378300 0.345700
31.398700 0.331900
31.419200 0.318400
31.439600 0.306500
31.460100 0.296000
31.480500 0.286000
31.501000 0.276100
31.521400 0.266200
31.541900 0.256200
31.562300 0.246200
31.582800 0.236300
31.603200 0.226200
31.623700 0.216200
31.644100 0.205000
31.664500 0.192600
31.685000 0.182100
31.705400 0.227700
31.725900 0.195900
31.746300 0.171800
31.766800 0.153900
31.787200 0.142100
31.807700 0.135100
31.828100 0.128700
31.848600 0.123100
31.869000 0.117600
31.889500 0.112300
31.909900 0.107200
31.930400 0.102300
31.950800 0.097500
31.971300 0.092900
31.991700 0.088500
32.012200 0.084200
32.032600 0.080200
32.053100 0.076300
32.073500 0.072500
32.094000 0.069000
32.114400 0.065600
32.134800 0.062400
32.155300 0.059300
32.175700 0.056500
32.196200 0.053800
32.216600 0.051300
32.237100 0.048900
32.257500 0.046700
32.278000 0.044700
32.298400 0.063300
32.318900 0.086000
32.339300 0.093100
32.359800 0.033800
32.380200 0.031100
32.400700 0.028400
32.421100 0.025900
32.441600 0.023500
32.462000 0.021200
32.482500 0.019100
32.502900 0.017000
32.523400 0.015100
32.543800 0.013300
32.564300 0.011600
32.584700 0.010000
32.605100 0.008500
32.625600 0.007200
32.646000 0.005900
32.666500 0.004800
32.686900 0.003800
32.707400 0.002900
32.727800 0.002200
32.748300 0.001500
32.768700 0.001000
32.789200 0.000600
32.809600 0.000300
32.830100 0.000100
32.850500 0.000000
32.871000 0.000000
32.891400 0.000000
32.911900 0.000000
32.932300 0.000000
32.952800 0.000000
32.973200 0.000000
32.993700 0.000000
33.014100 0.000000
33.034600 0.000000
33.055000 0.000000
33.075400 0.000000
33.095900 0.000000
33.116300 0.000000
33.136800 0.000000
33.157200 0.000000
33.177700 0.000000
33.198100 0.000000
33.218600 0.000000
33.239000 0.000000
33.259500 0.000000
33.279900 0.000000
33.300400 0.000000
33.320800 0.000000
33.341300 0.000000
33.361700 0.000000
33.382200 0.000000
33.402600 0.000000
33.423100 0.000000
33.443500 0.000000
33.464000 0.000000
33.484400 0.000000
33.504900 0.000000
33.525300 0.000000
33.545700 0.000000
33.566200 0.000000
33.586600 0.000000
33.607100 0.000000
33.627500 0.000000
33.648000 0.000000
33.668400 0.000000
33.688900 0.000000
33.709300 0.000000
33.729800 0.000000
33.750200 0.000000
33.770700 0.000000
33.791100 0.000000
33.811600 0.000000
33.832000 0.000000
33.852500 0.000000
33.872900 0.000000
33.893400 0.000000
33.913800 0.000000
33.934300 0.000000
33.954700 0.000000
33.975200 0.000000
33.995600 0.000000
34.016000 0.000000
34.036500 0.000000
34.056900 0.000000
34.077400 0.000000
34.097800 0.000000
34.118300 0.000000
34.138700 0.000000
34.159200 0.000000
34.179600 0.000000
34.200100 0.000000
34.220500 0.000000
34.241000 0.000000
34.261400 0.000000
34.281900 0.000000
34.302300 0.000000
34.322800 0.000000
34.343200 0.000000
34.363700 0.000000
34.384100 0.000000
34.404600 0.000000
34.425000 0.000000
34.445500 0.000000
34.465900 0.000000
34.486300 0.000000
34.506800 0.000000
34.527200 0.000000
34.547700 0.000000
34.568100 0.000000
34.588600 0.000000
34.609000 0.000000
34.629500 0.000000
34.649900 0.000000
34.670400 0.000000
34.690800 0.000000
34.711300 0.000000
e
