set title 'mp-1215575 - Density of States'
set xlabel 'Energy (eV)'
set ylabel 'DOS (states/eV)'
set grid
set xrange [-10:10]
set yrange [0:44.496]
set xzeroaxis lt -1
set terminal png size 800,600
set output 'mp-1215575_dos_gnuplot.png'
plot '-' using 1:2 with lines title 'DOS'
-6.908400 0.000000
-6.886600 0.000000
-6.864800 0.000000
-6.843000 0.000000
-6.821300 0.000000
-6.799500 0.000000
-6.777700 0.000000
-6.756000 0.000000
-6.734200 0.000000
-6.712400 0.000000
-6.690600 0.000000
-6.668900 0.000000
-6.647100 0.000000
-6.625300 0.000000
-6.603600 0.000000
-6.581800 0.000000
-6.560000 0.000000
-6.538300 0.000000
-6.516500 0.000000
-6.494700 0.000000
-6.472900 0.000000
-6.451200 0.000000
-6.429400 0.000000
-6.407600 0.000000
-6.385900 0.000000
-6.364100 0.000000
-6.342300 0.000000
-6.320600 0.000000
-6.298800 0.000000
-6.277000 0.000000
-6.255200 0.000000
-6.233500 0.000000
-6.211700 0.000000
-6.189900 0.000000
-6.168200 0.000000
-6.146400 0.000000
-6.124600 0.000000
-6.102900 0.000000
-6.081100 0.000000
-6.059300 0.000000
-6.037500 0.000000
-6.015800 0.000000
-5.994000 0.000000
-5.972200 0.000000
-5.950500 0.000000
-5.928700 0.000000
-5.906900 0.000000
-5.885100 0.000000
-5.863400 0.000000
-5.841600 0.000000
-5.819800 0.000000
-5.798100 0.000000
-5.776300 0.000000
-5.754500 0.000000
-5.732800 0.000000
-5.711000 0.000000
-5.689200 0.000000
-5.667400 0.000000
-5.645700 0.000000
-5.623900 0.000000
-5.602100 0.000000
-5.580400 0.000000
-5.558600 0.000000
-5.536800 0.000000
-5.515100 0.000000
-5.493300 0.000000
-5.471500 0.000000
-5.449700 0.000000
-5.428000 0.000000
-5.406200 0.000000
-5.384400 0.000000
-5.362700 0.000000
-5.340900 0.000000
-5.319100 0.000000
-5.297400 0.000000
-5.275600 0.000000
-5.253800 0.000000
-5.232000 0.000000
-5.210300 0.000000
-5.188500 0.000000
-5.166700 0.000000
-5.145000 0.000000
-5.123200 0.000000
-5.101400 0.000000
-5.079600 0.000000
-5.057900 0.000000
-5.036100 0.000000
-5.014300 0.000000
-4.992600 0.000000
-4.970800 0.000000
-4.949000 0.000000
-4.927300 0.000100
-4.905500 0.010000
-4.883700 0.028200
-4.861900 0.052000
-4.840200 0.081300
-4.818400 0.116000
-4.796600 0.158700
-4.774900 0.207100
-4.753100 0.255500
-4.731300 0.303900
-4.709600 0.322600
-4.687800 0.314900
-4.666000 0.316200
-4.644200 0.316200
-4.622500 0.309400
-4.600700 0.286100
-4.578900 0.264600
-4.557200 0.269500
-4.535400 0.274400
-4.513600 0.279400
-4.491900 0.284300
-4.470100 0.289200
-4.448300 0.294200
-4.426500 0.299100
-4.404800 0.304000
-4.383000 0.308900
-4.361200 0.313900
-4.339500 0.318800
-4.317700 0.323700
-4.295900 0.328400
-4.274100 0.331400
-4.252400 0.333400
-4.230600 0.334500
-4.208800 0.334500
-4.187100 0.333100
-4.165300 0.331700
-4.143500 0.330200
-4.121800 0.331200
-4.100000 0.337200
-4.078200 0.347300
-4.056400 0.361000
-4.034700 0.377200
-4.012900 0.396200
-3.991100 0.417100
-3.969400 0.439300
-3.947600 0.462900
-3.925800 0.487600
-3.904100 0.496400
-3.882300 0.500300
-3.860500 0.511400
-3.838700 0.523000
-3.817000 0.534700
-3.795200 0.546800
-3.773400 0.559700
-3.751700 0.573100
-3.729900 0.586500
-3.708100 0.599900
-3.686300 0.613500
-3.664600 0.627400
-3.642800 0.641700
-3.621000 0.656400
-3.599300 0.671400
-3.577500 0.706400
-3.555700 0.751300
-3.534000 0.813300
-3.512200 0.865300
-3.490400 0.919000
-3.468600 0.975800
-3.446900 1.034800
-3.425100 1.096100
-3.403300 1.161400
-3.381600 1.234600
-3.359800 1.343100
-3.338000 1.490900
-3.316300 1.644200
-3.294500 1.813600
-3.272700 1.995400
-3.250900 6.931600
-3.229200 8.635900
-3.207400 7.196400
-3.185600 6.150400
-3.163900 6.110500
-3.142100 11.313000
-3.120300 12.030400
-3.098600 13.697900
-3.076800 16.834300
-3.055000 14.007400
-3.033200 40.451000
-3.011500 16.825100
-2.989700 12.973100
-2.967900 11.141100
-2.946200 26.772400
-2.924400 14.002700
-2.902600 10.502200
-2.880800 16.162000
-2.859100 7.273300
-2.837300 15.243500
-2.815500 13.450500
-2.793800 12.123600
-2.772000 9.332600
-2.750200 9.569200
-2.728500 11.029800
-2.706700 19.730700
-2.684900 24.412100
-2.663100 17.776500
-2.641400 9.990100
-2.619600 5.785800
-2.597800 13.965000
-2.576100 7.408700
-2.554300 6.398200
-2.532500 5.043900
-2.510800 4.954000
-2.489000 4.859100
-2.467200 4.757100
-2.445400 5.111800
-2.423700 5.484000
-2.401900 4.936000
-2.380100 4.311900
-2.358400 3.688400
-2.336600 1.921700
-2.314800 1.893500
-2.293100 1.880400
-2.271300 1.873000
-2.249500 1.872400
-2.227700 1.878700
-2.206000 1.889500
-2.184200 1.823200
-2.162400 1.696100
-2.140700 1.715000
-2.118900 1.747500
-2.097100 1.801100
-2.075300 1.869200
-2.053600 1.952400
-2.031800 2.058700
-2.010000 2.174600
-1.988300 2.291000
-1.966500 2.407800
-1.944700 2.524800
-1.923000 2.695500
-1.901200 2.865800
-1.879400 2.985100
-1.857600 3.075900
-1.835900 3.156200
-1.814100 3.348200
-1.792300 3.534900
-1.770600 3.637400
-1.748800 3.584900
-1.727000 3.601000
-1.705300 3.766000
-1.683500 3.919900
-1.661700 4.042500
-1.639900 4.129900
-1.618200 4.229700
-1.596400 4.282300
-1.574600 4.323700
-1.552900 4.540200
-1.531100 5.064900
-1.509300 5.454700
-1.487600 6.416200
-1.465800 7.152400
-1.444000 7.269600
-1.422200 7.126300
-1.400500 7.425800
-1.378700 7.339000
-1.356900 7.507700
-1.335200 7.807000
-1.313400 8.183500
-1.291600 8.419400
-1.269800 8.727700
-1.248100 8.992300
-1.226300 9.324800
-1.204500 9.966800
-1.182800 9.992500
-1.161000 9.836800
-1.139200 9.311900
-1.117500 8.916100
-1.095700 8.836800
-1.073900 9.273500
-1.052100 10.488300
-1.030400 8.194900
-1.008600 8.330500
-0.986800 8.713200
-0.965100 8.999800
-0.943300 9.334500
-0.921500 10.187500
-0.899800 9.739100
-0.878000 9.436000
-0.856200 9.006400
-0.834400 8.564000
-0.812700 8.206700
-0.790900 8.143000
-0.769100 7.657400
-0.747400 7.154000
-0.725600 7.290900
-0.703800 7.592500
-0.682000 5.505400
-0.660300 5.641200
-0.638500 5.884900
-0.616700 6.302000
-0.595000 7.088000
-0.573200 7.788300
-0.551400 15.821700
-0.529700 7.090200
-0.507900 6.799800
-0.486100 7.101600
-0.464300 7.750800
-0.442600 8.427900
-0.420800 8.290300
-0.399000 8.381800
-0.377300 8.171200
-0.355500 7.891000
-0.333700 6.765500
-0.312000 6.141200
-0.290200 6.089900
-0.268400 6.343500
-0.246600 6.403200
-0.224900 8.175000
-0.203100 11.780100
-0.181300 10.876900
-0.159600 10.059300
-0.137800 8.680100
-0.116000 9.714000
-0.094300 9.493400
-0.072500 9.001300
-0.050700 8.445300
-0.028900 8.488200
-0.007200 8.526800
0.014600 8.929800
0.036400 9.354900
0.058100 10.112800
0.079900 11.360100
0.101700 11.686200
0.123500 12.186000
0.145200 13.460800
0.167000 16.758800
0.188800 12.084600
0.210500 12.329700
0.232300 13.105000
0.254100 14.594100
0.275800 16.052900
0.297600 13.808300
0.319400 11.411900
0.341200 12.514600
0.362900 13.908300
0.384700 14.566700
0.406500 13.923800
0.428200 12.944200
0.450000 12.524400
0.471800 10.417100
0.493500 13.327100
0.515300 13.704100
0.537100 13.962400
0.558900 15.702600
0.580600 16.145800
0.602400 13.596300
0.624200 13.165200
0.645900 13.752400
0.667700 12.404000
0.689500 10.224700
0.711200 8.394800
0.733000 8.619100
0.754800 9.061300
0.776600 8.843700
0.798300 8.792300
0.820100 8.594800
0.841900 9.002900
0.863600 8.910900
0.885400 8.034800
0.907200 7.537600
0.929000 7.913100
0.950700 7.638800
0.972500 7.818900
0.994300 7.965800
1.016000 8.497900
1.037800 8.839000
1.059600 8.939500
1.081300 9.027200
1.103100 9.344800
1.124900 9.204600
1.146700 8.990100
1.168400 10.130200
1.190200 11.248600
1.212000 9.798900
1.233700 10.040100
1.255500 10.239500
1.277300 10.716900
1.299000 11.973400
1.320800 9.291100
1.342600 9.231200
1.364400 9.229000
1.386100 9.047000
1.407900 9.250500
1.429700 11.086400
1.451400 12.692000
1.473200 10.194200
1.495000 9.789800
1.516700 10.147400
1.538500 9.789200
1.560300 10.207300
1.582100 8.325400
1.603800 8.185400
1.625600 7.907500
1.647400 8.491700
1.669100 8.227200
1.690900 8.346700
1.712700 8.283100
1.734500 8.043000
1.756200 7.914800
1.778000 7.828600
1.799800 8.206300
1.821500 8.726800
1.843300 8.127400
1.865100 7.803200
1.886800 8.112500
1.908600 8.378300
1.930400 8.600000
1.952200 8.714100
1.973900 8.759400
1.995700 8.659100
2.017500 8.441600
2.039200 8.272900
2.061000 8.086500
2.082800 8.067600
2.104500 7.829900
2.126300 7.562300
2.148100 7.240900
2.169900 7.072300
2.191600 7.067900
2.213400 7.150500
2.235200 7.364900
2.256900 7.618900
2.278700 7.495800
2.300500 8.424200
2.322300 9.530500
2.344000 10.069900
2.365800 11.589500
2.387600 14.006900
2.409300 7.992000
2.431100 7.952000
2.452900 9.334400
2.474600 6.932700
2.496400 7.086700
2.518200 6.991100
2.540000 6.647500
2.561700 7.000900
2.583500 7.114000
2.605300 7.199600
2.627000 8.397900
2.648800 12.174200
2.670600 10.374400
2.692300 8.037500
2.714100 4.403500
2.735900 3.072800
2.757700 2.938900
2.779400 2.808600
2.801200 2.664100
2.823000 2.479400
2.844700 2.065100
2.866500 2.039100
2.888300 2.011600
2.910000 1.990000
2.931800 1.960600
2.953600 1.931300
2.975400 1.877100
2.997100 1.825700
3.018900 1.782200
3.040700 1.766500
3.062400 1.768700
3.084200 1.776300
3.106000 1.785700
3.127800 1.789700
3.149500 1.791700
3.171300 1.792500
3.193100 1.792200
3.214800 1.791200
3.236600 1.788300
3.258400 1.783200
3.280100 1.777100
3.301900 1.772700
3.323700 1.768400
3.345500 1.764400
3.367200 1.761700
3.389000 1.759600
3.410800 1.761200
3.432500 1.762700
3.454300 1.761700
3.476100 1.761000
3.497800 1.761000
3.519600 1.759500
3.541400 1.755700
3.563200 1.746700
3.584900 1.728400
3.606700 1.720200
3.628500 1.713900
3.650200 1.712000
3.672000 1.715100
3.693800 1.724300
3.715500 1.733800
3.737300 1.742100
3.759100 1.749000
3.780900 1.754700
3.802600 1.757900
3.824400 1.757100
3.846200 1.746400
3.867900 1.732700
3.889700 2.350400
3.911500 3.726800
3.933300 1.734000
3.955000 1.606700
3.976800 1.604600
3.998600 1.603500
4.020300 1.600100
4.042100 1.597400
4.063900 1.609200
4.085600 1.651000
4.107400 1.657400
4.129200 1.587000
4.151000 1.517400
4.172700 1.449200
4.194500 1.388100
4.216300 1.374200
4.238000 1.373400
4.259800 1.373200
4.281600 1.373600
4.303300 1.375300
4.325100 1.378300
4.346900 1.382600
4.368700 1.389300
4.390400 1.398800
4.412200 1.417300
4.434000 1.430500
4.455700 1.437800
4.477500 1.442800
4.499300 1.446500
4.521000 1.448900
4.542800 1.451400
4.564600 1.454400
4.586400 1.456300
4.608100 1.457400
4.629900 1.457500
4.651700 1.457000
4.673400 1.457200
4.695200 1.458500
4.717000 1.460800
4.738800 1.458600
4.760500 1.453100
4.782300 1.443200
4.804100 1.432800
4.825800 1.422700
4.847600 1.413600
4.869400 1.404500
4.891100 1.395600
4.912900 1.386800
4.934700 1.426700
4.956500 1.443300
4.978200 1.519800
5.000000 1.598500
5.021800 1.659700
5.043500 1.742000
5.065300 1.834400
5.087100 1.898600
5.108800 1.952000
5.130600 1.995200
5.152400 2.031100
5.174200 2.080800
5.195900 2.205000
5.217700 3.025500
5.239500 1.536100
5.261200 1.489400
5.283000 1.454200
5.304800 1.429000
5.326600 1.455600
5.348300 1.489000
5.370100 1.565900
5.391900 1.346600
5.413600 1.232100
5.435400 1.202900
5.457200 1.179600
5.478900 1.160100
5.500700 1.143400
5.522500 1.141000
5.544300 1.139200
5.566000 1.140900
5.587800 1.144100
5.609600 1.146700
5.631300 1.150200
5.653100 1.156800
5.674900 1.175100
5.696600 1.219400
5.718400 1.378700
5.740200 1.508500
5.762000 1.496900
5.783700 1.426900
5.805500 1.366300
5.827300 1.315300
5.849000 1.273700
5.870800 1.245500
5.892600 1.261000
5.914300 1.272400
5.936100 1.277100
5.957900 1.281300
5.979700 1.284700
6.001400 1.287300
6.023200 1.288700
6.045000 1.289300
6.066700 1.283800
6.088500 1.264900
6.110300 1.273700
6.132100 1.324900
6.153800 1.411500
6.175600 1.464200
6.197400 1.445600
6.219100 1.364600
6.240900 1.326100
6.262700 1.318700
6.284400 1.316600
6.306200 1.320500
6.328000 1.326500
6.349800 1.332800
6.371500 1.339400
6.393300 1.346900
6.415100 1.358300
6.436800 1.370400
6.458600 1.383500
6.480400 1.397500
6.502100 1.412300
6.523900 1.680000
6.545700 1.726000
6.567500 1.275800
6.589200 1.256200
6.611000 1.284700
6.632800 1.314000
6.654500 1.351700
6.676300 1.420900
6.698100 1.508300
6.719800 1.679900
6.741600 1.851200
6.763400 2.008400
6.785200 1.907300
6.806900 1.834300
6.828700 1.809900
6.850500 1.799800
6.872200 1.593500
6.894000 1.509600
6.915800 1.513000
6.937600 1.537300
6.959300 1.552700
6.981100 1.557000
7.002900 1.554200
7.024600 1.563700
7.046400 1.572500
7.068200 1.582100
7.089900 1.609700
7.111700 1.658200
7.133500 1.721000
7.155300 1.780600
7.177000 1.832900
7.198800 1.900100
7.220600 1.856300
7.242300 1.834700
7.264100 1.799300
7.285900 1.749500
7.307600 1.688100
7.329400 1.630100
7.351200 1.538300
7.373000 1.467700
7.394700 1.421100
7.416500 1.391400
7.438300 1.361700
7.460000 1.341900
7.481800 1.335900
7.503600 1.346200
7.525300 1.364700
7.547100 1.611700
7.568900 1.570600
7.590700 1.536900
7.612400 1.538100
7.634200 1.659400
7.656000 1.663200
7.677700 1.424800
7.699500 1.263400
7.721300 1.236800
7.743100 1.221500
7.764800 1.213900
7.786600 1.210200
7.808400 1.213500
7.830100 1.215100
7.851900 1.216100
7.873700 1.220000
7.895400 1.226800
7.917200 1.233100
7.939000 1.241900
7.960800 1.253400
7.982500 1.259900
8.004300 1.278200
8.026100 1.297500
8.047800 1.319300
8.069600 1.344200
8.091400 1.378100
8.113100 1.425600
8.134900 1.491500
8.156700 1.558600
8.178500 1.625000
8.200200 1.690100
8.222000 1.757500
8.243800 1.824200
8.265500 1.883200
8.287300 1.924000
8.309100 1.913100
8.330900 1.891500
8.352600 1.879100
8.374400 1.891000
8.396200 1.929500
8.417900 1.949000
8.439700 1.951500
8.461500 1.935100
8.483200 1.897900
8.505000 1.958100
8.526800 2.104300
8.548600 2.213000
8.570300 1.945800
8.592100 1.649600
8.613900 1.438200
8.635600 1.285300
8.657400 1.208300
8.679200 1.197900
8.700900 1.235700
8.722700 1.272300
8.744500 1.302700
8.766300 1.326800
8.788000 1.348600
8.809800 1.368900
8.831600 1.390000
8.853300 1.388500
8.875100 1.359400
8.896900 1.321200
8.918600 1.289700
8.940400 1.291500
8.962200 1.340500
8.984000 1.410400
9.005700 1.461100
9.027500 1.482800
9.049300 1.481400
9.071000 1.477000
9.092800 1.535700
9.114600 1.632100
9.136400 1.725500
9.158100 1.740000
9.179900 1.801200
9.201700 1.800800
9.223400 1.755600
9.245200 1.760700
9.267000 1.769800
9.288700 1.778400
9.310500 1.788500
9.332300 1.810200
9.354100 1.843800
9.375800 1.883300
9.397600 1.929400
9.419400 1.984500
9.441100 2.041900
9.462900 2.069700
9.484700 2.053800
9.506400 2.009400
9.528200 1.965900
9.550000 1.926200
9.571800 1.888900
9.593500 1.858800
9.615300 1.828500
9.637100 1.795100
9.658800 1.762300
9.680600 1.735400
9.702400 1.714200
9.724100 1.697600
9.745900 1.687700
9.767700 1.687500
9.789500 1.696800
9.811200 1.714200
9.833000 1.736700
9.854800 1.842100
9.876500 1.944300
9.898300 1.978700
9.920100 1.950800
9.941900 1.924100
9.963600 1.906300
9.985400 1.900800
10.007200 1.829500
10.028900 1.786800
10.050700 1.763300
10.072500 1.739300
10.094200 1.720600
10.116000 1.707400
10.137800 1.700900
10.159600 1.699200
10.181300 1.699900
10.203100 1.705800
10.224900 1.715800
10.246600 1.723200
10.268400 1.731000
10.290200 1.732900
10.311900 1.739100
10.333700 1.739200
10.355500 1.746200
10.377300 1.762300
10.399000 1.779800
10.420800 1.791000
10.442600 1.800100
10.464300 1.809500
10.486100 1.819400
10.507900 1.791800
10.529600 1.768600
10.551400 1.764400
10.573200 1.763500
10.595000 1.754000
10.616700 1.735400
10.638500 1.707500
10.660300 1.705800
10.682000 1.632700
10.703800 1.603600
10.725600 1.584800
10.747400 1.572200
10.769100 1.563200
10.790900 1.560000
10.812700 1.559200
10.834400 1.554500
10.856200 1.545700
10.878000 1.535300
10.899700 1.526800
10.921500 1.519100
10.943300 1.511200
10.965100 1.504700
10.986800 1.499700
11.008600 1.499600
11.030400 1.559100
11.052100 1.687600
11.073900 1.983600
11.095700 1.844600
11.117400 1.870000
11.139200 1.912700
11.161000 1.948800
11.182800 1.980900
11.204500 2.039900
11.226300 2.053200
11.248100 1.999900
11.269800 1.993900
11.291600 1.970300
11.313400 1.978600
11.335200 1.986600
11.356900 1.994300
11.378700 1.938600
11.400500 1.931100
11.422200 1.937700
11.444000 1.952100
11.465800 1.951400
11.487500 1.934400
11.509300 1.900600
11.531100 1.860300
11.552900 1.827500
11.574600 1.801800
11.596400 1.783700
11.618200 1.780600
11.639900 1.797400
11.661700 1.842900
11.683500 1.908100
11.705200 1.973800
11.727000 2.685900
11.748800 1.866700
11.770600 1.797300
11.792300 1.790200
11.814100 1.786900
11.835900 1.783700
11.857600 1.783300
11.879400 1.787300
11.901200 1.792000
11.922900 1.798700
11.944700 1.802400
11.966500 1.804400
11.988300 1.806600
12.010000 1.812500
12.031800 1.810700
12.053600 1.811900
12.075300 1.813000
12.097100 1.813500
12.118900 1.818900
12.140700 1.820600
12.162400 1.822300
12.184200 1.824500
12.206000 1.826500
12.227700 1.870100
12.249500 1.918400
12.271300 1.977500
12.293000 2.046600
12.314800 2.126500
12.336600 2.081700
12.358400 2.011800
12.380100 1.980400
12.401900 1.973700
12.423700 1.963900
12.445400 1.952200
12.467200 1.939600
12.489000 1.923400
12.510700 1.908500
12.532500 1.895200
12.554300 1.882500
12.576100 1.877000
12.597800 1.877900
12.619600 1.882000
12.641400 1.886100
12.663100 1.891800
12.684900 1.899700
12.706700 1.908600
12.728400 1.919200
12.750200 1.932200
12.772000 1.946000
12.793800 1.960000
12.815500 1.974800
12.837300 1.990100
12.859100 2.006100
12.880800 2.024900
12.902600 2.047800
12.924400 2.073800
12.946200 2.102800
12.967900 2.143300
12.989700 2.199200
13.011500 2.247300
13.033200 2.284500
13.055000 2.311800
13.076800 2.342900
13.098500 2.371200
13.120300 2.398100
13.142100 2.416800
13.163900 2.440300
13.185600 2.465600
13.207400 2.496700
13.229200 2.518200
13.250900 2.508200
13.272700 2.471600
13.294500 2.456300
13.316200 2.446600
13.338000 2.439000
13.359800 2.428700
13.381600 2.419600
13.403300 2.409300
13.425100 2.396200
13.446900 2.381200
13.468600 2.364200
13.490400 2.347900
13.512200 2.318700
13.533900 2.206000
13.555700 2.127100
13.577500 2.085100
13.599300 2.050400
13.621000 2.003500
13.642800 1.947700
13.664600 1.904700
13.686300 1.857100
13.708100 1.831100
13.729900 1.814600
13.751700 1.802900
13.773400 1.796400
13.795200 1.790400
13.817000 1.781200
13.838700 1.773800
13.860500 1.780900
13.882300 1.785500
13.904000 1.757200
13.925800 1.729300
13.947600 1.732700
13.969400 1.737600
13.991100 1.743400
14.012900 1.752500
14.034700 1.761300
14.056400 1.769100
14.078200 1.776900
14.100000 1.785600
14.121700 1.798800
14.143500 1.815500
14.165300 1.843200
14.187100 1.870200
14.208800 1.894700
14.230600 1.946400
14.252400 1.989000
14.274100 2.021000
14.295900 2.040800
14.317700 2.059000
14.339500 2.085900
14.361200 2.111100
14.383000 2.133300
14.404800 2.151800
14.426500 2.168800
14.448300 2.185600
14.470100 2.207500
14.491800 2.235400
14.513600 2.230300
14.535400 2.227400
14.557200 2.241600
14.578900 2.270900
14.600700 2.329100
14.622500 2.440600
14.644200 2.573000
14.666000 2.645800
14.687800 2.642000
14.709500 2.650900
14.731300 2.678700
14.753100 2.724700
14.774900 2.775300
14.796600 2.835300
14.818400 2.896700
14.840200 2.917400
14.861900 2.903200
14.883700 2.854700
14.905500 2.758200
14.927200 2.613000
14.949000 2.511600
14.970800 2.503700
14.992600 2.498700
15.014300 2.478800
15.036100 2.450300
15.057900 2.422500
15.079600 2.391900
15.101400 2.376000
15.123200 2.375200
15.145000 2.386600
15.166700 2.398800
15.188500 2.406600
15.210300 2.408200
15.232000 2.405100
15.253800 2.399400
15.275600 2.387600
15.297300 2.378800
15.319100 2.385600
15.340900 2.409100
15.362700 2.458600
15.384400 2.544000
15.406200 2.593700
15.428000 2.616100
15.449700 2.626200
15.471500 2.630300
15.493300 2.626800
15.515000 2.615200
15.536800 2.599000
15.558600 2.579400
15.580400 2.540700
15.602100 2.511700
15.623900 2.523100
15.645700 2.547900
15.667400 2.563600
15.689200 2.567800
15.711000 2.563500
15.732700 2.546200
15.754500 2.511400
15.776300 2.498300
15.798100 2.512600
15.819800 2.511500
15.841600 2.503500
15.863400 2.503800
15.885100 2.506800
15.906900 2.521000
15.928700 2.526400
15.950500 2.437800
15.972200 2.420000
15.994000 2.420800
16.015800 2.423800
16.037500 2.428600
16.059300 2.435400
16.081100 2.443500
16.102800 2.455100
16.124600 2.477100
16.146400 2.507900
16.168200 2.531200
16.189900 2.549200
16.211700 2.561700
16.233500 2.562200
16.255200 2.550900
16.277000 2.530200
16.298800 2.492700
16.320500 2.441200
16.342300 2.409900
16.364100 2.379100
16.385900 2.344900
16.407600 2.316000
16.429400 2.294400
16.451200 2.279400
16.472900 2.267900
16.494700 2.255100
16.516500 2.244200
16.538200 2.238900
16.560000 2.239800
16.581800 2.240600
16.603600 2.247400
16.625300 2.260300
16.647100 2.277500
16.668900 2.294200
16.690600 2.310000
16.712400 2.342100
16.734200 2.377100
16.756000 2.412500
16.777700 2.440400
16.799500 2.468000
16.821300 2.493600
16.843000 2.520100
16.864800 2.547500
16.886600 2.574400
16.908300 2.624900
16.930100 2.665400
16.951900 2.695800
16.973700 2.721500
16.995400 2.747200
17.017200 2.772100
17.039000 2.793700
17.060700 2.820300
17.082500 2.866500
17.104300 2.912800
17.126000 2.948100
17.147800 2.977200
17.169600 3.008600
17.191400 3.025800
17.213100 3.023900
17.234900 3.003000
17.256700 2.968200
17.278400 2.923200
17.300200 2.863700
17.322000 2.790400
17.343800 2.707700
17.365500 2.647400
17.387300 2.657100
17.409100 2.632500
17.430800 2.613200
17.452600 2.605600
17.474400 2.537900
17.496100 2.504400
17.517900 2.493100
17.539700 2.481200
17.561500 2.466900
17.583200 2.449500
17.605000 2.429700
17.626800 2.409400
17.648500 2.393100
17.670300 2.381500
17.692100 2.378700
17.713800 2.386600
17.735600 2.391100
17.757400 2.366500
17.779200 2.341500
17.800900 2.322400
17.822700 2.314400
17.844500 2.321700
17.866200 2.340500
17.888000 2.373800
17.909800 2.323200
17.931500 2.302200
17.953300 2.300800
17.975100 2.304800
17.996900 2.309000
18.018600 2.307100
18.040400 2.301700
18.062200 2.291500
18.083900 2.275700
18.105700 2.257600
18.127500 2.236400
18.149300 2.228500
18.171000 2.225800
18.192800 2.225600
18.214600 2.228400
18.236300 2.235500
18.258100 2.241000
18.279900 2.269700
18.301600 2.264800
18.323400 2.254200
18.345200 2.242100
18.367000 2.239300
18.388700 2.234500
18.410500 2.218200
18.432300 2.205300
18.454000 2.194600
18.475800 2.185600
18.497600 2.177600
18.519300 2.171700
18.541100 2.171900
18.562900 2.177000
18.584700 2.187100
18.606400 2.196200
18.628200 2.204400
18.650000 2.211800
18.671700 2.220800
18.693500 2.231100
18.715300 2.244200
18.737000 2.264600
18.758800 2.292800
18.780600 2.324400
18.802400 2.356100
18.824100 2.401300
18.845900 2.628200
18.867700 2.673900
18.889400 2.630600
18.911200 2.590100
18.933000 2.556800
18.954800 2.557000
18.976500 2.574500
18.998300 2.620000
19.020100 2.688100
19.041800 2.752000
19.063600 2.808500
19.085400 2.878800
19.107100 2.919800
19.128900 2.967000
19.150700 3.019100
19.172500 3.049600
19.194200 3.041100
19.216000 3.025300
19.237800 2.999400
19.259500 3.003700
19.281300 3.010400
19.303100 2.992100
19.324800 2.922400
19.346600 2.824500
19.368400 2.919200
19.390200 2.794700
19.411900 2.713600
19.433700 2.640000
19.455500 2.580200
19.477200 2.530800
19.499000 2.490600
19.520800 2.467100
19.542500 2.502900
19.564300 2.529100
19.586100 2.539100
19.607900 2.552300
19.629600 2.556000
19.651400 2.559600
19.673200 2.565900
19.694900 2.577600
19.716700 2.594400
19.738500 2.618300
19.760300 2.645000
19.782000 2.676800
19.803800 2.712200
19.825600 2.744300
19.847300 2.763900
19.869100 2.726800
19.890900 2.711300
19.912600 2.710200
19.934400 2.752100
19.956200 2.734700
19.978000 2.709100
19.999700 2.682300
20.021500 2.654900
20.043300 2.625200
20.065000 2.594100
20.086800 2.561300
20.108600 2.528100
20.130300 2.497300
20.152100 2.483600
20.173900 2.468000
20.195700 2.477700
20.217400 2.518700
20.239200 2.537000
20.261000 2.537800
20.282700 2.529700
20.304500 2.488900
20.326300 2.454800
20.348100 2.425900
20.369800 2.400700
20.391600 2.380100
20.413400 2.366400
20.435100 2.354400
20.456900 2.343400
20.478700 2.327300
20.500400 2.307000
20.522200 2.294100
20.544000 2.311300
20.565800 2.319100
20.587500 2.335600
20.609300 2.367400
20.631100 2.455400
20.652800 2.550700
20.674600 2.685600
20.696400 2.801800
20.718100 2.868300
20.739900 2.893000
20.761700 3.013100
20.783500 3.228500
20.805200 3.176300
20.827000 3.027900
20.848800 3.086100
20.870500 2.838400
20.892300 2.906000
20.914100 2.493400
20.935800 2.340300
20.957600 2.372300
20.979400 2.334200
21.001200 2.260000
21.022900 2.354600
21.044700 2.500100
21.066500 2.645000
21.088200 2.669100
21.110000 2.660800
21.131800 2.688700
21.153600 2.740300
21.175300 2.788800
21.197100 2.837700
21.218900 2.852300
21.240600 2.849100
21.262400 2.864200
21.284200 3.120600
21.305900 3.222800
21.327700 3.247300
21.349500 3.289400
21.371300 3.362900
21.393000 3.425100
21.414800 3.466600
21.436600 3.526700
21.458300 3.587600
21.480100 3.654200
21.501900 3.678300
21.523600 3.689900
21.545400 3.705000
21.567200 3.756300
21.589000 3.849800
21.610700 3.958600
21.632500 4.039900
21.654300 4.113700
21.676000 4.142900
21.697800 4.149300
21.719600 4.133000
21.741300 4.060900
21.763100 4.045400
21.784900 4.181000
21.806700 4.344600
21.828400 4.341900
21.850200 4.263000
21.872000 4.162000
21.893700 4.136100
21.915500 4.083700
21.937300 4.119700
21.959100 4.157400
21.980800 4.149300
22.002600 3.985400
22.024400 3.848700
22.046100 3.733700
22.067900 3.651600
22.089700 3.610400
22.111400 3.722100
22.133200 3.471800
22.155000 3.379000
22.176800 3.367200
22.198500 3.398200
22.220300 3.453000
22.242100 3.520900
22.263800 3.558100
22.285600 3.585800
22.307400 3.598700
22.329100 3.645000
22.350900 3.702000
22.372700 3.758500
22.394500 3.816600
22.416200 3.847700
22.438000 3.870000
22.459800 3.933400
22.481500 4.090800
22.503300 4.145800
22.525100 4.109900
22.546800 4.088900
22.568600 4.046000
22.590400 3.975700
22.612200 3.807600
22.633900 3.557900
22.655700 3.367600
22.677500 3.173600
22.699200 3.033300
22.721000 2.944400
22.742800 2.918500
22.764600 2.955300
22.786300 3.011500
22.808100 3.082900
22.829900 3.169500
22.851600 3.299100
22.873400 3.481900
22.895200 3.688000
22.916900 3.841900
22.938700 4.032900
22.960500 4.036500
22.982300 3.949400
23.004000 4.010200
23.025800 4.020700
23.047600 4.002800
23.069300 3.903700
23.091100 3.889300
23.112900 3.647600
23.134600 3.475600
23.156400 3.382500
23.178200 3.361300
23.200000 3.357400
23.221700 3.324800
23.243500 3.279800
23.265300 3.337300
23.287000 3.430300
23.308800 3.217100
23.330600 3.122100
23.352400 3.033200
23.374100 2.958300
23.395900 2.892200
23.417700 2.831300
23.439400 2.847600
23.461200 2.769600
23.483000 2.788900
23.504700 2.767000
23.526500 2.758300
23.548300 2.732700
23.570100 2.638200
23.591800 2.589800
23.613600 2.599900
23.635400 2.603500
23.657100 2.602900
23.678900 2.558100
23.700700 2.494500
23.722400 2.441900
23.744200 2.391700
23.766000 2.338700
23.787800 2.283900
23.809500 2.243500
23.831300 2.231600
23.853100 2.265500
23.874800 2.304100
23.896600 2.340400
23.918400 2.372900
23.940100 2.394800
23.961900 2.400500
23.983700 2.459600
24.005500 2.469100
24.027200 2.283800
24.049000 2.223100
24.070800 2.189800
24.092500 2.155900
24.114300 2.118300
24.136100 2.081700
24.157900 2.050500
24.179600 2.023700
24.201400 1.997000
24.223200 1.971000
24.244900 1.959500
24.266700 1.971100
24.288500 1.987100
24.310200 1.976800
24.332000 1.965900
24.353800 1.980400
24.375600 2.022600
24.397300 2.092100
24.419100 2.185500
24.440900 2.273900
24.462600 2.382200
24.484400 2.445600
24.506200 2.484100
24.527900 2.480700
24.549700 2.435600
24.571500 2.338900
24.593300 2.247000
24.615000 2.223200
24.636800 2.162100
24.658600 2.076900
24.680300 2.021800
24.702100 1.967300
24.723900 1.923100
24.745600 1.886000
24.767400 1.853000
24.789200 1.815600
24.811000 1.778700
24.832700 1.744900
24.854500 1.715400
24.876300 1.672900
24.898000 1.713900
24.919800 1.779500
24.941600 1.864700
24.963400 2.072400
24.985100 2.537300
25.006900 2.571200
25.028700 2.834000
25.050400 2.964600
25.072200 2.947200
25.094000 2.919900
25.115700 2.821600
25.137500 2.765000
25.159300 2.786400
25.181100 2.825600
25.202800 2.875100
25.224600 2.904000
25.246400 2.905600
25.268100 2.883000
25.289900 3.131600
25.311700 2.796500
25.333400 2.769700
25.355200 2.752300
25.377000 2.811400
25.398800 2.834700
25.420500 2.674200
25.442300 2.578300
25.464100 2.487900
25.485800 2.384900
25.507600 2.358500
25.529400 2.388500
25.551100 2.411500
25.572900 2.461000
25.594700 2.583000
25.616500 2.452900
25.638200 2.377500
25.660000 2.314000
25.681800 2.207200
25.703500 2.178700
25.725300 2.106900
25.747100 1.975900
25.768900 1.966600
25.790600 2.022800
25.812400 2.079400
25.834200 2.189400
25.855900 2.251700
25.877700 2.252400
25.899500 2.265500
25.921200 2.292500
25.943000 2.293400
25.964800 2.269800
25.986600 2.238300
26.008300 2.192200
26.030100 2.096100
26.051900 2.008800
26.073600 1.945800
26.095400 1.918300
26.117200 1.949200
26.138900 1.968400
26.160700 1.973800
26.182500 1.985900
26.204300 2.000400
26.226000 2.014600
26.247800 2.026400
26.269600 2.034100
26.291300 2.022000
26.313100 2.001400
26.334900 2.009500
26.356700 2.024100
26.378400 2.041500
26.400200 2.065400
26.422000 2.128600
26.443700 2.192600
26.465500 2.193800
26.487300 2.164300
26.509000 2.149900
26.530800 2.166500
26.552600 2.176000
26.574400 2.165800
26.596100 2.148300
26.617900 2.140000
26.639700 2.166200
26.661400 2.170700
26.683200 2.124100
26.705000 2.100900
26.726700 2.107600
26.748500 2.146700
26.770300 2.123400
26.792100 2.095600
26.813800 2.072100
26.835600 2.054600
26.857400 2.043400
26.879100 2.039500
26.900900 2.049700
26.922700 2.101100
26.944400 2.174400
26.966200 2.193900
26.988000 2.165100
27.009800 2.140900
27.031500 2.178200
27.053300 2.227600
27.075100 2.286900
27.096800 2.356200
27.118600 2.435000
27.140400 2.577300
27.162200 2.720500
27.183900 2.840000
27.205700 2.948600
27.227500 3.061900
27.249200 3.191400
27.271000 3.332300
27.292800 3.422900
27.314500 3.547800
27.336300 3.700500
27.358100 3.570300
27.379900 3.446800
27.401600 3.385400
27.423400 3.284400
27.445200 3.166600
27.466900 3.135200
27.488700 3.105200
27.510500 3.079200
27.532200 3.098600
27.554000 3.097600
27.575800 3.042600
27.597600 2.984800
27.619300 2.922500
27.641100 2.850800
27.662900 2.911400
27.684600 2.978700
27.706400 3.010200
27.728200 2.993000
27.749900 2.963700
27.771700 2.954100
27.793500 2.939700
27.815300 2.939200
27.837000 2.972900
27.858800 3.058800
27.880600 3.172100
27.902300 3.267900
27.924100 3.350400
27.945900 3.439100
27.967700 3.523100
27.989400 3.621500
28.011200 3.723300
28.033000 3.818500
28.054700 3.880300
28.076500 3.964500
28.098300 4.010900
28.120000 4.026900
28.141800 3.897700
28.163600 3.852500
28.185400 3.855800
28.207100 3.808200
28.228900 3.592800
28.250700 3.470700
28.272400 3.443000
28.294200 3.467500
28.316000 3.472300
28.337700 3.464600
28.359500 3.509600
28.381300 3.632100
28.403100 3.900200
28.424800 3.904600
28.446600 3.784500
28.468400 3.617800
28.490100 3.705900
28.511900 3.978100
28.533700 3.586700
28.555400 3.534000
28.577200 3.679600
28.599000 3.957400
28.620800 4.012700
28.642500 3.945300
28.664300 3.576500
28.686100 3.480600
28.707800 3.460100
28.729600 3.412300
28.751400 3.393600
28.773200 3.438900
28.794900 3.557000
28.816700 3.684800
28.838500 3.858900
28.860200 3.856600
28.882000 3.830100
28.903800 3.810200
28.925500 3.800600
28.947300 3.809400
28.969100 3.507200
28.990900 3.442700
29.012600 3.490600
29.034400 3.596800
29.056200 3.580000
29.077900 3.620800
29.099700 3.708700
29.121500 3.805700
29.143200 3.842800
29.165000 3.788700
29.186800 3.842600
29.208600 3.925800
29.230300 4.013500
29.252100 4.098700
29.273900 4.167000
29.295600 4.273700
29.317400 4.320600
29.339200 4.349700
29.361000 4.332500
29.382700 4.317200
29.404500 4.314100
29.426300 4.297700
29.448000 4.251700
29.469800 4.155600
29.491600 4.047600
29.513300 3.953600
29.535100 3.895800
29.556900 3.807900
29.578700 3.792700
29.600400 3.808500
29.622200 3.930500
29.644000 3.999600
29.665700 4.061600
29.687500 4.101600
29.709300 4.133300
29.731000 4.152800
29.752800 4.247100
29.774600 4.333800
29.796400 4.379300
29.818100 4.398900
29.839900 4.459700
29.861700 4.600500
29.883400 4.829200
29.905200 4.991200
29.927000 4.891700
29.948700 4.774200
29.970500 4.652300
29.992300 4.552000
30.014100 4.518200
30.035800 4.381900
30.057600 4.296100
30.079400 4.131800
30.101100 3.959100
30.122900 3.807600
30.144700 3.699800
30.166500 3.645800
30.188200 3.633100
30.210000 3.653600
30.231800 3.708200
30.253500 3.738800
30.275300 3.711700
30.297100 3.684100
30.318800 3.632800
30.340600 3.575000
30.362400 3.519700
30.384200 3.498500
30.405900 3.493400
30.427700 3.498600
30.449500 3.510200
30.471200 3.527300
30.493000 3.551400
30.514800 3.652900
30.536500 3.651400
30.558300 3.666700
30.580100 3.726100
30.601900 3.835400
30.623600 3.735300
30.645400 3.489200
30.667200 3.336000
30.688900 3.403400
30.710700 3.366000
30.732500 3.390000
30.754200 3.437800
30.776000 3.505100
30.797800 3.590400
30.819600 3.676100
30.841300 3.754600
30.863100 3.906500
30.884900 3.928100
30.906600 3.937500
30.928400 3.956900
30.950200 3.973100
30.972000 3.964800
30.993700 3.920500
31.015500 3.863400
31.037300 3.808300
31.059000 3.792700
31.080800 3.893800
31.102600 4.026400
31.124300 3.976300
31.146100 3.860800
31.167900 3.692400
31.189700 3.584200
31.211400 3.566900
31.233200 3.536100
31.255000 3.500200
31.276700 3.429200
31.298500 3.414200
31.320300 3.411300
31.342000 3.413400
31.363800 3.412600
31.385600 3.444300
31.407400 3.479800
31.429100 3.513800
31.450900 3.543800
31.472700 3.576600
31.494400 3.594300
31.516200 3.568500
31.538000 3.543500
31.559700 3.567200
31.581500 3.560300
31.603300 3.504900
31.625100 3.273100
31.646800 3.209100
31.668600 3.203000
31.690400 3.233600
31.712100 3.187500
31.733900 3.150800
31.755700 3.044700
31.777500 3.011000
31.799200 2.971100
31.821000 2.915500
31.842800 2.889400
31.864500 2.991500
31.886300 3.050400
31.908100 3.057800
31.929800 3.034700
31.951600 2.997600
31.973400 2.958800
31.995200 2.929600
32.016900 2.926400
32.038700 2.885600
32.060500 2.832500
32.082200 2.805500
32.104000 2.819100
32.125800 2.838000
32.147500 2.874500
32.169300 2.893300
32.191100 2.807500
32.212900 2.755800
32.234600 2.735800
32.256400 2.717400
32.278200 2.691600
32.299900 2.654400
32.321700 2.630500
32.343500 2.606600
32.365300 2.609000
32.387000 2.593000
32.408800 2.576400
32.430600 2.567800
32.452300 2.590600
32.474100 2.602900
32.495900 2.666200
32.517600 2.703100
32.539400 2.672900
32.561200 2.686100
32.583000 2.741600
32.604700 2.815700
32.626500 2.672000
32.648300 2.553900
32.670000 2.487700
32.691800 2.464800
32.713600 2.435300
32.735300 2.379900
32.757100 2.330300
32.778900 2.287500
32.800700 2.257500
32.822400 2.250200
32.844200 2.246500
32.866000 2.222200
32.887700 2.186400
32.909500 2.144600
32.931300 2.102700
32.953000 2.058200
32.974800 2.010800
32.996600 1.959700
33.018400 1.908500
33.040100 1.857500
33.061900 1.811100
33.083700 1.769400
33.105400 1.723200
33.127200 1.678900
33.149000 1.646900
33.170800 1.608700
33.192500 1.573300
33.214300 1.539700
33.236100 1.506700
33.257800 1.473800
33.279600 1.441100
33.301400 1.410000
33.323100 1.379700
33.344900 1.349900
33.366700 1.320500
33.388500 1.289800
33.410200 1.260300
33.432000 1.232200
33.453800 1.204400
33.475500 1.176500
33.497300 1.148200
33.519100 1.119400
33.540800 1.090500
33.562600 1.062100
33.584400 1.034800
33.606200 1.007900
33.627900 0.978400
33.649700 0.946600
33.671500 0.918200
33.693200 0.885400
33.715000 0.851300
33.736800 0.835900
33.758500 0.805000
33.780300 0.787700
33.802100 0.770500
33.823900 0.753400
33.845600 0.736300
33.867400 0.719600
33.889200 0.703400
33.910900 0.687700
33.932700 0.672500
33.954500 0.657400
33.976300 0.642300
33.998000 0.626200
34.019800 0.609100
34.041600 0.591900
34.063300 0.574300
34.085100 0.557000
34.106900 0.540700
34.128600 0.524600
34.150400 0.508400
34.172200 0.491600
34.194000 0.475000
34.215700 0.475000
34.237500 0.465500
34.259300 0.436900
34.281000 0.393000
34.302800 0.357000
34.324600 0.332800
34.346300 0.320300
34.368100 0.314000
34.389900 0.312200
34.411700 0.314900
34.433400 0.322800
34.455200 0.338500
34.477000 0.411000
34.498700 0.455300
34.520500 0.398900
34.542300 0.271100
34.564000 0.135800
34.585800 0.097500
34.607600 0.065300
34.629400 0.024700
34.651100 0.000400
34.672900 0.000000
34.694700 0.000000
34.716400 0.000000
34.738200 0.000000
34.760000 0.000000
34.781800 0.000000
34.803500 0.000000
34.825300 0.000000
34.847100 0.000000
34.868800 0.000000
34.890600 0.000000
34.912400 0.000000
34.934100 0.000000
34.955900 0.000000
34.977700 0.000000
34.999500 0.000000
35.021200 0.000000
35.043000 0.000000
35.064800 0.000000
35.086500 0.000000
35.108300 0.000000
35.130100 0.000000
35.151800 0.000000
35.173600 0.000000
35.195400 0.000000
35.217200 0.000000
35.238900 0.000000
35.260700 0.000000
35.282500 0.000000
35.304200 0.000000
35.326000 0.000000
35.347800 0.000000
35.369600 0.000000
35.391300 0.000000
35.413100 0.000000
35.434900 0.000000
35.456600 0.000000
35.478400 0.000000
35.500200 0.000000
35.521900 0.000000
35.543700 0.000000
35.565500 0.000000
35.587300 0.000000
35.609000 0.000000
35.630800 0.000000
35.652600 0.000000
35.674300 0.000000
35.696100 0.000000
35.717900 0.000000
35.739600 0.000000
35.761400 0.000000
35.783200 0.000000
35.805000 0.000000
35.826700 0.000000
35.848500 0.000000
35.870300 0.000000
35.892000 0.000000
35.913800 0.000000
35.935600 0.000000
35.957300 0.000000
35.979100 0.000000
36.000900 0.000000
36.022700 0.000000
36.044400 0.000000
36.066200 0.000000
36.088000 0.000000
36.109700 0.000000
36.131500 0.000000
36.153300 0.000000
36.175100 0.000000
36.196800 0.000000
36.218600 0.000000
36.240400 0.000000
36.262100 0.000000
36.283900 0.000000
36.305700 0.000000
36.327400 0.000000
36.349200 0.000000
36.371000 0.000000
36.392800 0.000000
36.414500 0.000000
36.436300 0.000000
36.458100 0.000000
36.479800 0.000000
36.501600 0.000000
36.523400 0.000000
36.545100 0.000000
36.566900 0.000000
36.588700 0.000000
36.610500 0.000000
36.632200 0.000000
e
