set title 'mp-1228947 - Density of States'
set xlabel 'Energy (eV)'
set ylabel 'DOS (states/eV)'
set grid
set xrange [-10:10]
set yrange [0:28.854]
set xzeroaxis lt -1
set terminal png size 800,600
set output 'mp-1228947_dos_gnuplot.png'
plot '-' using 1:2 with lines title 'DOS'
-6.847600 0.000000
-6.830200 0.000000
-6.812800 0.000000
-6.795500 0.000000
-6.778100 0.000000
-6.760700 0.000000
-6.743400 0.000000
-6.726000 0.000000
-6.708600 0.000000
-6.691200 0.000000
-6.673900 0.000000
-6.656500 0.000000
-6.639100 0.000000
-6.621800 0.000000
-6.604400 0.000000
-6.587000 0.000000
-6.569600 0.000000
-6.552300 0.000000
-6.534900 0.000000
-6.517500 0.000000
-6.500100 0.000000
-6.482800 0.000000
-6.465400 0.000000
-6.448000 0.000000
-6.430700 0.000000
-6.413300 0.000000
-6.395900 0.000000
-6.378500 0.000000
-6.361200 0.000000
-6.343800 0.000000
-6.326400 0.000000
-6.309100 0.000000
-6.291700 0.000000
-6.274300 0.000000
-6.256900 0.000000
-6.239600 0.000000
-6.222200 0.000000
-6.204800 0.000000
-6.187500 0.000000
-6.170100 0.000000
-6.152700 0.000000
-6.135300 0.000000
-6.118000 0.000000
-6.100600 0.000000
-6.083200 0.000000
-6.065900 0.000000
-6.048500 0.000000
-6.031100 0.000000
-6.013700 0.000000
-5.996400 0.000000
-5.979000 0.000000
-5.961600 0.000000
-5.944200 0.000000
-5.926900 0.000000
-5.909500 0.000000
-5.892100 0.000000
-5.874800 0.000000
-5.857400 0.000000
-5.840000 0.000000
-5.822600 0.000000
-5.805300 0.000000
-5.787900 0.000000
-5.770500 0.000000
-5.753200 0.000000
-5.735800 0.000000
-5.718400 0.000000
-5.701000 0.000000
-5.683700 0.000000
-5.666300 0.000000
-5.648900 0.000000
-5.631600 0.000000
-5.614200 0.000000
-5.596800 0.000000
-5.579400 0.000000
-5.562100 0.000000
-5.544700 0.000000
-5.527300 0.000000
-5.509900 0.000000
-5.492600 0.000000
-5.475200 0.000000
-5.457800 0.000000
-5.440500 0.000000
-5.423100 0.000000
-5.405700 0.000000
-5.388300 0.000000
-5.371000 0.000000
-5.353600 0.000000
-5.336200 0.000000
-5.318900 0.000000
-5.301500 0.000000
-5.284100 0.000000
-5.266700 0.000700
-5.249400 0.041500
-5.232000 0.095700
-5.214600 0.150000
-5.197300 0.204300
-5.179900 0.258500
-5.162500 0.312800
-5.145100 0.367100
-5.127800 0.421300
-5.110400 0.475600
-5.093000 0.529900
-5.075600 0.287800
-5.058300 0.292700
-5.040900 0.297700
-5.023500 0.302600
-5.006200 0.307600
-4.988800 0.312500
-4.971400 0.317500
-4.954000 0.322400
-4.936700 0.327400
-4.919300 0.332300
-4.901900 0.337200
-4.884600 0.342200
-4.867200 0.347100
-4.849800 0.352100
-4.832400 0.357000
-4.815100 0.362000
-4.797700 0.366900
-4.780300 0.371900
-4.763000 0.376800
-4.745600 0.381800
-4.728200 0.382100
-4.710800 0.377600
-4.693500 0.373200
-4.676100 0.368800
-4.658700 0.364300
-4.641400 0.359900
-4.624000 0.355500
-4.606600 0.351000
-4.589200 0.346600
-4.571900 0.342100
-4.554500 0.343000
-4.537100 0.345200
-4.519700 0.347400
-4.502400 0.349600
-4.485000 0.351800
-4.467600 0.354100
-4.450300 0.356300
-4.432900 0.358500
-4.415500 0.360700
-4.398100 0.362900
-4.380800 0.365100
-4.363400 0.367300
-4.346000 0.369600
-4.328700 0.371800
-4.311300 0.374000
-4.293900 0.376200
-4.276500 0.378400
-4.259200 0.380600
-4.241800 0.382800
-4.224400 0.385100
-4.207100 0.387300
-4.189700 0.389500
-4.172300 0.391700
-4.154900 0.393900
-4.137600 0.396100
-4.120200 0.398300
-4.102800 0.400600
-4.085400 0.402800
-4.068100 0.387900
-4.050700 0.389100
-4.033300 0.390300
-4.016000 0.391500
-3.998600 0.392600
-3.981200 0.393800
-3.963800 0.395000
-3.946500 0.396200
-3.929100 0.397400
-3.911700 0.398600
-3.894400 0.399800
-3.877000 0.401000
-3.859600 0.402200
-3.842200 0.403400
-3.824900 0.404600
-3.807500 0.405800
-3.790100 0.406900
-3.772800 0.408600
-3.755400 0.410800
-3.738000 0.412900
-3.720600 0.415000
-3.703300 0.417200
-3.685900 0.419300
-3.668500 0.421400
-3.651100 0.423600
-3.633800 0.425700
-3.616400 0.427900
-3.599000 0.430000
-3.581700 0.432100
-3.564300 0.434300
-3.546900 0.436400
-3.529500 0.438500
-3.512200 0.440700
-3.494800 0.442800
-3.477400 0.445000
-3.460100 0.447100
-3.442700 0.449200
-3.425300 0.451400
-3.407900 0.453500
-3.390600 0.455600
-3.373200 0.457800
-3.355800 0.459900
-3.338500 0.463300
-3.321100 0.468400
-3.303700 0.473600
-3.286300 0.478700
-3.269000 0.483900
-3.251600 0.489000
-3.234200 0.494200
-3.216800 0.499200
-3.199500 0.504300
-3.182100 0.509300
-3.164700 0.514300
-3.147400 0.519300
-3.130000 0.526800
-3.112600 0.538900
-3.095200 0.554300
-3.077900 0.571500
-3.060500 0.590600
-3.043100 0.611400
-3.025800 0.633800
-3.008400 0.657300
-2.991000 0.682100
-2.973600 0.708100
-2.956300 0.735400
-2.938900 0.763800
-2.921500 0.784800
-2.904200 0.778600
-2.886800 0.789700
-2.869400 0.801200
-2.852000 0.814600
-2.834700 0.829200
-2.817300 0.844000
-2.799900 0.858900
-2.782600 0.874500
-2.765200 0.890900
-2.747800 0.907600
-2.730400 0.924200
-2.713100 0.940200
-2.695700 0.955500
-2.678300 0.970400
-2.660900 0.984800
-2.643600 0.999700
-2.626200 1.015300
-2.608800 1.031600
-2.591500 1.048600
-2.574100 1.059000
-2.556700 1.060700
-2.539300 1.159900
-2.522000 1.216700
-2.504600 1.274400
-2.487200 1.332800
-2.469900 1.401200
-2.452500 1.485000
-2.435100 1.564100
-2.417700 1.644700
-2.400400 1.727400
-2.383000 1.810700
-2.365600 2.007100
-2.348300 2.229900
-2.330900 2.437900
-2.313500 2.357700
-2.296100 2.238600
-2.278800 2.121000
-2.261400 2.005000
-2.244000 1.890500
-2.226600 1.778200
-2.209300 1.669800
-2.191900 1.624500
-2.174500 1.678000
-2.157200 1.732700
-2.139800 1.786400
-2.122400 1.839000
-2.105000 1.890100
-2.087700 1.937400
-2.070300 2.348500
-2.052900 3.145300
-2.035600 3.193500
-2.018200 3.396700
-2.000800 4.626600
-1.983400 5.717700
-1.966100 6.060700
-1.948700 6.412700
-1.931300 6.900900
-1.914000 7.464800
-1.896600 8.108700
-1.879200 8.833400
-1.861800 9.555900
-1.844500 9.911700
-1.827100 10.173800
-1.809700 10.390400
-1.792300 10.591300
-1.775000 11.005600
-1.757600 10.910300
-1.740200 11.201600
-1.722900 11.482000
-1.705500 12.190100
-1.688100 13.249800
-1.670700 14.269300
-1.653400 16.211400
-1.636000 16.882600
-1.618600 17.326600
-1.601300 17.292100
-1.583900 16.318500
-1.566500 15.637200
-1.549100 15.351400
-1.531800 15.057400
-1.514400 14.795000
-1.497000 14.414800
-1.479700 13.686400
-1.462300 14.310600
-1.444900 13.370600
-1.427500 12.705700
-1.410200 12.763500
-1.392800 12.590800
-1.375400 14.046500
-1.358000 12.785400
-1.340700 12.477500
-1.323300 13.794500
-1.305900 11.514100
-1.288600 10.731500
-1.271200 9.513800
-1.253800 10.717400
-1.236400 10.671600
-1.219100 12.487400
-1.201700 11.288700
-1.184300 12.343900
-1.167000 12.645700
-1.149600 13.269200
-1.132200 11.929000
-1.114800 10.664800
-1.097500 8.052500
-1.080100 5.757500
-1.062700 6.484200
-1.045400 9.740800
-1.028000 11.529600
-1.010600 11.841500
-0.993200 13.609600
-0.975900 15.631700
-0.958500 14.394600
-0.941100 13.679300
-0.923800 13.798300
-0.906400 13.524700
-0.889000 13.868400
-0.871600 12.280800
-0.854300 12.017400
-0.836900 11.952000
-0.819500 13.554400
-0.802100 14.575600
-0.784800 13.111700
-0.767400 13.683600
-0.750000 15.093900
-0.732700 18.239800
-0.715300 17.404700
-0.697900 20.002800
-0.680500 18.166200
-0.663200 16.906800
-0.645800 19.522900
-0.628400 17.032000
-0.611100 16.179000
-0.593700 15.051600
-0.576300 14.687000
-0.558900 14.083500
-0.541600 12.113500
-0.524200 11.456200
-0.506800 11.643300
-0.489500 14.005300
-0.472100 19.117500
-0.454700 19.466800
-0.437300 20.873200
-0.420000 24.332500
-0.402600 20.868400
-0.385200 24.819600
-0.367800 18.566500
-0.350500 16.835000
-0.333100 15.790900
-0.315700 14.851000
-0.298400 16.275000
-0.281000 15.008900
-0.263600 13.153000
-0.246200 12.091600
-0.228900 11.455000
-0.211500 11.757000
-0.194100 11.050400
-0.176800 9.455300
-0.159400 8.448300
-0.142000 7.709400
-0.124600 8.214100
-0.107300 9.032500
-0.089900 10.534000
-0.072500 13.040100
-0.055200 13.198600
-0.037800 13.227500
-0.020400 13.360500
-0.003000 13.837300
0.014300 15.856800
0.031700 14.017100
0.049100 26.230700
0.066500 17.845600
0.083800 14.734300
0.101200 13.973200
0.118600 13.558900
0.135900 12.269800
0.153300 15.937900
0.170700 12.623800
0.188100 11.423100
0.205400 11.022500
0.222800 12.251300
0.240200 13.582800
0.257500 14.963500
0.274900 14.780600
0.292300 12.280800
0.309700 12.142000
0.327000 12.555900
0.344400 10.671300
0.361800 9.854100
0.379100 9.699600
0.396500 9.842400
0.413900 9.939600
0.431300 9.940900
0.448600 10.659900
0.466000 11.659900
0.483400 13.298900
0.500700 15.023000
0.518100 11.840000
0.535500 11.891000
0.552900 12.263500
0.570200 12.366100
0.587600 12.313600
0.605000 12.230100
0.622400 12.076600
0.639700 11.835100
0.657100 11.425100
0.674500 10.926900
0.691800 10.662000
0.709200 10.439000
0.726600 10.319500
0.744000 10.829900
0.761300 9.944300
0.778700 18.711600
0.796100 7.801800
0.813400 10.968200
0.830800 12.417600
0.848200 13.760400
0.865600 17.761000
0.882900 11.154600
0.900300 9.121300
0.917700 11.716900
0.935000 9.369900
0.952400 6.494200
0.969800 8.990100
0.987200 6.928300
1.004500 7.052600
1.021900 7.201000
1.039300 7.368300
1.056700 8.699500
1.074000 12.188100
1.091400 20.880500
1.108800 5.460900
1.126100 5.201000
1.143500 5.070200
1.160900 4.940000
1.178300 3.773000
1.195600 3.622800
1.213000 3.474000
1.230400 2.547400
1.247700 2.551400
1.265100 2.412900
1.282500 2.294400
1.299900 2.162200
1.317200 2.073900
1.334600 1.990700
1.352000 1.905800
1.369300 1.809600
1.386700 1.764700
1.404100 1.740800
1.421500 1.727700
1.438800 1.719900
1.456200 1.717000
1.473600 1.715600
1.491000 1.714700
1.508300 1.717000
1.525700 1.720400
1.543100 1.725300
1.560400 1.731200
1.577800 1.731800
1.595200 1.733900
1.612600 1.731600
1.629900 1.724000
1.647300 1.713500
1.664700 1.703600
1.682000 1.694500
1.699400 1.686100
1.716800 1.678500
1.734200 1.671700
1.751500 1.665100
1.768900 1.658200
1.786300 1.651100
1.803600 1.643800
1.821000 1.636600
1.838400 1.630500
1.855800 1.624500
1.873100 1.618500
1.890500 1.612700
1.907900 1.603300
1.925300 1.596600
1.942600 1.590500
1.960000 1.568400
1.977400 1.541200
1.994700 1.514100
2.012100 1.848600
2.029500 2.098400
2.046900 1.994400
2.064200 1.890600
2.081600 1.786900
2.099000 1.683400
2.116300 1.580000
2.133700 1.476800
2.151100 1.394900
2.168500 1.343900
2.185800 1.307800
2.203200 1.282500
2.220600 1.265500
2.237900 1.257200
2.255300 1.256800
2.272700 1.256900
2.290100 1.258500
2.307400 1.266500
2.324800 1.300600
2.342200 1.363600
2.359500 1.426000
2.376900 1.488000
2.394300 1.549500
2.411700 1.609700
2.429000 1.669000
2.446400 1.728400
2.463800 1.788200
2.481200 1.848300
2.498500 1.908500
2.515900 1.965100
2.533300 1.987400
2.550600 1.966100
2.568000 1.933800
2.585400 1.878400
2.602800 1.829100
2.620100 1.796600
2.637500 1.767400
2.654900 1.737500
2.672200 1.707600
2.689600 1.674000
2.707000 1.638500
2.724400 1.596600
2.741700 1.528400
2.759100 1.443100
2.776500 1.404900
2.793800 1.390500
2.811200 1.380000
2.828600 1.370200
2.846000 1.360300
2.863300 1.351400
2.880700 1.343000
2.898100 1.334900
2.915500 1.326900
2.932800 1.319200
2.950200 1.311600
2.967600 3.963100
2.984900 1.201800
3.002300 1.198000
3.019700 1.194200
3.037100 1.190700
3.054400 1.187200
3.071800 1.184000
3.089200 1.181100
3.106500 1.178500
3.123900 1.176300
3.141300 1.174700
3.158700 1.173200
3.176000 1.171800
3.193400 1.170500
3.210800 1.169300
3.228100 1.168200
3.245500 1.167300
3.262900 1.166600
3.280300 1.166200
3.297600 1.166000
3.315000 3.747800
3.332400 1.874500
3.349800 2.520800
3.367100 2.365300
3.384500 1.406900
3.401900 1.373400
3.419200 1.375300
3.436600 1.378200
3.454000 1.384900
3.471400 1.394400
3.488700 1.407400
3.506100 1.427000
3.523500 1.445500
3.540800 1.459700
3.558200 1.467000
3.575600 1.470700
3.593000 1.471100
3.610300 1.468600
3.627700 1.462800
3.645100 1.456000
3.662400 1.449800
3.679800 1.443800
3.697200 1.438600
3.714600 1.435600
3.731900 1.432700
3.749300 1.429700
3.766700 1.426700
3.784100 1.423700
3.801400 1.421400
3.818800 1.417900
3.836200 1.412100
3.853500 1.406400
3.870900 1.401400
3.888300 1.405600
3.905700 1.427900
3.923000 1.470200
3.940400 1.530200
3.957800 1.616900
3.975100 1.580200
3.992500 1.488700
4.009900 1.463900
4.027300 1.467400
4.044600 1.473900
4.062000 1.481000
4.079400 1.488600
4.096700 1.496700
4.114100 1.505800
4.131500 1.516300
4.148900 1.576800
4.166200 1.629800
4.183600 1.645300
4.201000 1.630100
4.218300 1.601100
4.235700 1.562300
4.253100 1.529900
4.270500 1.524700
4.287800 1.528800
4.305200 1.544200
4.322600 1.571500
4.340000 1.648200
4.357300 1.698700
4.374700 1.802700
4.392100 1.948100
4.409400 1.677300
4.426800 1.463800
4.444200 1.398100
4.461600 1.359800
4.478900 1.331100
4.496300 1.313000
4.513700 1.307500
4.531000 1.306400
4.548400 1.307900
4.565800 1.311900
4.583200 1.318400
4.600500 1.327400
4.617900 1.336200
4.635300 1.341800
4.652600 1.346400
4.670000 1.350000
4.687400 1.354500
4.704800 1.371800
4.722100 1.395200
4.739500 1.424100
4.756900 1.458600
4.774300 1.498700
4.791600 1.545000
4.809000 1.598000
4.826400 1.650200
4.843700 1.699000
4.861100 1.744100
4.878500 1.779600
4.895900 1.371100
4.913200 1.390400
4.930600 1.410800
4.948000 1.427400
4.965300 1.439600
4.982700 1.445600
5.000100 1.438500
5.017500 1.454600
5.034800 1.466000
5.052200 1.461600
5.069600 1.437800
5.086900 1.387800
5.104300 1.311400
5.121700 1.245200
5.139100 1.204800
5.156400 1.182700
5.173800 1.167300
5.191200 1.159600
5.208600 1.153500
5.225900 1.152700
5.243300 1.156000
5.260700 1.161700
5.278000 1.170400
5.295400 1.182200
5.312800 1.200600
5.330200 1.232600
5.347500 1.264900
5.364900 1.293100
5.382300 1.317100
5.399600 1.338700
5.417000 1.367100
5.434400 1.400200
5.451800 1.445900
5.469100 1.511000
5.486500 1.580100
5.503900 1.652700
5.521200 1.713100
5.538600 1.779600
5.556000 1.855600
5.573400 1.885700
5.590700 1.885300
5.608100 1.861800
5.625500 1.806400
5.642800 1.750400
5.660200 1.702100
5.677600 1.666100
5.695000 1.635700
5.712300 1.605900
5.729700 1.578400
5.747100 1.567000
5.764500 1.561100
5.781800 1.554400
5.799200 1.545700
5.816600 1.534700
5.833900 1.523100
5.851300 1.513400
5.868700 1.505100
5.886100 1.497400
5.903400 1.489700
5.920800 1.478000
5.938200 1.469600
5.955500 1.464300
5.972900 1.457000
5.990300 1.446800
6.007700 1.430900
6.025000 1.414500
6.042400 1.391200
6.059800 1.366500
6.077100 2.319300
6.094500 1.227700
6.111900 1.200400
6.129300 1.172800
6.146600 1.144000
6.164000 1.113800
6.181400 1.081500
6.198800 1.044200
6.216100 0.994600
6.233500 0.964900
6.250900 0.976300
6.268200 0.984700
6.285600 0.990100
6.303000 0.991800
6.320400 0.988500
6.337700 0.987200
6.355100 0.987900
6.372500 1.010000
6.389800 1.048500
6.407200 1.086200
6.424600 1.113400
6.442000 1.131200
6.459300 1.139900
6.476700 1.141900
6.494100 1.143400
6.511400 1.147400
6.528800 1.161200
6.546200 1.175500
6.563600 1.189500
6.580900 1.189100
6.598300 1.191300
6.615700 1.195800
6.633100 1.199500
6.650400 1.199700
6.667800 1.194600
6.685200 1.183600
6.702500 1.165500
6.719900 1.151100
6.737300 1.157500
6.754700 1.189700
6.772000 1.251700
6.789400 1.335600
6.806800 1.413900
6.824100 1.480700
6.841500 1.562600
6.858900 1.666600
6.876300 1.812000
6.893600 2.001400
6.911000 2.135700
6.928400 2.158300
6.945700 2.026900
6.963100 1.933000
6.980500 1.846800
6.997900 1.730000
7.015200 1.689900
7.032600 1.638900
7.050000 1.554500
7.067400 1.486300
7.084700 1.446400
7.102100 1.397400
7.119500 1.351200
7.136800 1.424400
7.154200 1.452400
7.171600 1.483700
7.189000 1.534900
7.206300 1.610800
7.223700 1.811900
7.241100 1.785000
7.258400 1.757600
7.275800 1.733600
7.293200 1.715100
7.310600 1.723800
7.327900 1.759500
7.345300 1.828600
7.362700 1.861600
7.380000 1.804800
7.397400 1.751200
7.414800 1.711400
7.432200 1.674100
7.449500 1.638200
7.466900 1.603700
7.484300 1.577600
7.501600 1.562000
7.519000 1.531700
7.536400 1.491100
7.553800 1.448300
7.571100 1.412400
7.588500 1.392400
7.605900 1.374400
7.623300 1.368900
7.640600 1.373500
7.658000 1.388900
7.675400 1.400300
7.692700 1.386700
7.710100 1.387400
7.727500 1.383600
7.744900 1.377800
7.762200 1.371600
7.779600 1.367400
7.797000 1.369400
7.814300 1.378300
7.831700 1.388300
7.849100 1.398000
7.866500 1.414000
7.883800 1.436700
7.901200 1.462900
7.918600 1.491500
7.935900 1.521600
7.953300 1.550900
7.970700 1.558500
7.988100 1.543300
8.005400 1.520700
8.022800 1.502700
8.040200 1.515700
8.057600 1.571000
8.074900 1.599700
8.092300 1.606700
8.109700 1.625800
8.127000 1.650800
8.144400 1.676900
8.161800 1.689400
8.179200 1.703400
8.196500 1.720500
8.213900 1.742600
8.231300 1.766700
8.248600 1.781600
8.266000 1.794600
8.283400 1.805900
8.300800 1.815400
8.318100 1.823100
8.335500 1.829100
8.352900 1.833000
8.370200 1.834700
8.387600 1.833100
8.405000 1.826400
8.422400 1.802300
8.439700 1.774000
8.457100 1.745300
8.474500 1.719800
8.491900 1.706200
8.509200 1.696700
8.526600 1.754400
8.544000 1.792600
8.561300 1.807600
8.578700 1.800700
8.596100 1.799900
8.613500 1.795500
8.630800 1.769000
8.648200 1.740100
8.665600 1.709700
8.682900 1.677300
8.700300 1.667400
8.717700 1.676800
8.735100 1.698200
8.752400 1.730000
8.769800 1.767200
8.787200 1.801100
8.804500 1.827700
8.821900 1.845500
8.839300 1.857500
8.856700 1.877900
8.874000 1.922600
8.891400 1.988300
8.908800 2.049100
8.926200 2.045200
8.943500 1.921500
8.960900 1.927500
8.978300 1.943700
8.995600 1.969200
9.013000 1.999000
9.030400 2.026400
9.047800 2.039800
9.065100 2.061700
9.082500 2.097000
9.099900 2.151200
9.117200 2.170400
9.134600 2.125400
9.152000 2.144900
9.169400 2.175700
9.186700 2.210000
9.204100 2.293600
9.221500 2.408000
9.238800 2.494100
9.256200 2.550300
9.273600 2.551900
9.291000 2.507000
9.308300 2.444000
9.325700 2.430700
9.343100 2.405500
9.360400 2.452300
9.377800 2.404200
9.395200 2.409000
9.412600 2.431800
9.429900 2.446800
9.447300 2.448200
9.464700 2.443000
9.482100 2.434900
9.499400 2.419200
9.516800 2.422500
9.534200 2.417800
9.551500 2.399900
9.568900 2.373300
9.586300 2.348500
9.603700 2.332300
9.621000 2.325900
9.638400 2.307600
9.655800 2.286200
9.673100 2.261200
9.690500 2.229900
9.707900 2.197800
9.725300 2.164300
9.742600 2.129200
9.760000 2.093500
9.777400 2.057200
9.794700 1.977400
9.812100 1.898800
9.829500 1.855800
9.846900 1.822700
9.864200 1.793600
9.881600 1.768000
9.899000 1.745000
9.916400 1.730800
9.933700 1.728300
9.951100 1.740400
9.968500 1.762900
9.985800 1.786600
10.003200 1.810500
10.020600 1.832200
10.038000 1.850000
10.055300 1.864500
10.072700 1.880500
10.090100 1.893600
10.107400 1.902400
10.124800 1.907200
10.142200 1.907900
10.159600 1.904400
10.176900 1.899100
10.194300 1.894100
10.211700 1.890200
10.229000 1.888000
10.246400 1.886000
10.263800 1.871000
10.281200 1.848900
10.298500 1.825000
10.315900 1.798700
10.333300 1.769600
10.350700 1.737400
10.368000 1.702300
10.385400 1.675200
10.402800 1.654900
10.420100 1.637200
10.437500 1.612400
10.454900 1.587700
10.472300 1.575700
10.489600 1.569400
10.507000 1.567200
10.524400 1.586500
10.541700 1.654300
10.559100 1.722400
10.576500 1.752400
10.593900 1.714800
10.611200 1.712900
10.628600 1.732300
10.646000 1.751600
10.663300 1.770900
10.680700 1.790900
10.698100 1.811500
10.715500 1.833500
10.732800 1.865200
10.750200 1.887600
10.767600 1.928600
10.784900 1.987400
10.802300 2.031700
10.819700 2.070900
10.837100 2.104500
10.854400 2.120600
10.871800 2.166900
10.889200 2.215900
10.906600 2.258600
10.923900 2.290300
10.941300 2.304400
10.958700 2.310800
10.976000 2.317000
10.993400 2.318900
11.010800 2.324200
11.028200 2.329900
11.045500 2.357300
11.062900 2.394800
11.080300 2.419100
11.097600 2.433900
11.115000 2.425300
11.132400 2.417900
11.149800 2.413300
11.167100 2.415600
11.184500 2.402900
11.201900 2.388100
11.219200 2.372200
11.236600 2.356000
11.254000 2.341100
11.271400 2.325900
11.288700 2.311400
11.306100 2.282900
11.323500 2.249100
11.340900 2.222700
11.358200 2.201300
11.375600 2.186800
11.393000 2.179900
11.410300 2.182100
11.427700 2.186400
11.445100 2.192500
11.462500 2.210000
11.479800 2.248500
11.497200 2.275700
11.514600 2.293000
11.531900 2.372200
11.549300 2.382200
11.566700 2.302500
11.584100 2.305100
11.601400 2.300700
11.618800 2.288900
11.636200 2.281700
11.653500 2.291000
11.670900 2.302400
11.688300 2.316200
11.705700 2.331300
11.723000 2.349400
11.740400 2.359000
11.757800 2.354100
11.775200 2.339900
11.792500 2.324300
11.809900 2.303300
11.827300 2.269900
11.844600 2.233900
11.862000 2.200600
11.879400 2.172200
11.896800 2.150700
11.914100 2.140400
11.931500 2.138400
11.948900 2.141800
11.966200 2.148100
11.983600 2.157500
12.001000 2.168200
12.018400 2.181100
12.035700 2.195800
12.053100 2.214000
12.070500 2.240200
12.087800 2.270400
12.105200 2.304300
12.122600 2.341600
12.140000 2.381800
12.157300 2.422800
12.174700 2.465800
12.192100 2.514800
12.209500 2.573000
12.226800 2.651000
12.244200 2.732100
12.261600 2.708700
12.278900 2.625300
12.296300 2.541100
12.313700 2.457700
12.331100 2.381200
12.348400 2.323200
12.365800 2.278400
12.383200 2.245900
12.400500 2.213700
12.417900 2.181100
12.435300 2.153000
12.452700 2.123400
12.470000 2.096300
12.487400 2.071200
12.504800 2.048900
12.522100 2.029300
12.539500 2.012500
12.556900 2.293900
12.574300 2.025800
12.591600 2.018600
12.609000 2.014500
12.626400 2.012900
12.643700 2.021000
12.661100 2.032000
12.678500 2.048400
12.695900 2.079700
12.713200 2.154300
12.730600 2.314600
12.748000 2.418500
12.765400 2.395700
12.782700 2.389300
12.800100 2.384600
12.817500 2.381500
12.834800 2.380900
12.852200 2.384300
12.869600 2.389700
12.887000 2.396400
12.904300 2.404600
12.921700 2.412800
12.939100 2.416500
12.956400 2.419600
12.973800 2.421400
12.991200 2.421300
13.008600 2.420900
13.025900 2.422400
13.043300 2.431900
13.060700 2.446800
13.078000 2.475600
13.095400 2.489900
13.112800 2.491800
13.130200 2.491800
13.147500 2.497000
13.164900 2.508400
13.182300 2.525300
13.199700 2.546700
13.217000 2.562400
13.234400 2.570100
13.251800 2.564000
13.269100 2.555200
13.286500 2.565000
13.303900 2.576700
13.321300 2.588200
13.338600 2.595400
13.356000 2.598100
13.373400 2.599000
13.390700 2.597400
13.408100 2.590600
13.425500 2.584400
13.442900 2.583000
13.460200 2.551400
13.477600 2.520500
13.495000 2.514100
13.512300 2.509400
13.529700 2.504200
13.547100 2.500000
13.564500 2.497500
13.581800 2.500900
13.599200 2.596900
13.616600 2.634500
13.634000 2.564700
13.651300 2.510100
13.668700 2.486500
13.686100 2.481500
13.703400 2.477100
13.720800 2.471800
13.738200 2.465700
13.755600 2.455100
13.772900 2.438400
13.790300 2.432600
13.807700 2.457200
13.825000 2.454400
13.842400 2.453300
13.859800 2.461200
13.877200 2.477800
13.894500 2.516400
13.911900 2.554100
13.929300 2.575000
13.946600 2.599000
13.964000 2.625800
13.981400 2.655000
13.998800 2.685900
14.016100 2.685500
14.033500 2.687600
14.050900 2.682400
14.068300 2.667600
14.085600 2.650800
14.103000 2.632000
14.120400 2.612000
14.137700 2.592300
14.155100 2.579600
14.172500 2.583700
14.189900 2.599600
14.207200 2.634200
14.224600 2.670400
14.242000 2.704800
14.259300 2.736500
14.276700 2.764000
14.294100 2.789000
14.311500 2.838100
14.328800 2.899700
14.346200 2.956100
14.363600 3.008300
14.380900 2.925700
14.398300 2.847000
14.415700 2.855000
14.433100 2.918400
14.450400 3.103100
14.467800 3.062800
14.485200 2.960800
14.502500 2.948300
14.519900 2.953800
14.537300 2.957400
14.554700 2.957800
14.572000 2.946400
14.589400 2.911000
14.606800 2.887300
14.624200 2.878500
14.641500 2.912300
14.658900 2.949300
14.676300 2.965400
14.693600 2.961400
14.711000 2.935600
14.728400 2.910300
14.745800 2.890400
14.763100 2.859600
14.780500 2.830900
14.797900 2.812800
14.815200 2.804700
14.832600 2.797600
14.850000 2.788400
14.867400 2.775300
14.884700 2.759200
14.902100 2.740200
14.919500 2.710000
14.936800 2.673200
14.954200 2.638500
14.971600 2.596200
14.989000 2.565300
15.006300 2.543800
15.023700 2.507200
15.041100 2.459800
15.058500 2.451900
15.075800 2.445000
15.093200 2.441400
15.110600 2.442100
15.127900 2.439500
15.145300 2.439000
15.162700 2.438100
15.180100 2.437100
15.197400 2.437700
15.214800 2.439300
15.232200 2.441200
15.249500 2.443300
15.266900 2.445300
15.284300 2.447600
15.301700 2.451100
15.319000 2.459400
15.336400 2.472200
15.353800 2.811000
15.371100 2.551500
15.388500 2.526300
15.405900 2.542800
15.423300 2.562000
15.440600 2.579800
15.458000 2.595300
15.475400 2.612200
15.492800 2.630500
15.510100 2.653500
15.527500 2.716700
15.544900 2.870900
15.562200 2.797800
15.579600 2.720900
15.597000 2.665200
15.614400 2.623300
15.631700 2.592900
15.649100 2.571100
15.666500 2.551800
15.683800 2.536600
15.701200 2.535200
15.718600 2.534200
15.736000 2.533400
15.753300 2.531200
15.770700 2.527600
15.788100 2.522500
15.805400 2.516900
15.822800 2.492500
15.840200 2.474200
15.857600 2.464700
15.874900 2.458000
15.892300 2.454700
15.909700 2.456700
15.927000 2.465200
15.944400 2.483600
15.961800 2.516900
15.979200 2.554400
15.996500 2.652200
16.013900 2.828400
16.031300 2.921400
16.048700 2.987400
16.066000 3.035800
16.083400 3.068900
16.100800 3.080700
16.118100 3.071700
16.135500 3.045100
16.152900 3.007100
16.170300 2.960200
16.187600 2.927000
16.205000 2.877000
16.222400 2.844200
16.239700 2.836700
16.257100 2.823800
16.274500 2.806200
16.291900 2.783800
16.309200 2.777800
16.326600 2.696300
16.344000 2.603600
16.361300 2.519900
16.378700 2.445400
16.396100 2.382200
16.413500 2.340500
16.430800 2.326400
16.448200 2.317800
16.465600 2.309700
16.483000 2.301900
16.500300 2.294000
16.517700 2.286000
16.535100 2.277200
16.552400 2.268000
16.569800 2.262300
16.587200 2.260200
16.604600 2.261100
16.621900 2.264100
16.639300 2.268400
16.656700 2.276300
16.674000 2.285400
16.691400 2.294500
16.708800 2.303800
16.726200 2.313100
16.743500 2.322800
16.760900 2.332800
16.778300 2.340500
16.795600 2.344300
16.813000 2.346700
16.830400 2.360900
16.847800 2.358300
16.865100 2.355600
16.882500 2.355000
16.899900 2.354300
16.917300 2.353500
16.934600 2.352200
16.952000 2.350400
16.969400 2.348300
16.986700 2.345900
17.004100 2.343400
17.021500 2.340600
17.038900 2.337600
17.056200 2.345900
17.073600 2.381300
17.091000 2.388300
17.108300 2.360400
17.125700 2.326000
17.143100 2.298300
17.160500 2.279900
17.177800 2.269900
17.195200 2.261900
17.212600 2.254500
17.229900 2.246100
17.247300 2.234900
17.264700 2.220400
17.282100 2.206600
17.299400 2.200900
17.316800 2.200700
17.334200 2.225400
17.351600 2.250500
17.368900 2.275000
17.386300 2.298800
17.403700 2.321900
17.421000 2.344300
17.438400 2.365900
17.455800 2.359000
17.473200 2.338600
17.490500 2.356200
17.507900 2.377100
17.525300 2.401100
17.542600 2.427600
17.560000 2.453700
17.577400 2.476300
17.594800 2.491200
17.612100 2.505700
17.629500 2.524500
17.646900 2.606800
17.664200 2.702300
17.681600 2.586000
17.699000 2.519300
17.716400 2.518300
17.733700 2.515200
17.751100 2.511300
17.768500 2.515400
17.785800 2.527600
17.803200 2.548300
17.820600 2.449200
17.838000 2.417300
17.855300 2.364100
17.872700 2.373300
17.890100 2.386800
17.907500 2.409900
17.924800 2.440500
17.942200 2.469100
17.959600 2.495100
17.976900 2.510800
17.994300 2.515600
18.011700 2.511700
18.029100 2.485800
18.046400 2.430700
18.063800 2.424300
18.081200 2.433000
18.098500 2.442700
18.115900 2.454000
18.133300 2.468500
18.150700 2.498200
18.168000 2.548300
18.185400 2.608900
18.202800 2.550600
18.220100 2.533000
18.237500 2.540000
18.254900 2.547300
18.272300 2.552000
18.289600 2.530500
18.307000 2.504200
18.324400 2.473100
18.341800 2.436400
18.359100 2.401200
18.376500 2.369100
18.393900 2.339600
18.411200 2.312800
18.428600 2.288500
18.446000 2.267000
18.463400 2.248100
18.480700 2.230900
18.498100 2.216300
18.515500 2.203900
18.532800 2.193500
18.550200 2.186100
18.567600 2.181700
18.585000 2.179700
18.602300 2.187700
18.619700 2.183100
18.637100 2.177600
18.654400 2.174000
18.671800 2.173200
18.689200 2.174800
18.706600 2.179200
18.723900 2.187100
18.741300 2.197000
18.758700 2.204900
18.776100 2.219000
18.793400 2.233800
18.810800 2.274400
18.828200 2.308900
18.845500 2.341800
18.862900 2.373900
18.880300 2.405400
18.897700 2.437500
18.915000 2.470000
18.932400 2.502700
18.949800 2.535700
18.967100 2.569800
18.984500 2.606700
19.001900 2.638000
19.019300 2.653300
19.036600 2.672800
19.054000 2.712700
19.071400 2.731900
19.088700 2.729600
19.106100 2.738700
19.123500 2.767800
19.140900 2.830100
19.158200 2.894900
19.175600 2.947800
19.193000 2.978200
19.210400 2.978400
19.227700 2.925900
19.245100 2.889100
19.262500 2.868000
19.279800 2.853100
19.297200 2.840700
19.314600 2.829600
19.332000 2.807600
19.349300 2.776600
19.366700 2.760300
19.384100 2.739000
19.401400 2.724600
19.418800 2.714100
19.436200 2.703000
19.453600 2.680600
19.470900 2.676800
19.488300 2.700400
19.505700 2.739600
19.523000 2.754400
19.540400 2.800000
19.557800 2.855500
19.575200 2.927100
19.592500 3.016100
19.609900 3.054200
19.627300 3.037300
19.644600 3.005200
19.662000 2.966700
19.679400 2.925500
19.696800 2.896200
19.714100 2.875000
19.731500 2.868700
19.748900 2.863100
19.766300 2.857200
19.783600 2.843400
19.801000 2.829600
19.818400 2.787800
19.835700 2.734400
19.853100 2.691600
19.870500 2.681800
19.887900 2.704400
19.905200 2.738400
19.922600 2.691500
19.940000 2.716000
19.957300 2.810700
19.974700 2.893400
19.992100 2.934200
20.009500 3.029700
20.026800 3.077400
20.044200 3.121300
20.061600 3.163400
20.078900 3.200900
20.096300 3.232100
20.113700 3.262800
20.131100 3.310800
20.148400 3.371100
20.165800 3.324000
20.183200 3.134000
20.200600 3.034400
20.217900 2.979800
20.235300 2.957500
20.252700 2.948800
20.270000 2.943100
20.287400 2.936800
20.304800 2.901600
20.322200 2.872300
20.339500 2.873700
20.356900 2.970000
20.374300 3.122800
20.391600 3.209600
20.409000 3.226100
20.426400 3.299900
20.443800 3.369800
20.461100 3.423200
20.478500 3.436700
20.495900 3.504700
20.513200 3.522600
20.530600 3.547300
20.548000 3.560000
20.565400 3.862000
20.582700 3.697900
20.600100 3.614600
20.617500 3.860100
20.634900 3.853000
20.652200 3.901000
20.669600 3.751000
20.687000 3.912000
20.704300 4.082500
20.721700 4.039100
20.739100 3.987900
20.756500 3.917000
20.773800 3.842500
20.791200 3.707800
20.808600 3.693600
20.825900 3.741000
20.843300 3.767000
20.860700 3.671700
20.878100 3.594000
20.895400 3.587400
20.912800 3.613000
20.930200 3.642400
20.947500 3.666300
20.964900 3.681800
20.982300 3.692400
20.999700 3.707800
21.017000 3.724000
21.034400 3.749100
21.051800 3.854900
21.069100 3.970000
21.086500 3.990900
21.103900 3.775500
21.121300 3.709100
21.138600 3.670800
21.156000 3.645600
21.173400 3.627800
21.190800 3.627700
21.208100 3.658400
21.225500 3.698300
21.242900 3.746400
21.260200 3.721500
21.277600 3.610500
21.295000 3.500400
21.312400 3.499500
21.329700 3.522100
21.347100 3.498000
21.364500 3.464100
21.381800 3.448400
21.399200 3.447900
21.416600 3.542700
21.434000 3.440700
21.451300 3.257500
21.468700 3.174100
21.486100 3.151500
21.503400 3.138800
21.520800 3.125300
21.538200 3.110900
21.555600 3.101200
21.572900 3.096700
21.590300 3.098800
21.607700 3.104300
21.625100 3.111200
21.642400 3.121100
21.659800 3.136800
21.677200 3.158100
21.694500 3.185500
21.711900 3.241400
21.729300 3.286300
21.746700 3.337800
21.764000 3.418700
21.781400 3.600000
21.798800 3.715100
21.816100 3.693000
21.833500 3.683100
21.850900 3.677500
21.868300 3.679500
21.885600 3.698500
21.903000 3.940200
21.920400 4.008100
21.937700 3.945600
21.955100 3.946800
21.972500 3.874000
21.989900 3.727800
22.007200 3.687900
22.024600 3.674400
22.042000 3.662000
22.059400 3.609600
22.076700 3.607500
22.094100 3.568200
22.111500 3.511200
22.128800 3.448900
22.146200 3.359700
22.163600 3.494700
22.181000 3.554400
22.198300 3.385200
22.215700 3.433700
22.233100 3.511000
22.250400 3.651800
22.267800 3.759500
22.285200 3.632500
22.302600 3.399400
22.319900 3.604600
22.337300 3.511300
22.354700 3.276700
22.372000 3.117500
22.389400 3.067100
22.406800 3.048500
22.424200 2.991800
22.441500 3.010500
22.458900 3.004900
22.476300 2.946900
22.493700 2.920500
22.511000 2.953500
22.528400 3.026800
22.545800 3.071200
22.563100 3.105300
22.580500 3.157600
22.597900 3.227000
22.615300 3.293900
22.632600 3.366100
22.650000 3.460300
22.667400 3.438500
22.684700 3.375400
22.702100 3.345700
22.719500 3.129600
22.736900 3.001000
22.754200 2.839500
22.771600 2.683500
22.789000 2.563000
22.806300 2.489700
22.823700 2.524400
22.841100 2.515600
22.858500 2.587900
22.875800 2.662100
22.893200 2.734500
22.910600 2.805700
22.927900 2.880100
22.945300 2.971400
22.962700 3.862300
22.980100 3.224800
22.997400 3.258700
23.014800 3.245300
23.032200 3.217200
23.049600 3.177000
23.066900 3.125300
23.084300 3.062900
23.101700 2.991300
23.119000 2.933300
23.136400 2.879300
23.153800 2.829100
23.171200 2.782700
23.188500 2.738200
23.205900 2.704000
23.223300 2.675300
23.240600 2.653100
23.258000 2.642300
23.275400 2.638800
23.292800 2.648200
23.310100 2.661600
23.327500 2.661400
23.344900 2.662500
23.362200 2.779100
23.379600 2.908400
23.397000 2.918500
23.414400 2.840100
23.431700 2.826100
23.449100 2.817200
23.466500 2.825100
23.483900 2.861300
23.501200 2.880700
23.518600 2.876800
23.536000 2.874700
23.553300 2.860900
23.570700 2.885300
23.588100 2.973500
23.605500 2.955500
23.622800 2.912700
23.640200 2.872100
23.657600 2.879400
23.674900 2.882700
23.692300 2.869600
23.709700 2.853100
23.727100 2.839300
23.744400 2.829000
23.761800 2.823600
23.779200 2.823000
23.796500 2.828200
23.813900 2.839300
23.831300 2.855100
23.848700 2.880100
23.866000 2.910200
23.883400 2.946100
23.900800 3.114600
23.918200 3.416200
23.935500 3.084700
23.952900 3.070400
23.970300 2.981500
23.987600 2.905300
24.005000 2.882200
24.022400 2.870900
24.039800 2.862800
24.057100 2.856700
24.074500 2.862100
24.091900 2.876600
24.109200 2.899400
24.126600 2.915100
24.144000 2.914900
24.161400 2.900900
24.178700 2.870700
24.196100 2.828500
24.213500 2.780600
24.230800 2.731600
24.248200 2.679000
24.265600 2.613300
24.283000 2.524900
24.300300 2.414600
24.317700 2.295600
24.335100 2.074600
24.352500 1.906800
24.369800 1.881500
24.387200 1.802000
24.404600 1.698100
24.421900 1.616400
24.439300 1.557100
24.456700 1.552700
24.474100 1.613300
24.491400 1.786300
24.508800 1.933000
24.526200 1.986700
24.543500 1.600600
24.560900 1.388500
24.578300 1.327600
24.595700 1.285600
24.613000 1.253100
24.630400 1.231100
24.647800 1.191500
24.665100 1.176900
24.682500 1.182800
24.699900 1.216800
24.717300 1.244600
24.734600 1.252900
24.752000 1.243400
24.769400 1.216400
24.786700 1.199200
24.804100 1.215000
24.821500 1.193500
24.838900 1.167800
24.856200 1.142400
24.873600 1.118300
24.891000 1.095800
24.908400 1.066800
24.925700 1.027600
24.943100 0.979200
24.960500 0.919900
24.977800 0.851600
24.995200 0.793100
25.012600 0.725500
25.030000 0.661400
25.047300 0.638600
25.064700 0.619800
25.082100 0.602100
25.099400 0.585000
25.116800 0.566600
25.134200 0.542300
25.151600 0.512100
25.168900 0.481900
25.186300 0.452900
25.203700 0.425100
25.221000 0.398600
25.238400 0.373300
25.255800 0.349200
25.273200 0.326700
25.290500 0.306000
25.307900 0.286000
25.325300 0.266900
25.342700 0.248900
25.360000 0.231900
25.377400 0.215800
25.394800 0.200800
25.412100 0.186800
25.429500 0.173700
25.446900 0.161700
25.464300 0.150700
25.481600 0.140700
25.499000 0.131500
25.516400 0.122700
25.533700 0.114300
25.551100 0.106300
25.568500 0.098600
25.585900 0.091400
25.603200 0.084500
25.620600 0.078000
25.638000 0.071800
25.655300 0.066100
25.672700 0.062200
25.690100 0.058700
25.707500 0.055400
25.724800 0.052200
25.742200 0.049100
25.759600 0.046200
25.777000 0.043500
25.794300 0.040800
25.811700 0.038300
25.829100 0.036000
25.846400 0.033700
25.863800 0.031500
25.881200 0.029300
25.898600 0.027200
25.915900 0.025200
25.933300 0.023300
25.950700 0.021400
25.968000 0.019600
25.985400 0.017900
26.002800 0.016300
26.020200 0.014700
26.037500 0.013200
26.054900 0.011700
26.072300 0.010300
26.089600 0.009000
26.107000 0.007800
26.124400 0.006600
26.141800 0.005500
26.159100 0.004500
26.176500 0.003600
26.193900 0.002700
26.211200 0.002000
26.228600 0.001400
26.246000 0.000900
26.263400 0.000500
26.280700 0.000200
26.298100 0.000100
26.315500 0.000000
26.332900 0.000000
26.350200 0.000000
26.367600 0.000000
26.385000 0.000000
26.402300 0.000000
26.419700 0.000000
26.437100 0.000000
26.454500 0.000000
26.471800 0.000000
26.489200 0.000000
26.506600 0.000000
26.523900 0.000000
26.541300 0.000000
26.558700 0.000000
26.576100 0.000000
26.593400 0.000000
26.610800 0.000000
26.628200 0.000000
26.645500 0.000000
26.662900 0.000000
26.680300 0.000000
26.697700 0.000000
26.715000 0.000000
26.732400 0.000000
26.749800 0.000000
26.767200 0.000000
26.784500 0.000000
26.801900 0.000000
26.819300 0.000000
26.836600 0.000000
26.854000 0.000000
26.871400 0.000000
26.888800 0.000000
26.906100 0.000000
26.923500 0.000000
26.940900 0.000000
26.958200 0.000000
26.975600 0.000000
26.993000 0.000000
27.010400 0.000000
27.027700 0.000000
27.045100 0.000000
27.062500 0.000000
27.079800 0.000000
27.097200 0.000000
27.114600 0.000000
27.132000 0.000000
27.149300 0.000000
27.166700 0.000000
27.184100 0.000000
27.201500 0.000000
27.218800 0.000000
27.236200 0.000000
27.253600 0.000000
27.270900 0.000000
27.288300 0.000000
27.305700 0.000000
27.323100 0.000000
27.340400 0.000000
27.357800 0.000000
27.375200 0.000000
27.392500 0.000000
27.409900 0.000000
27.427300 0.000000
27.444700 0.000000
27.462000 0.000000
27.479400 0.000000
27.496800 0.000000
27.514100 0.000000
27.531500 0.000000
27.548900 0.000000
27.566300 0.000000
27.583600 0.000000
27.601000 0.000000
27.618400 0.000000
27.635800 0.000000
27.653100 0.000000
27.670500 0.000000
27.687900 0.000000
27.705200 0.000000
27.722600 0.000000
27.740000 0.000000
27.757400 0.000000
27.774700 0.000000
27.792100 0.000000
27.809500 0.000000
27.826800 0.000000
27.844200 0.000000
27.861600 0.000000
27.879000 0.000000
27.896300 0.000000
e
