set title 'mp-971673 - Density of States'
set xlabel 'Energy (eV)'
set ylabel 'DOS (states/eV)'
set grid
set xrange [-10:10]
set yrange [0:49.334]
set xzeroaxis lt -1
set terminal png size 800,600
set output 'mp-971673_dos_gnuplot.png'
plot '-' using 1:2 with lines title 'DOS'
-11.527900 0.000000
-11.514900 0.000000
-11.501800 0.000000
-11.488700 0.000000
-11.475700 0.000000
-11.462600 0.000000
-11.449500 0.000000
-11.436500 0.000000
-11.423400 0.000000
-11.410400 0.000000
-11.397300 0.000000
-11.384200 0.000000
-11.371200 0.000000
-11.358100 0.000000
-11.345000 0.000000
-11.332000 0.000000
-11.318900 0.000000
-11.305800 0.000000
-11.292800 0.000000
-11.279700 0.000000
-11.266600 0.000000
-11.253600 0.000000
-11.240500 0.000000
-11.227500 0.000000
-11.214400 0.000000
-11.201300 0.000000
-11.188300 0.000000
-11.175200 0.000000
-11.162100 0.000000
-11.149100 0.000000
-11.136000 0.000000
-11.122900 0.000000
-11.109900 0.000000
-11.096800 0.000000
-11.083700 0.000000
-11.070700 0.000000
-11.057600 0.000000
-11.044600 0.000000
-11.031500 0.000000
-11.018400 0.000000
-11.005400 0.000000
-10.992300 0.000000
-10.979200 0.000000
-10.966200 0.000000
-10.953100 0.000000
-10.940000 0.000000
-10.927000 0.000000
-10.913900 0.000000
-10.900800 0.000000
-10.887800 0.000000
-10.874700 0.000000
-10.861700 0.000000
-10.848600 0.000000
-10.835500 0.000000
-10.822500 0.000000
-10.809400 0.000000
-10.796300 0.000000
-10.783300 0.000000
-10.770200 0.000000
-10.757100 0.000000
-10.744100 0.000000
-10.731000 0.000000
-10.717900 0.000000
-10.704900 0.000000
-10.691800 0.000000
-10.678800 0.000000
-10.665700 0.000000
-10.652600 0.000000
-10.639600 0.000000
-10.626500 0.000000
-10.613400 0.000000
-10.600400 0.000000
-10.587300 0.000000
-10.574200 0.000000
-10.561200 0.000000
-10.548100 0.000000
-10.535000 0.000000
-10.522000 0.000000
-10.508900 0.000000
-10.495900 0.000000
-10.482800 0.000000
-10.469700 0.000000
-10.456700 0.000000
-10.443600 0.000000
-10.430500 0.000000
-10.417500 0.000000
-10.404400 0.000000
-10.391300 0.000000
-10.378300 0.000000
-10.365200 0.000000
-10.352100 0.000000
-10.339100 0.004000
-10.326000 0.567800
-10.312900 1.402000
-10.299900 1.756900
-10.286800 2.343700
-10.273800 3.161500
-10.260700 3.538200
-10.247600 3.581700
-10.234600 3.807100
-10.221500 4.037700
-10.208400 4.255900
-10.195400 4.569400
-10.182300 5.593000
-10.169200 6.679200
-10.156200 5.256600
-10.143100 4.764700
-10.130000 4.281200
-10.117000 3.933400
-10.103900 3.917600
-10.090900 3.918600
-10.077800 4.388500
-10.064700 5.078400
-10.051700 5.623100
-10.038600 6.410800
-10.025500 7.902200
-10.012500 8.551700
-9.999400 9.306700
-9.986300 11.224600
-9.973300 12.161600
-9.960200 10.939400
-9.947100 10.359100
-9.934100 9.638400
-9.921000 10.727500
-9.908000 12.923700
-9.894900 12.931200
-9.881800 4.111900
-9.868800 4.068700
-9.855700 4.110100
-9.842600 4.134100
-9.829600 4.121600
-9.816500 4.098200
-9.803400 4.111100
-9.790400 4.309500
-9.777300 4.663100
-9.764200 5.062600
-9.751200 5.110100
-9.738100 5.125800
-9.725100 7.347900
-9.712000 9.213500
-9.698900 44.849000
-9.685900 0.000000
-9.672800 0.000000
-9.659700 0.000000
-9.646700 0.000000
-9.633600 0.000000
-9.620500 0.000000
-9.607500 0.000000
-9.594400 0.000000
-9.581300 0.000000
-9.568300 0.000000
-9.555200 0.000000
-9.542200 0.000000
-9.529100 0.000000
-9.516000 0.000000
-9.503000 0.000000
-9.489900 0.000000
-9.476800 0.000000
-9.463800 0.000000
-9.450700 0.000000
-9.437600 0.000000
-9.424600 0.000000
-9.411500 0.000000
-9.398400 0.000000
-9.385400 0.000000
-9.372300 0.000000
-9.359200 0.000000
-9.346200 0.000000
-9.333100 0.000000
-9.320100 0.000000
-9.307000 0.000000
-9.293900 0.000000
-9.280900 0.000000
-9.267800 0.000000
-9.254700 0.000000
-9.241700 0.000000
-9.228600 0.000000
-9.215500 0.027900
-9.202500 0.468700
-9.189400 0.574900
-9.176300 0.660400
-9.163300 0.797400
-9.150200 0.967300
-9.137200 1.175000
-9.124100 1.379600
-9.111000 1.423300
-9.098000 1.441100
-9.084900 2.137500
-9.071800 3.172400
-9.058800 2.861400
-9.045700 2.844200
-9.032600 2.917700
-9.019600 2.985600
-9.006500 3.059900
-8.993400 3.150200
-8.980400 3.203300
-8.967300 3.243300
-8.954300 3.291300
-8.941200 3.335100
-8.928100 3.389900
-8.915100 3.456700
-8.902000 3.553000
-8.888900 3.667200
-8.875900 3.792700
-8.862800 3.932000
-8.849700 4.101100
-8.836700 4.256100
-8.823600 4.436000
-8.810500 4.702400
-8.797500 5.065300
-8.784400 5.452700
-8.771400 5.433300
-8.758300 5.365300
-8.745200 5.556100
-8.732200 5.231800
-8.719100 4.964700
-8.706000 4.588500
-8.693000 4.315000
-8.679900 4.114700
-8.666800 3.994000
-8.653800 3.745300
-8.640700 3.606700
-8.627600 3.457600
-8.614600 3.374400
-8.601500 3.312800
-8.588500 3.233700
-8.575400 3.172500
-8.562300 3.112200
-8.549300 3.055500
-8.536200 3.007000
-8.523100 2.948800
-8.510100 2.883600
-8.497000 2.830200
-8.483900 2.805700
-8.470900 2.775100
-8.457800 2.739100
-8.444700 2.707300
-8.431700 2.676500
-8.418600 2.637200
-8.405600 2.602000
-8.392500 2.571800
-8.379400 2.543600
-8.366400 2.493700
-8.353300 2.451600
-8.340200 2.429200
-8.327200 2.416200
-8.314100 2.404200
-8.301000 2.388200
-8.288000 2.375600
-8.274900 2.364800
-8.261800 2.355100
-8.248800 2.345800
-8.235700 2.336200
-8.222600 2.325000
-8.209600 2.316100
-8.196500 2.305400
-8.183500 2.277500
-8.170400 2.263200
-8.157300 2.251000
-8.144300 2.242900
-8.131200 2.237600
-8.118100 2.232700
-8.105100 2.226100
-8.092000 2.220300
-8.078900 2.215900
-8.065900 2.211600
-8.052800 2.206800
-8.039700 2.202100
-8.026700 2.197600
-8.013600 2.193300
-8.000600 2.187300
-7.987500 2.187100
-7.974400 4.199000
-7.961400 4.440700
-7.948300 5.069200
-7.935200 3.445500
-7.922200 1.211000
-7.909100 1.067600
-7.896000 1.612300
-7.883000 2.722000
-7.869900 3.035700
-7.856800 2.257400
-7.843800 1.854800
-7.830700 1.243300
-7.817700 0.776500
-7.804600 0.484100
-7.791500 0.278500
-7.778500 0.115700
-7.765400 0.000000
-7.752300 0.000000
-7.739300 0.076600
-7.726200 0.366700
-7.713100 0.753600
-7.700100 1.366600
-7.687000 2.485500
-7.673900 3.102300
-7.660900 3.552800
-7.647800 2.111800
-7.634800 1.403700
-7.621700 1.895800
-7.608600 3.107800
-7.595600 5.104900
-7.582500 4.670400
-7.569400 3.514500
-7.556400 2.988600
-7.543300 2.951200
-7.530200 3.157200
-7.517200 3.408300
-7.504100 3.597100
-7.491000 3.822000
-7.478000 4.081100
-7.464900 4.360000
-7.451900 4.696000
-7.438800 5.189000
-7.425700 5.490500
-7.412700 5.900500
-7.399600 6.391200
-7.386500 7.105200
-7.373500 7.965400
-7.360400 9.100600
-7.347300 9.913500
-7.334300 12.552300
-7.321200 12.826500
-7.308100 12.314300
-7.295100 11.845100
-7.282000 11.883500
-7.268900 11.187900
-7.255900 10.929000
-7.242800 11.262400
-7.229800 10.133100
-7.216700 9.856300
-7.203600 9.915200
-7.190600 10.832400
-7.177500 11.864700
-7.164400 10.334200
-7.151400 9.126300
-7.138300 8.088400
-7.125200 7.523200
-7.112200 5.276800
-7.099100 3.131300
-7.086000 1.784400
-7.073000 1.610900
-7.059900 1.463700
-7.046900 1.312600
-7.033800 1.407700
-7.020700 1.524400
-7.007700 1.646300
-6.994600 1.766200
-6.981500 1.881700
-6.968500 1.972400
-6.955400 1.963000
-6.942300 1.981500
-6.929300 2.017200
-6.916200 2.094100
-6.903100 2.205200
-6.890100 2.300500
-6.877000 2.356900
-6.864000 2.402800
-6.850900 2.439300
-6.837800 2.467600
-6.824800 2.465800
-6.811700 2.434700
-6.798600 2.415400
-6.785600 2.425800
-6.772500 2.435200
-6.759400 2.443600
-6.746400 2.454500
-6.733300 2.473100
-6.720200 2.498200
-6.707200 2.525500
-6.694100 2.553100
-6.681100 2.580800
-6.668000 2.606300
-6.654900 2.628400
-6.641900 2.649300
-6.628800 2.669900
-6.615700 2.689100
-6.602700 2.703400
-6.589600 2.711100
-6.576500 2.721500
-6.563500 2.734600
-6.550400 2.753000
-6.537300 2.776100
-6.524300 2.803000
-6.511200 2.835600
-6.498200 2.873200
-6.485100 2.910700
-6.472000 2.945400
-6.459000 2.980500
-6.445900 3.019200
-6.432800 3.061400
-6.419800 3.107800
-6.406700 3.155700
-6.393600 3.204800
-6.380600 3.254900
-6.367500 3.304200
-6.354400 3.440100
-6.341400 3.558700
-6.328300 3.670000
-6.315300 3.667700
-6.302200 3.693700
-6.289100 3.728800
-6.276100 3.775500
-6.263000 3.820600
-6.249900 3.912400
-6.236900 4.032400
-6.223800 4.184200
-6.210700 4.313800
-6.197700 4.411200
-6.184600 4.462800
-6.171500 4.431800
-6.158500 4.354400
-6.145400 4.295600
-6.132300 4.341400
-6.119300 4.464100
-6.106200 4.628100
-6.093200 4.657600
-6.080100 5.039000
-6.067000 6.037200
-6.054000 6.940500
-6.040900 6.961700
-6.027800 6.053100
-6.014800 4.750000
-6.001700 3.031700
-5.988600 2.171900
-5.975600 1.580900
-5.962500 1.396300
-5.949400 1.474000
-5.936400 1.592200
-5.923300 1.757200
-5.910300 2.079800
-5.897200 2.485600
-5.884100 3.016700
-5.871100 3.240500
-5.858000 3.412100
-5.844900 3.684600
-5.831900 3.744300
-5.818800 4.122000
-5.805700 4.739000
-5.792700 5.759600
-5.779600 7.339700
-5.766500 6.960600
-5.753500 5.758600
-5.740400 5.195500
-5.727400 6.375400
-5.714300 8.877800
-5.701200 7.315700
-5.688200 7.108400
-5.675100 7.189700
-5.662000 7.680900
-5.649000 7.760000
-5.635900 6.728000
-5.622800 6.237800
-5.609800 5.711100
-5.596700 5.367100
-5.583600 5.131300
-5.570600 4.973100
-5.557500 4.797300
-5.544500 4.629300
-5.531400 4.456200
-5.518300 4.590900
-5.505300 4.796100
-5.492200 5.190800
-5.479100 5.833400
-5.466100 5.636300
-5.453000 5.390900
-5.439900 5.022600
-5.426900 4.692600
-5.413800 4.315100
-5.400700 4.088000
-5.387700 3.952600
-5.374600 4.058000
-5.361600 4.526800
-5.348500 5.373000
-5.335400 6.646500
-5.322400 6.276200
-5.309300 5.339900
-5.296200 4.391100
-5.283200 3.915800
-5.270100 3.839500
-5.257000 3.906300
-5.244000 4.211400
-5.230900 4.552000
-5.217800 5.449100
-5.204800 6.432800
-5.191700 6.474500
-5.178600 5.441200
-5.165600 4.959000
-5.152500 4.647700
-5.139500 4.427900
-5.126400 4.277800
-5.113300 4.229700
-5.100300 4.186400
-5.087200 4.143500
-5.074100 4.106400
-5.061100 4.070900
-5.048000 4.035000
-5.034900 4.000200
-5.021900 3.969400
-5.008800 3.938500
-4.995700 3.905800
-4.982700 3.860800
-4.969600 3.811800
-4.956600 3.779700
-4.943500 3.759000
-4.930400 3.747700
-4.917400 3.745100
-4.904300 3.758500
-4.891200 3.754100
-4.878200 3.719500
-4.865100 3.703600
-4.852000 3.680800
-4.839000 3.633700
-4.825900 3.573200
-4.812800 3.523600
-4.799800 3.495000
-4.786700 3.504200
-4.773700 3.477000
-4.760600 3.327600
-4.747500 3.091100
-4.734500 2.915300
-4.721400 2.810400
-4.708300 2.737200
-4.695300 2.683100
-4.682200 2.649300
-4.669100 2.621200
-4.656100 2.589300
-4.643000 2.547100
-4.629900 2.476500
-4.616900 2.412300
-4.603800 2.370400
-4.590800 2.337700
-4.577700 2.310100
-4.564600 2.289500
-4.551600 2.268700
-4.538500 2.246400
-4.525400 2.244200
-4.512400 2.252800
-4.499300 2.263000
-4.486200 2.278300
-4.473200 2.295900
-4.460100 2.485200
-4.447000 2.659100
-4.434000 2.663100
-4.420900 2.717000
-4.407900 2.791000
-4.394800 2.820000
-4.381700 2.852500
-4.368700 2.877700
-4.355600 2.903400
-4.342500 2.919100
-4.329500 2.938000
-4.316400 2.952600
-4.303300 2.973200
-4.290300 2.978600
-4.277200 2.993800
-4.264100 3.002400
-4.251100 3.004000
-4.238000 3.007700
-4.225000 3.027300
-4.211900 3.057300
-4.198800 3.063100
-4.185800 3.061700
-4.172700 3.068300
-4.159600 3.075200
-4.146600 3.075900
-4.133500 3.093700
-4.120400 3.143500
-4.107400 3.179700
-4.094300 3.201000
-4.081200 3.221700
-4.068200 3.249600
-4.055100 3.330800
-4.042000 3.460600
-4.029000 3.550900
-4.015900 3.619300
-4.002900 3.645300
-3.989800 3.725800
-3.976700 3.727300
-3.963700 3.740300
-3.950600 3.798600
-3.937500 3.866500
-3.924500 3.640300
-3.911400 3.529500
-3.898300 3.309900
-3.885300 3.080900
-3.872200 2.506200
-3.859100 2.293100
-3.846100 2.179800
-3.833000 2.091600
-3.820000 2.024600
-3.806900 2.040800
-3.793800 2.078000
-3.780800 1.932700
-3.767700 1.616700
-3.754600 1.057700
-3.741600 0.525600
-3.728500 0.141100
-3.715400 0.000600
-3.702400 0.000000
-3.689300 0.000000
-3.676200 0.000000
-3.663200 0.000000
-3.650100 0.000000
-3.637100 0.000000
-3.624000 0.000000
-3.610900 0.000000
-3.597900 0.000000
-3.584800 0.000000
-3.571700 0.000000
-3.558700 0.000000
-3.545600 0.000000
-3.532500 0.000000
-3.519500 0.000000
-3.506400 0.000000
-3.493300 0.000000
-3.480300 0.000000
-3.467200 0.000000
-3.454200 0.000000
-3.441100 0.000000
-3.428000 0.000000
-3.415000 0.000000
-3.401900 0.000000
-3.388800 0.000000
-3.375800 0.000000
-3.362700 0.000000
-3.349600 0.000000
-3.336600 0.000000
-3.323500 0.000000
-3.310400 0.000000
-3.297400 0.000000
-3.284300 0.000000
-3.271300 0.000000
-3.258200 0.000000
-3.245100 0.000000
-3.232100 0.000000
-3.219000 0.000000
-3.205900 0.000000
-3.192900 0.000000
-3.179800 0.000000
-3.166700 0.000000
-3.153700 0.000000
-3.140600 0.000000
-3.127500 0.000000
-3.114500 0.000000
-3.101400 0.000000
-3.088300 0.000000
-3.075300 0.000000
-3.062200 0.000000
-3.049200 0.000000
-3.036100 0.000000
-3.023000 0.000000
-3.010000 0.000000
-2.996900 0.000000
-2.983800 0.000000
-2.970800 0.000000
-2.957700 0.000000
-2.944600 0.000000
-2.931600 0.000000
-2.918500 0.000000
-2.905400 0.000000
-2.892400 0.000000
-2.879300 0.000000
-2.866300 0.000000
-2.853200 0.000000
-2.840100 0.000000
-2.827100 0.000000
-2.814000 0.000000
-2.800900 0.000000
-2.787900 0.000000
-2.774800 0.000000
-2.761700 0.000000
-2.748700 0.000000
-2.735600 0.000000
-2.722500 0.000000
-2.709500 0.000000
-2.696400 0.000000
-2.683400 0.000000
-2.670300 0.000000
-2.657200 0.000000
-2.644200 0.000000
-2.631100 0.000000
-2.618000 0.000000
-2.605000 0.000000
-2.591900 0.000000
-2.578800 0.000000
-2.565800 0.000000
-2.552700 0.000000
-2.539600 0.000000
-2.526600 0.000000
-2.513500 0.000000
-2.500500 0.000000
-2.487400 0.000000
-2.474300 0.000000
-2.461300 0.000000
-2.448200 0.000000
-2.435100 0.000000
-2.422100 0.000000
-2.409000 0.000000
-2.395900 0.000000
-2.382900 0.000000
-2.369800 0.000000
-2.356700 0.000000
-2.343700 0.000000
-2.330600 0.000000
-2.317600 0.000000
-2.304500 0.000000
-2.291400 0.000000
-2.278400 0.000000
-2.265300 0.000000
-2.252200 0.000000
-2.239200 0.000000
-2.226100 0.000000
-2.213000 0.000000
-2.200000 0.000000
-2.186900 0.000000
-2.173800 0.000000
-2.160800 0.000000
-2.147700 0.000000
-2.134600 0.000000
-2.121600 0.000000
-2.108500 0.000000
-2.095500 0.000000
-2.082400 0.000000
-2.069300 0.000000
-2.056300 0.000000
-2.043200 0.000000
-2.030100 0.000000
-2.017100 0.000000
-2.004000 0.000000
-1.990900 0.000000
-1.977900 0.000000
-1.964800 0.000000
-1.951700 0.000000
-1.938700 0.000000
-1.925600 0.000000
-1.912600 0.000000
-1.899500 0.000000
-1.886400 0.000000
-1.873400 0.000000
-1.860300 0.000000
-1.847200 0.000000
-1.834200 0.000000
-1.821100 0.000000
-1.808000 0.000000
-1.795000 0.000000
-1.781900 0.000000
-1.768800 0.000000
-1.755800 0.000000
-1.742700 0.000000
-1.729700 0.000000
-1.716600 0.000000
-1.703500 0.000000
-1.690500 0.000000
-1.677400 0.000000
-1.664300 0.000000
-1.651300 0.000000
-1.638200 0.000000
-1.625100 0.000000
-1.612100 0.000000
-1.599000 0.000000
-1.585900 0.000000
-1.572900 0.000000
-1.559800 0.000000
-1.546800 0.000000
-1.533700 0.000000
-1.520600 0.000000
-1.507600 0.000000
-1.494500 0.000000
-1.481400 0.000000
-1.468400 0.000000
-1.455300 0.000000
-1.442200 0.000000
-1.429200 0.000000
-1.416100 0.000000
-1.403000 0.000000
-1.390000 0.000000
-1.376900 0.000000
-1.363900 0.000000
-1.350800 0.000000
-1.337700 0.000000
-1.324700 0.000000
-1.311600 0.000000
-1.298500 0.000000
-1.285500 0.000000
-1.272400 0.000000
-1.259300 0.000000
-1.246300 0.000000
-1.233200 0.000000
-1.220100 0.000000
-1.207100 0.000000
-1.194000 0.000000
-1.181000 0.000000
-1.167900 0.000000
-1.154800 0.000000
-1.141800 0.000000
-1.128700 0.000000
-1.115600 0.000000
-1.102600 0.000000
-1.089500 0.000000
-1.076400 0.000000
-1.063400 0.000000
-1.050300 0.000000
-1.037200 0.000000
-1.024200 0.000000
-1.011100 0.000000
-0.998000 0.000000
-0.985000 0.000000
-0.971900 0.000000
-0.958900 0.000000
-0.945800 0.000000
-0.932700 0.010100
-0.919700 0.249600
-0.906600 0.657700
-0.893500 1.062100
-0.880500 1.549600
-0.867400 2.128700
-0.854300 2.509400
-0.841300 2.696200
-0.828200 2.775600
-0.815100 2.786500
-0.802100 2.925000
-0.789000 3.187800
-0.776000 3.453600
-0.762900 3.695800
-0.749800 3.449200
-0.736800 2.785400
-0.723700 2.577400
-0.710600 2.462500
-0.697600 2.329200
-0.684500 2.199800
-0.671400 2.100300
-0.658400 2.232600
-0.645300 2.561800
-0.632200 2.870200
-0.619200 3.196200
-0.606100 3.486700
-0.593100 3.761200
-0.580000 4.053400
-0.566900 4.230700
-0.553900 4.540300
-0.540800 5.014900
-0.527700 5.405200
-0.514700 5.816900
-0.501600 6.278500
-0.488500 6.690200
-0.475500 7.203700
-0.462400 7.962800
-0.449300 8.661800
-0.436300 8.562800
-0.423200 7.770300
-0.410200 7.421400
-0.397100 7.137500
-0.384000 6.812100
-0.371000 6.361100
-0.357900 5.722400
-0.344800 5.285400
-0.331800 4.919100
-0.318700 4.723000
-0.305600 4.683700
-0.292600 4.643300
-0.279500 4.665900
-0.266400 4.570100
-0.253400 4.558900
-0.240300 4.591600
-0.227300 4.751900
-0.214200 4.968900
-0.201100 5.236700
-0.188100 5.584700
-0.175000 5.856100
-0.161900 6.033300
-0.148900 6.263600
-0.135800 6.588900
-0.122700 6.868500
-0.109700 7.030500
-0.096600 7.250500
-0.083500 7.396300
-0.070500 7.669300
-0.057400 7.656600
-0.044300 7.622200
-0.031300 7.459200
-0.018200 7.021200
-0.005200 6.867100
0.007900 6.831400
0.021000 6.997300
0.034000 7.291100
0.047100 7.650800
0.060200 8.591200
0.073200 8.452300
0.086300 8.042600
0.099400 7.475900
0.112400 6.696700
0.125500 6.370900
0.138600 6.318100
0.151600 6.364100
0.164700 6.264200
0.177700 6.168900
0.190800 6.320600
0.203900 6.895000
0.216900 8.008200
0.230000 9.739000
0.243100 10.834600
0.256100 11.397400
0.269200 11.179000
0.282300 11.028400
0.295300 10.734900
0.308400 11.230800
0.321500 11.768500
0.334500 10.185700
0.347600 9.924400
0.360600 9.881400
0.373700 9.850100
0.386800 9.396800
0.399800 8.195300
0.412900 7.750800
0.426000 7.396200
0.439000 7.524800
0.452100 7.491600
0.465200 7.701300
0.478200 7.823900
0.491300 7.768200
0.504400 7.629600
0.517400 7.662300
0.530500 7.824600
0.543500 7.869400
0.556600 7.636100
0.569700 7.339600
0.582700 7.091300
0.595800 6.885600
0.608900 6.877900
0.621900 6.503200
0.635000 6.205100
0.648100 6.073500
0.661100 6.072700
0.674200 6.041100
0.687300 6.156300
0.700300 6.195400
0.713400 6.198900
0.726400 6.188000
0.739500 6.090600
0.752600 6.184600
0.765600 6.309700
0.778700 6.559900
0.791800 7.154500
0.804800 7.831300
0.817900 8.598900
0.831000 9.182100
0.844000 9.718300
0.857100 10.602000
0.870200 10.267500
0.883200 9.973200
0.896300 9.514800
0.909300 9.050000
0.922400 9.015000
0.935500 9.505500
0.948500 9.972700
0.961600 9.876000
0.974700 9.912300
0.987700 9.977900
1.000800 9.822900
1.013900 9.700900
1.026900 9.676100
1.040000 9.196200
1.053100 9.209000
1.066100 8.826300
1.079200 8.210500
1.092300 7.474800
1.105300 7.054500
1.118400 6.932800
1.131400 6.919700
1.144500 6.991500
1.157600 6.746800
1.170600 6.546200
1.183700 6.169400
1.196800 6.034100
1.209800 5.969400
1.222900 5.982800
1.236000 6.002600
1.249000 6.150900
1.262100 6.381400
1.275200 6.566100
1.288200 6.690300
1.301300 6.824700
1.314300 7.019100
1.327400 7.218900
1.340500 7.471700
1.353500 7.784700
1.366600 8.182500
1.379700 8.593100
1.392700 8.863200
1.405800 8.861700
1.418900 8.749200
1.431900 8.688500
1.445000 8.532300
1.458100 7.910600
1.471100 7.604500
1.484200 7.311200
1.497200 7.239400
1.510300 7.277800
1.523400 7.359900
1.536400 7.534700
1.549500 7.722300
1.562600 7.727200
1.575600 7.440500
1.588700 7.480600
1.601800 7.561100
1.614800 7.595000
1.627900 7.982600
1.641000 8.148800
1.654000 8.281300
1.667100 8.450900
1.680100 8.974900
1.693200 10.306800
1.706300 10.298400
1.719300 10.387300
1.732400 11.037800
1.745500 11.997400
1.758500 12.424400
1.771600 11.262600
1.784700 10.599800
1.797700 10.125900
1.810800 9.996900
1.823900 9.827500
1.836900 9.640600
1.850000 9.858600
1.863000 10.451400
1.876100 10.817000
1.889200 10.701300
1.902200 10.490700
1.915300 10.408000
1.928400 10.169500
1.941400 9.841700
1.954500 9.937000
1.967600 9.855400
1.980600 9.536100
1.993700 8.684800
2.006800 8.313600
2.019800 8.024500
2.032900 7.865300
2.046000 7.835700
2.059000 7.836200
2.072100 8.027800
2.085100 8.683400
2.098200 9.072400
2.111300 9.159900
2.124300 9.587800
2.137400 9.731600
2.150500 10.121100
2.163500 10.241000
2.176600 10.748200
2.189700 11.341700
2.202700 10.863300
2.215800 9.871300
2.228900 9.215500
2.241900 8.739700
2.255000 8.778100
2.268000 9.689300
2.281100 10.760000
2.294200 11.814200
2.307200 11.521700
2.320300 11.558300
2.333400 11.789800
2.346400 11.497500
2.359500 11.187400
2.372600 10.600800
2.385600 9.827900
2.398700 9.262900
2.411800 8.871200
2.424800 9.041800
2.437900 8.987600
2.450900 9.399400
2.464000 9.362800
2.477100 9.548500
2.490100 10.324900
2.503200 11.316400
2.516300 11.502100
2.529300 11.572800
2.542400 11.398300
2.555500 11.474700
2.568500 11.122700
2.581600 10.751200
2.594700 10.035200
2.607700 9.712500
2.620800 9.930700
2.633800 10.214500
2.646900 10.194900
2.660000 10.331500
2.673000 10.102100
2.686100 9.986700
2.699200 10.129700
2.712200 10.481400
2.725300 10.414600
2.738400 10.433800
2.751400 10.407800
2.764500 10.224900
2.777600 9.183500
2.790600 8.437600
2.803700 7.812400
2.816700 7.454500
2.829800 7.420700
2.842900 7.529000
2.855900 7.930200
2.869000 8.856500
2.882100 9.730600
2.895100 10.465100
2.908200 11.075300
2.921300 10.542700
2.934300 9.993800
2.947400 9.861600
2.960500 9.926300
2.973500 10.053900
2.986600 10.788400
2.999600 11.274600
3.012700 11.509200
3.025800 11.871500
3.038800 12.402500
3.051900 11.646100
3.065000 11.278400
3.078000 11.315100
3.091100 10.715100
3.104200 10.465500
3.117200 9.822700
3.130300 9.439700
3.143400 9.214700
3.156400 8.974700
3.169500 8.996200
3.182600 9.812900
3.195600 10.734000
3.208700 11.669700
3.221700 11.400400
3.234800 10.278800
3.247900 9.893900
3.260900 9.661700
3.274000 8.779200
3.287100 8.021200
3.300100 7.743500
3.313200 7.438500
3.326300 7.899600
3.339300 8.646500
3.352400 9.251100
3.365500 9.030100
3.378500 8.776800
3.391600 8.398300
3.404600 8.089000
3.417700 7.808700
3.430800 7.776300
3.443800 7.571000
3.456900 7.202300
3.470000 6.942900
3.483000 6.702500
3.496100 7.519900
3.509200 5.855000
3.522200 5.764100
3.535300 5.325900
3.548400 4.607400
3.561400 3.980000
3.574500 3.878500
3.587500 3.882500
3.600600 3.945200
3.613700 3.888300
3.626700 3.712300
3.639800 3.640200
3.652900 3.838400
3.665900 4.105200
3.679000 4.332200
3.692100 4.642900
3.705100 5.255300
3.718200 5.822500
3.731300 6.562200
3.744300 7.750100
3.757400 9.481400
3.770400 11.515100
3.783500 13.495100
3.796600 13.388800
3.809600 11.520700
3.822700 10.591100
3.835800 9.357000
3.848800 9.797700
3.861900 11.098200
3.875000 11.749100
3.888000 11.642800
3.901100 11.242000
3.914200 11.000600
3.927200 11.093900
3.940300 10.840600
3.953300 10.601700
3.966400 8.755600
3.979500 8.467800
3.992500 8.876600
4.005600 9.351600
4.018700 10.367500
4.031700 9.913600
4.044800 10.189300
4.057900 10.581600
4.070900 10.724800
4.084000 10.783200
4.097100 10.027700
4.110100 11.054500
4.123200 11.017000
4.136300 12.131200
4.149300 12.341800
4.162400 14.037400
4.175400 11.362900
4.188500 11.076200
4.201600 10.550200
4.214600 10.064900
4.227700 9.835600
4.240800 9.307200
4.253800 9.009800
4.266900 8.332500
4.280000 8.030900
4.293000 8.177100
4.306100 8.516200
4.319200 8.834900
4.332200 8.970100
4.345300 8.895000
4.358300 8.415700
4.371400 6.915000
4.384500 6.379200
4.397500 5.967200
4.410600 5.580300
4.423700 5.357900
4.436700 4.992200
4.449800 4.558600
4.462900 4.065200
4.475900 3.633800
4.489000 3.252800
4.502100 2.999700
4.515100 2.775800
4.528200 2.354600
4.541200 1.701100
4.554300 1.277200
4.567400 1.169500
4.580400 0.776200
4.593500 0.499600
4.606600 0.307900
4.619600 0.110700
4.632700 0.004700
4.645800 0.000000
4.658800 0.000000
4.671900 0.000000
4.685000 0.000000
4.698000 0.000000
4.711100 0.000000
4.724100 0.000000
4.737200 0.000000
4.750300 0.000000
4.763300 0.000000
4.776400 0.000000
4.789500 0.000000
4.802500 0.000000
4.815600 0.000000
4.828700 0.000000
4.841700 0.000000
4.854800 0.000000
4.867900 0.000000
4.880900 0.000000
4.894000 0.000000
4.907000 0.000000
4.920100 0.000000
4.933200 0.000000
4.946200 0.000000
4.959300 0.000000
4.972400 0.000000
4.985400 0.000000
4.998500 0.000000
5.011600 0.000000
5.024600 0.000000
5.037700 0.000000
5.050800 0.000000
5.063800 0.000000
5.076900 0.000000
5.090000 0.000000
5.103000 0.000000
5.116100 0.000000
5.129100 0.000000
5.142200 0.000000
5.155300 0.000000
5.168300 0.000000
5.181400 0.000000
5.194500 0.000000
5.207500 0.000000
5.220600 0.000000
5.233700 0.000000
5.246700 0.000000
5.259800 0.000000
5.272900 0.000000
5.285900 0.000000
5.299000 0.000000
5.312000 0.000000
5.325100 0.000000
5.338200 0.000000
5.351200 0.000000
5.364300 0.000000
5.377400 0.000000
5.390400 0.000000
5.403500 0.000000
5.416600 0.000000
5.429600 0.000000
5.442700 0.000000
5.455800 0.000000
5.468800 0.000000
5.481900 0.000000
5.494900 0.000000
5.508000 0.000000
5.521100 0.000000
5.534100 0.000000
5.547200 0.000000
5.560300 0.000000
5.573300 0.000000
5.586400 0.000000
5.599500 0.000000
5.612500 0.000000
5.625600 0.000000
5.638700 0.000000
5.651700 0.000000
5.664800 0.000000
5.677800 0.000000
5.690900 0.000000
5.704000 0.000000
5.717000 0.000100
5.730100 0.009600
5.743200 0.035500
5.756200 0.077900
5.769300 0.197300
5.782400 0.350800
5.795400 0.447300
5.808500 0.552800
5.821600 0.687100
5.834600 0.859100
5.847700 1.066200
5.860700 1.261000
5.873800 1.365800
5.886900 1.455100
5.899900 1.526200
5.913000 1.576900
5.926100 1.655200
5.939100 1.788100
5.952200 1.955800
5.965300 2.207200
5.978300 2.426200
5.991400 2.595600
6.004500 2.778700
6.017500 3.074900
6.030600 3.288000
6.043600 3.454900
6.056700 3.988700
6.069800 4.249400
6.082800 4.337200
6.095900 4.091000
6.109000 3.934200
6.122000 3.865400
6.135100 3.742200
6.148200 3.633400
6.161200 3.553700
6.174300 3.496200
6.187400 3.674000
6.200400 3.539600
6.213500 3.599200
6.226600 3.606100
6.239600 3.765000
6.252700 3.932200
6.265700 4.080500
6.278800 4.321300
6.291900 4.711700
6.304900 4.817300
6.318000 5.083400
6.331100 5.300300
6.344100 5.693300
6.357200 6.423900
6.370300 6.873700
6.383300 7.176900
6.396400 7.402800
6.409500 7.319700
6.422500 7.170200
6.435600 7.033700
6.448600 6.904300
6.461700 6.774000
6.474800 6.598700
6.487800 5.950500
6.500900 5.463700
6.514000 5.373400
6.527000 5.490500
6.540100 5.569000
6.553200 5.774700
6.566200 5.819000
6.579300 5.819600
6.592400 6.161900
6.605400 6.419600
6.618500 6.858100
6.631500 7.472500
6.644600 7.608400
6.657700 7.611700
6.670700 7.461900
6.683800 7.153100
6.696900 6.798300
6.709900 6.602400
6.723000 6.562700
6.736100 6.449200
6.749100 6.625400
6.762200 7.015500
6.775300 7.508500
6.788300 7.929400
6.801400 8.362900
6.814400 9.395500
6.827500 8.983900
6.840600 8.801000
6.853600 8.788200
6.866700 8.153000
6.879800 7.871700
6.892800 7.717500
6.905900 7.655500
6.919000 7.600600
6.932000 7.173200
6.945100 6.983600
6.958200 6.858700
6.971200 6.827400
6.984300 6.871200
6.997300 7.157900
7.010400 7.504100
7.023500 7.906200
7.036500 8.650300
7.049600 9.126400
7.062700 9.489500
7.075700 9.663800
7.088800 9.943700
7.101900 10.293500
7.114900 10.694400
7.128000 11.029100
7.141100 11.314800
7.154100 11.233800
7.167200 11.717500
7.180300 11.781100
7.193300 11.413600
7.206400 10.945800
7.219400 10.383000
7.232500 10.249500
7.245600 10.142100
7.258600 10.140700
7.271700 10.188700
7.284800 10.001100
7.297800 10.212200
7.310900 10.817400
7.324000 11.915400
7.337000 14.005800
7.350100 14.993900
7.363200 12.957000
7.376200 12.196900
7.389300 11.760900
7.402300 11.503700
7.415400 11.422400
7.428500 10.813500
7.441500 10.886900
7.454600 11.601100
7.467700 12.323500
7.480700 12.239800
7.493800 12.136200
7.506900 11.845400
7.519900 11.712500
7.533000 11.386800
7.546100 10.905100
7.559100 10.349300
7.572200 9.502800
7.585200 9.341000
7.598300 9.641600
7.611400 9.235900
7.624400 9.067800
7.637500 8.964300
7.650600 9.579200
7.663600 9.419100
7.676700 9.315100
7.689800 9.192000
7.702800 9.444400
7.715900 9.441200
7.729000 9.034200
7.742000 8.555400
7.755100 8.473000
7.768100 8.864400
7.781200 9.326800
7.794300 10.042000
7.807300 10.470800
7.820400 11.108300
7.833500 11.541500
7.846500 11.681900
7.859600 11.725700
7.872700 11.428800
7.885700 10.987900
7.898800 11.478900
7.911900 11.214700
7.924900 11.031200
7.938000 10.934600
7.951000 10.942000
7.964100 12.199200
7.977200 12.627800
7.990200 13.117500
8.003300 13.014800
8.016400 12.557900
8.029400 12.260800
8.042500 13.793800
8.055600 15.697800
8.068600 15.494200
8.081700 14.222700
8.094800 11.718700
8.107800 10.197900
8.120900 10.525800
8.133900 12.443200
8.147000 13.017700
8.160100 13.563800
8.173100 13.793100
8.186200 12.678600
8.199300 12.260400
8.212300 12.034900
8.225400 11.314500
8.238500 10.985600
8.251500 10.931300
8.264600 10.897000
8.277700 11.139700
8.290700 11.808000
8.303800 12.559100
8.316900 12.862600
8.329900 12.875400
8.343000 12.478300
8.356000 12.935100
8.369100 12.561200
8.382200 12.066900
8.395200 11.207000
8.408300 10.858800
8.421400 10.218100
8.434400 9.764800
8.447500 8.791000
8.460600 8.476900
8.473600 8.636400
8.486700 8.752600
8.499800 9.119400
8.512800 9.049000
8.525900 8.882100
8.538900 8.943400
8.552000 9.175500
8.565100 9.564400
8.578100 9.772600
8.591200 9.773000
8.604300 9.974600
8.617300 9.727700
8.630400 9.391500
8.643500 9.073100
8.656500 8.904400
8.669600 8.669300
8.682700 8.612000
8.695700 9.096600
8.708800 9.585900
8.721800 9.817300
8.734900 10.714900
8.748000 11.170900
8.761000 8.088900
8.774100 7.651600
8.787200 7.713500
8.800200 8.045000
8.813300 8.218100
8.826400 8.303100
8.839400 8.051100
8.852500 8.062500
8.865600 8.567200
8.878600 8.505400
8.891700 8.241500
8.904700 7.989300
8.917800 7.446400
8.930900 6.751800
8.943900 6.105100
8.957000 4.877500
8.970100 3.961300
8.983100 3.641500
8.996200 3.338300
9.009300 3.181100
9.022300 3.064200
9.035400 2.994800
9.048500 2.943400
9.061500 2.892100
9.074600 2.846500
9.087600 2.844500
9.100700 2.813600
9.113800 2.760400
9.126800 2.714300
9.139900 2.722100
9.153000 2.768800
9.166000 2.737100
9.179100 2.595800
9.192200 2.445000
9.205200 2.307000
9.218300 2.219200
9.231400 2.151500
9.244400 2.086900
9.257500 2.009900
9.270600 1.932500
9.283600 1.849800
9.296700 1.767100
9.309700 1.688900
9.322800 1.623500
9.335900 1.574400
9.348900 1.550000
9.362000 1.597600
9.375100 1.695800
9.388100 1.565000
9.401200 1.283400
9.414300 0.930900
9.427300 0.734600
9.440400 0.513500
9.453500 0.234300
9.466500 0.044500
9.479600 0.001300
9.492600 0.000000
9.505700 0.000000
9.518800 0.000000
9.531800 0.029700
9.544900 0.060900
9.558000 0.090900
9.571000 0.119800
9.584100 0.146800
9.597200 0.171600
9.610200 0.194100
9.623300 0.210800
9.636400 0.219000
9.649400 0.227200
9.662500 0.240800
9.675500 0.256300
9.688600 0.273500
9.701700 0.291300
9.714700 0.309500
9.727800 0.327900
9.740900 0.346300
9.753900 0.364600
9.767000 0.379200
9.780100 0.392800
9.793100 0.407200
9.806200 0.422900
9.819300 0.438400
9.832300 0.453700
9.845400 0.469500
9.858400 0.485800
9.871500 0.502100
9.884600 0.526000
9.897600 0.547500
9.910700 0.568100
9.923800 0.589500
9.936800 0.612300
9.949900 0.635700
9.963000 0.659800
9.976000 0.684400
9.989100 0.711100
10.002200 0.742500
10.015200 0.777400
10.028300 0.815100
10.041300 0.858500
10.054400 0.873700
10.067500 0.884300
10.080500 0.897800
10.093600 0.912600
10.106700 0.924700
10.119700 0.957700
10.132800 1.028200
10.145900 1.095400
10.158900 1.164400
10.172000 1.236800
10.185100 1.328000
10.198100 1.445500
10.211200 1.564100
10.224200 1.656800
10.237300 1.737000
10.250400 1.801100
10.263400 1.842100
10.276500 1.851700
10.289600 1.847600
10.302600 1.881000
10.315700 1.928600
10.328800 1.962600
10.341800 1.982300
10.354900 2.017300
10.368000 2.029100
10.381000 1.946800
10.394100 1.867300
10.407200 1.793100
10.420200 1.730800
10.433300 1.718000
10.446300 1.720400
10.459400 1.721700
10.472500 1.720200
10.485500 1.704300
10.498600 1.689900
10.511700 1.679600
10.524700 1.673700
10.537800 1.671700
10.550900 1.670000
10.563900 1.667200
10.577000 1.662300
10.590100 1.649100
10.603100 1.641400
10.616200 1.653500
10.629200 1.675600
10.642300 1.706600
10.655400 1.746600
10.668400 1.792400
10.681500 1.841600
10.694600 1.905500
10.707600 1.961600
10.720700 2.226600
10.733800 2.583700
10.746800 2.943800
10.759900 3.085700
10.773000 3.248900
10.786000 3.570000
10.799100 3.912100
10.812100 4.177000
10.825200 4.280900
10.838300 4.337400
10.851300 4.425500
10.864400 4.516600
10.877500 4.658400
10.890500 4.814800
10.903600 4.796900
10.916700 4.702700
10.929700 4.661100
10.942800 4.741200
10.955900 4.797700
10.968900 4.861200
10.982000 4.892200
10.995000 4.909400
11.008100 4.866900
11.021200 4.532600
11.034200 4.399200
11.047300 4.351300
11.060400 4.356500
11.073400 4.303400
11.086500 4.187600
11.099600 4.067300
11.112600 3.952300
11.125700 3.810500
11.138800 3.598000
11.151800 3.377600
11.164900 3.233600
11.177900 3.169900
11.191000 3.167900
11.204100 3.476200
11.217100 3.930100
11.230200 4.542800
11.243300 5.095900
11.256300 5.745600
11.269400 7.220300
11.282500 8.753400
11.295500 9.851200
11.308600 10.486600
11.321700 10.100200
11.334700 9.454400
11.347800 8.790300
11.360900 8.458300
11.373900 8.048300
11.387000 7.521200
11.400000 7.074300
11.413100 7.432500
11.426200 8.306500
11.439200 8.304200
11.452300 7.942500
11.465400 8.054500
11.478400 8.319000
11.491500 8.697500
11.504600 8.480700
11.517600 8.243000
11.530700 8.235300
11.543800 8.200200
11.556800 8.092000
11.569900 7.723200
11.582900 7.577900
11.596000 7.793400
11.609100 8.451000
11.622100 7.594800
11.635200 7.787600
11.648300 7.476700
11.661300 7.353000
11.674400 7.250900
11.687500 7.117800
11.700500 7.078600
11.713600 7.267300
11.726700 7.655500
11.739700 7.994100
11.752800 8.109300
11.765800 8.543000
11.778900 8.327700
11.792000 7.805600
11.805000 7.721800
11.818100 7.664100
11.831200 7.615000
11.844200 7.951400
11.857300 8.315200
11.870400 8.678100
11.883400 8.222300
11.896500 7.560500
11.909600 6.531800
11.922600 6.116800
11.935700 5.778300
11.948700 5.747100
11.961800 6.077000
11.974900 6.009400
11.987900 5.916400
12.001000 5.796400
12.014100 5.687100
12.027100 5.569100
12.040200 5.529100
12.053300 5.520700
12.066300 5.522400
12.079400 5.798100
12.092500 5.930400
12.105500 5.846400
12.118600 5.926100
12.131600 5.872300
12.144700 5.959300
12.157800 6.078800
12.170800 6.389100
12.183900 6.848500
12.197000 7.620900
12.210000 8.028800
12.223100 8.649700
12.236200 9.101200
12.249200 9.514600
12.262300 9.635500
12.275400 9.200000
12.288400 8.857100
12.301500 8.723900
12.314500 8.729700
12.327600 8.709100
12.340700 9.597100
12.353700 9.762800
12.366800 9.465100
12.379900 9.126300
12.392900 8.777200
12.406000 8.536000
12.419100 8.339500
12.432100 8.203000
12.445200 8.067700
12.458300 8.013300
12.471300 8.345000
12.484400 8.048700
12.497500 7.892500
12.510500 7.801600
12.523600 7.484900
12.536600 7.430500
12.549700 7.520300
12.562800 7.500400
12.575800 7.521600
12.588900 7.466100
12.602000 7.140200
12.615000 6.807200
12.628100 6.493400
12.641200 6.177500
12.654200 5.883100
12.667300 5.520300
12.680400 5.135900
12.693400 4.789200
12.706500 4.451600
12.719500 4.146200
12.732600 3.945400
12.745700 3.790200
12.758700 3.616600
12.771800 3.450800
12.784900 3.303900
12.797900 3.224600
12.811000 3.096100
12.824100 2.806800
12.837100 2.657000
12.850200 2.553100
12.863300 2.458900
12.876300 2.383000
12.889400 2.322400
12.902400 2.266400
12.915500 2.176000
12.928600 2.184900
12.941600 2.288800
12.954700 2.395800
12.967800 2.538300
12.980800 2.546200
12.993900 2.549500
13.007000 2.619300
13.020000 2.673900
13.033100 2.731400
13.046200 2.992600
13.059200 2.626800
13.072300 2.207400
13.085300 1.956200
13.098400 1.799000
13.111500 1.690500
13.124500 1.604200
13.137600 1.551500
13.150700 1.552500
13.163700 1.635300
13.176800 1.624700
13.189900 1.994600
13.202900 2.148500
13.216000 1.579300
13.229100 1.497100
13.242100 1.468200
13.255200 1.510800
13.268200 1.486700
13.281300 1.408800
13.294400 1.295200
13.307400 1.135200
13.320500 0.973800
13.333600 0.834000
13.346600 0.666700
13.359700 0.496800
13.372800 0.337400
13.385800 0.191100
13.398900 0.083500
13.412000 0.002600
13.425000 0.000000
13.438100 0.000000
13.451200 0.000000
13.464200 0.000000
13.477300 0.000000
13.490300 0.000000
13.503400 0.000000
13.516500 0.000000
13.529500 0.000000
13.542600 0.000000
13.555700 0.000000
13.568700 0.000000
13.581800 0.000000
13.594900 0.000000
13.607900 0.000000
13.621000 0.000000
13.634100 0.000000
13.647100 0.000000
13.660200 0.000000
13.673200 0.000000
13.686300 0.000000
13.699400 0.000000
13.712400 0.000000
13.725500 0.000000
13.738600 0.000000
13.751600 0.000000
13.764700 0.000000
13.777800 0.000000
13.790800 0.000000
13.803900 0.000000
13.817000 0.000000
13.830000 0.000000
13.843100 0.000000
13.856100 0.000000
13.869200 0.000000
13.882300 0.000000
13.895300 0.000000
13.908400 0.000000
13.921500 0.000000
13.934500 0.000000
13.947600 0.000000
13.960700 0.000000
13.973700 0.000000
13.986800 0.000000
13.999900 0.000000
14.012900 0.000000
14.026000 0.000000
14.039000 0.000000
14.052100 0.000000
14.065200 0.000000
14.078200 0.000000
14.091300 0.000000
14.104400 0.000000
14.117400 0.000000
14.130500 0.000000
14.143600 0.000000
14.156600 0.000000
14.169700 0.000000
14.182800 0.000000
14.195800 0.000000
14.208900 0.000000
14.221900 0.000000
14.235000 0.000000
14.248100 0.000000
14.261100 0.000000
14.274200 0.000000
14.287300 0.000000
14.300300 0.000000
14.313400 0.000000
14.326500 0.000000
14.339500 0.000000
14.352600 0.000000
14.365700 0.000000
14.378700 0.000000
14.391800 0.000000
14.404900 0.000000
14.417900 0.000000
14.431000 0.000000
14.444000 0.000000
14.457100 0.000000
14.470200 0.000000
14.483200 0.000000
14.496300 0.000000
14.509400 0.000000
14.522400 0.000000
14.535500 0.000000
14.548600 0.000000
14.561600 0.000000
14.574700 0.000000
14.587800 0.000000
14.600800 0.000000
e
