set title 'mp-10 - Density of States'
set xlabel 'Energy (eV)'
set ylabel 'DOS (states/eV)'
set grid
set xrange [-10:10]
set yrange [0:0.751]
set xzeroaxis lt -1
set terminal png size 800,600
set output 'mp-10_dos_gnuplot.png'
plot '-' using 1:2 with lines title 'DOS'
-14.339700 0.000000
-14.281600 0.000000
-14.223600 0.000000
-14.165500 0.000000
-14.107500 0.000000
-14.049400 0.000000
-13.991300 0.000000
-13.933300 0.000000
-13.875200 0.000000
-13.817200 0.000000
-13.759100 0.000000
-13.701100 0.000000
-13.643000 0.000000
-13.585000 0.000000
-13.526900 0.000000
-13.468800 0.000000
-13.410800 0.000000
-13.352700 0.000000
-13.294700 0.000000
-13.236600 0.000000
-13.178600 0.000000
-13.120500 0.000000
-13.062400 0.000000
-13.004400 0.000000
-12.946300 0.000000
-12.888300 0.000000
-12.830200 0.000000
-12.772200 0.000000
-12.714100 0.000000
-12.656100 0.000000
-12.598000 0.000000
-12.539900 0.000000
-12.481900 0.000000
-12.423800 0.000000
-12.365800 0.000000
-12.307700 0.000000
-12.249700 0.000000
-12.191600 0.000000
-12.133500 0.000000
-12.075500 0.000000
-12.017400 0.000000
-11.959400 0.000000
-11.901300 0.000000
-11.843300 0.000000
-11.785200 0.000000
-11.727200 0.000000
-11.669100 0.000000
-11.611000 0.000000
-11.553000 0.000000
-11.494900 0.000000
-11.436900 0.000000
-11.378800 0.000000
-11.320800 0.000000
-11.262700 0.000000
-11.204600 0.000000
-11.146600 0.000000
-11.088500 0.000000
-11.030500 0.000000
-10.972400 0.000000
-10.914400 0.000000
-10.856300 0.000000
-10.798200 0.000000
-10.740200 0.000000
-10.682100 0.000000
-10.624100 0.000000
-10.566000 0.000000
-10.508000 0.000000
-10.449900 0.000000
-10.391900 0.000000
-10.333800 0.000000
-10.275700 0.000000
-10.217700 0.000000
-10.159600 0.000000
-10.101600 0.000000
-10.043500 0.000000
-9.985500 0.000000
-9.927400 0.000000
-9.869300 0.000000
-9.811300 0.000000
-9.753200 0.000000
-9.695200 0.000000
-9.637100 0.000000
-9.579100 0.000000
-9.521000 0.000000
-9.463000 0.000000
-9.404900 0.000000
-9.346800 0.000000
-9.288800 0.000000
-9.230700 0.000000
-9.172700 0.000000
-9.114600 0.000000
-9.056600 0.020600
-8.998500 0.044600
-8.940400 0.062200
-8.882400 0.073200
-8.824300 0.082600
-8.766300 0.095900
-8.708200 0.104500
-8.650200 0.110700
-8.592100 0.116900
-8.534100 0.124900
-8.476000 0.133600
-8.417900 0.142400
-8.359900 0.146800
-8.301800 0.151600
-8.243800 0.157500
-8.185700 0.163700
-8.127700 0.170000
-8.069600 0.176300
-8.011500 0.183200
-7.953500 0.188200
-7.895400 0.193000
-7.837400 0.198000
-7.779300 0.203300
-7.721300 0.208700
-7.663200 0.214200
-7.605100 0.220000
-7.547100 0.226100
-7.489000 0.231700
-7.431000 0.236900
-7.372900 0.242100
-7.314900 0.247500
-7.256800 0.253000
-7.198800 0.258700
-7.140700 0.264500
-7.082600 0.270400
-7.024600 0.276400
-6.966500 0.282800
-6.908500 0.289600
-6.850400 0.296600
-6.792400 0.303800
-6.734300 0.311000
-6.676200 0.318300
-6.618200 0.325800
-6.560100 0.333300
-6.502100 0.340800
-6.444000 0.352600
-6.386000 0.366900
-6.327900 0.382100
-6.269900 0.396600
-6.211800 0.411300
-6.153700 0.426600
-6.095700 0.475900
-6.037600 0.489200
-5.979600 0.468800
-5.921500 0.464600
-5.863500 0.464200
-5.805400 0.456400
-5.747300 0.449900
-5.689300 0.444300
-5.631200 0.441400
-5.573200 0.438000
-5.515100 0.434200
-5.457100 0.426300
-5.399000 0.420800
-5.341000 0.416300
-5.282900 0.412300
-5.224800 0.408200
-5.166800 0.403900
-5.108700 0.399900
-5.050700 0.393800
-4.992600 0.388600
-4.934600 0.383800
-4.876500 0.379700
-4.818400 0.375400
-4.760400 0.371200
-4.702300 0.367200
-4.644300 0.363100
-4.586200 0.358900
-4.528200 0.353600
-4.470100 0.348800
-4.412000 0.344400
-4.354000 0.340200
-4.295900 0.335900
-4.237900 0.331800
-4.179800 0.327700
-4.121800 0.323700
-4.063700 0.319600
-4.005700 0.315500
-3.947600 0.311700
-3.889500 0.307400
-3.831500 0.302800
-3.773400 0.298400
-3.715400 0.294100
-3.657300 0.289900
-3.599300 0.285600
-3.541200 0.281300
-3.483100 0.277000
-3.425100 0.277600
-3.367000 0.274100
-3.309000 0.268100
-3.250900 0.261100
-3.192900 0.253400
-3.134800 0.245000
-3.076800 0.237800
-3.018700 0.219800
-2.960600 0.197200
-2.902600 0.186900
-2.844500 0.177000
-2.786500 0.167400
-2.728400 0.156600
-2.670400 0.149600
-2.612300 0.142900
-2.554200 0.136300
-2.496200 0.130100
-2.438100 0.124000
-2.380100 0.117400
-2.322000 0.112500
-2.264000 0.107800
-2.205900 0.103100
-2.147900 0.098700
-2.089800 0.094300
-2.031700 0.090100
-1.973700 0.085500
-1.915600 0.082000
-1.857600 0.078500
-1.799500 0.075000
-1.741500 0.071800
-1.683400 0.068600
-1.625300 0.065500
-1.567300 0.062500
-1.509200 0.059600
-1.451200 0.056400
-1.393100 0.053900
-1.335100 0.051400
-1.277000 0.048900
-1.219000 0.046500
-1.160900 0.044300
-1.102800 0.042100
-1.044800 0.039900
-0.986700 0.093200
-0.928700 0.125100
-0.870600 0.125900
-0.812600 0.136300
-0.754500 0.151600
-0.696400 0.162200
-0.638400 0.172000
-0.580300 0.182500
-0.522300 0.195800
-0.464200 0.209600
-0.406200 0.220400
-0.348100 0.223600
-0.290000 0.229400
-0.232000 0.237700
-0.173900 0.244900
-0.115900 0.252000
-0.057800 0.260200
0.000200 0.266900
0.058300 0.273900
0.116300 0.281400
0.174400 0.289200
0.232500 0.294100
0.290500 0.304000
0.348600 0.314200
0.406600 0.324600
0.464700 0.334400
0.522700 0.344600
0.580800 0.354000
0.638900 0.363300
0.696900 0.372800
0.755000 0.382600
0.813000 0.392500
0.871100 0.403900
0.929100 0.416200
0.987200 0.428900
1.045200 0.441700
1.103300 0.454900
1.161400 0.468500
1.219400 0.482400
1.277500 0.524100
1.335500 0.558200
1.393600 0.583100
1.451600 0.612900
1.509700 0.628800
1.567800 0.653400
1.625800 0.629800
1.683900 0.623400
1.741900 0.613900
1.800000 0.606500
1.858000 0.603500
1.916100 0.603400
1.974100 0.615400
2.032200 0.633700
2.090300 0.654400
2.148300 0.631600
2.206400 0.614800
2.264400 0.606400
2.322500 0.600100
2.380500 0.594400
2.438600 0.589600
2.496700 0.587700
2.554700 0.587000
2.612800 0.585700
2.670800 0.584800
2.728900 0.589700
2.786900 0.612300
2.845000 0.629600
2.903100 0.622900
2.961100 0.610200
3.019200 0.599500
3.077200 0.594500
3.135300 0.587800
3.193300 0.582300
3.251400 0.580300
3.309400 0.578300
3.367500 0.574900
3.425600 0.572200
3.483600 0.565900
3.541700 0.560500
3.599700 0.558400
3.657800 0.581800
3.715800 0.584800
3.773900 0.590100
3.832000 0.585900
3.890000 0.580900
3.948100 0.552300
4.006100 0.529900
4.064200 0.514800
4.122200 0.512800
4.180300 0.508500
4.238300 0.498100
4.296400 0.485300
4.354500 0.476800
4.412500 0.497700
4.470600 0.479900
4.528600 0.465300
4.586700 0.466100
4.644700 0.472800
4.702800 0.468900
4.760900 0.447900
4.818900 0.440600
4.877000 0.438300
4.935000 0.436500
4.993100 0.438400
5.051100 0.449300
5.109200 0.482600
5.167200 0.492400
5.225300 0.474100
5.283400 0.445100
5.341400 0.431000
5.399500 0.470800
5.457500 0.417800
5.515600 0.409100
5.573600 0.408300
5.631700 0.410300
5.689800 0.418800
5.747800 0.424100
5.805900 0.440800
5.863900 0.437400
5.922000 0.440100
5.980000 0.442800
6.038100 0.446100
6.096200 0.455400
6.154200 0.434500
6.212300 0.434200
6.270300 0.428400
6.328400 0.437300
6.386400 0.407600
6.444500 0.406800
6.502500 0.406200
6.560600 0.492100
6.618700 0.425100
6.676700 0.412600
6.734800 0.409700
6.792800 0.411600
6.850900 0.414800
6.908900 0.408600
6.967000 0.414400
7.025100 0.439600
7.083100 0.476500
7.141200 0.463100
7.199200 0.420200
7.257300 0.419500
7.315300 0.420500
7.373400 0.413400
7.431400 0.412000
7.489500 0.414700
7.547600 0.420200
7.605600 0.404800
7.663700 0.414600
7.721700 0.416400
7.779800 0.410300
7.837800 0.410800
7.895900 0.411300
7.954000 0.411800
8.012000 0.412700
8.070100 0.449200
8.128100 0.416300
8.186200 0.416800
8.244200 0.425300
8.302300 0.443600
8.360300 0.511800
8.418400 0.475000
8.476500 0.469000
8.534500 0.476800
8.592600 0.486800
8.650600 0.506900
8.708700 0.524500
8.766700 0.526800
8.824800 0.533700
8.882900 0.543500
8.940900 0.552900
8.999000 0.547700
9.057000 0.544300
9.115100 0.552200
9.173100 0.568300
9.231200 0.582400
9.289300 0.581300
9.347300 0.600800
9.405400 0.602800
9.463400 0.643700
9.521500 0.656600
9.579500 0.651600
9.637600 0.682500
9.695600 0.670000
9.753700 0.669800
9.811800 0.666700
9.869800 0.659800
9.927900 0.658400
9.985900 0.659700
10.044000 0.661100
10.102000 0.661000
10.160100 0.662400
10.218200 0.668300
10.276200 0.672100
10.334300 0.652000
10.392300 0.653200
10.450400 0.642300
10.508400 0.645300
10.566500 0.652900
10.624500 0.658400
10.682600 0.668000
10.740700 0.683500
10.798700 0.684900
10.856800 0.681200
10.914800 0.682800
10.972900 0.696400
11.030900 0.703300
11.089000 0.712300
11.147100 0.737200
11.205100 0.748800
11.263200 0.739400
11.321200 0.724000
11.379300 0.694800
11.437300 0.686000
11.495400 0.652200
11.553400 0.636700
11.611500 0.680900
11.669600 0.587200
11.727600 0.570700
11.785700 0.553500
11.843700 0.549100
11.901800 0.551300
11.959800 0.536700
12.017900 0.498100
12.076000 0.497100
12.134000 0.473300
12.192100 0.457500
12.250100 0.377700
12.308200 0.387200
12.366200 0.428500
12.424300 0.473600
12.482400 0.502400
12.540400 0.510100
12.598500 0.516200
12.656500 0.514300
12.714600 0.493300
12.772600 0.465100
12.830700 0.443400
12.888700 0.428700
12.946800 0.421800
13.004900 0.415800
13.062900 0.417500
13.121000 0.423100
13.179000 0.403200
13.237100 0.395300
13.295100 0.387300
13.353200 0.382200
13.411300 0.385900
13.469300 0.373600
13.527400 0.362000
13.585400 0.328200
13.643500 0.329300
13.701500 0.330200
13.759600 0.330300
13.817600 0.330400
13.875700 0.334300
13.933800 0.345900
13.991800 0.341400
14.049900 0.342700
14.107900 0.343800
14.166000 0.344700
14.224000 0.346100
14.282100 0.371600
14.340200 0.391700
14.398200 0.378600
14.456300 0.381500
14.514300 0.388100
14.572400 0.391300
14.630400 0.396500
14.688500 0.401900
14.746500 0.407400
14.804600 0.413000
14.862700 0.417800
14.920700 0.423600
14.978800 0.429600
15.036800 0.436000
15.094900 0.446100
15.152900 0.454700
15.211000 0.461900
15.269100 0.468500
15.327100 0.477600
15.385200 0.487000
15.443200 0.501100
15.501300 0.502500
15.559300 0.508200
15.617400 0.516100
15.675400 0.524900
15.733500 0.534300
15.791600 0.547100
15.849600 0.561300
15.907700 0.578300
15.965700 0.600800
16.023800 0.626200
16.081800 0.644000
16.139900 0.645300
16.198000 0.646500
16.256000 0.634200
16.314100 0.640100
16.372100 0.663200
16.430200 0.661600
16.488200 0.644000
16.546300 0.643200
16.604400 0.641200
16.662400 0.637100
16.720500 0.638100
16.778500 0.640400
16.836600 0.649000
16.894600 0.650500
16.952700 0.646700
17.010700 0.642000
17.068800 0.636900
17.126900 0.633700
17.184900 0.549200
17.243000 0.550100
17.301000 0.568400
17.359100 0.560000
17.417100 0.586700
17.475200 0.657900
17.533300 0.785000
17.591300 0.879100
17.649400 1.019900
17.707400 1.063100
17.765500 0.882500
17.823500 0.881400
17.881600 0.909400
17.939600 0.924100
17.997700 0.934000
18.055800 0.918300
18.113800 0.886100
18.171900 0.861200
18.229900 0.844200
18.288000 0.828400
18.346000 0.835500
18.404100 0.841400
18.462200 0.832800
18.520200 0.843300
18.578300 0.836300
18.636300 0.815200
18.694400 0.756500
18.752400 0.706400
18.810500 0.655500
18.868500 0.623300
18.926600 0.602800
18.984700 0.585200
19.042700 0.568200
19.100800 0.552800
19.158800 0.539300
19.216900 0.530200
19.274900 0.529800
19.333000 0.532200
19.391100 0.524200
19.449100 0.526500
19.507200 0.532700
19.565200 0.607300
19.623300 0.628400
19.681300 0.652800
19.739400 0.617000
19.797500 0.634400
19.855500 0.652500
19.913600 0.658600
19.971600 0.666700
20.029700 0.675900
20.087700 0.714900
20.145800 0.744700
20.203800 0.804900
20.261900 0.905300
20.320000 0.960900
20.378000 1.003100
20.436100 1.116800
20.494100 1.070600
20.552200 1.096600
20.610200 1.030800
20.668300 0.993100
20.726400 0.960700
20.784400 0.928100
20.842500 0.886500
20.900500 0.810000
20.958600 0.760000
21.016600 0.718100
21.074700 0.699600
21.132700 0.681800
21.190800 0.676700
21.248900 0.679800
21.306900 0.681300
21.365000 0.677100
21.423000 0.671900
21.481100 0.682600
21.539100 0.646100
21.597200 0.621300
21.655300 0.617400
21.713300 0.622800
21.771400 0.638500
21.829400 0.646500
21.887500 0.678600
21.945500 0.685200
22.003600 0.694100
22.061600 0.699200
22.119700 0.716300
22.177800 0.722700
22.235800 0.756700
22.293900 0.786500
22.351900 0.837600
22.410000 0.872600
22.468000 0.910100
22.526100 0.934200
22.584200 0.947200
22.642200 0.944600
22.700300 0.944300
22.758300 0.957200
22.816400 0.972500
22.874400 0.997900
22.932500 1.003000
22.990600 0.975000
23.048600 0.946500
23.106700 0.943200
23.164700 0.913600
23.222800 0.880400
23.280800 0.846300
23.338900 0.809100
23.396900 0.756000
23.455000 0.730800
23.513100 0.723300
23.571100 0.710600
23.629200 0.697500
23.687200 0.663700
23.745300 0.649400
23.803300 0.647700
23.861400 0.669600
23.919500 0.715200
23.977500 0.733200
24.035600 0.717100
24.093600 0.707700
24.151700 0.746000
24.209700 0.794400
24.267800 0.816700
24.325800 0.776300
24.383900 0.778000
24.442000 0.812600
24.500000 0.806600
24.558100 0.840900
24.616100 0.904200
24.674200 0.816000
24.732200 0.822800
24.790300 0.827000
24.848400 0.830700
24.906400 0.839300
24.964500 0.849600
25.022500 0.883000
25.080600 0.836300
25.138600 0.816500
25.196700 0.808900
25.254700 0.783200
25.312800 0.785900
25.370900 0.788200
25.428900 0.792900
25.487000 0.806000
25.545000 0.798300
25.603100 0.813100
25.661100 0.823200
25.719200 0.864700
25.777300 0.893500
25.835300 0.912500
25.893400 0.930000
25.951400 0.963400
26.009500 0.974000
26.067500 0.984600
26.125600 1.008000
26.183700 1.027900
26.241700 1.041900
26.299800 1.055200
26.357800 1.034000
26.415900 1.011700
26.473900 0.964100
26.532000 0.924100
26.590000 0.893200
26.648100 0.859100
26.706200 0.819400
26.764200 0.801800
26.822300 0.818600
26.880300 0.696200
26.938400 0.651800
26.996400 0.613800
27.054500 0.595800
27.112600 0.596600
27.170600 0.654200
27.228700 0.698600
27.286700 0.720700
27.344800 0.751400
27.402800 0.777500
27.460900 0.803100
27.518900 0.822900
27.577000 0.848700
27.635100 0.859000
27.693100 0.887900
27.751200 0.907100
27.809200 0.903000
27.867300 0.863100
27.925300 0.862900
27.983400 0.830200
28.041500 0.794000
28.099500 0.817100
28.157600 0.760300
28.215600 0.766800
28.273700 0.774500
28.331700 0.775500
28.389800 0.784500
28.447800 0.796800
28.505900 0.850400
28.564000 0.864700
28.622000 0.848000
28.680100 0.855400
28.738100 0.860300
28.796200 0.881100
28.854200 0.879400
28.912300 0.885500
28.970400 0.906100
29.028400 0.908900
29.086500 0.909500
29.144500 0.914800
29.202600 0.915800
29.260600 0.893600
29.318700 0.859900
29.376700 0.839300
29.434800 0.812600
29.492900 0.806100
29.550900 0.802600
29.609000 0.806400
29.667000 0.814400
29.725100 0.814000
29.783100 0.866000
29.841200 0.876200
29.899300 0.859100
29.957300 0.872400
30.015400 0.873000
30.073400 0.877900
30.131500 0.895300
30.189500 0.923100
30.247600 0.953700
30.305700 0.985100
30.363700 1.029000
30.421800 1.077000
30.479800 1.104700
30.537900 1.123900
30.595900 1.115500
30.654000 1.094000
30.712000 1.063000
30.770100 1.047700
30.828200 1.024400
30.886200 0.988600
30.944300 0.897100
31.002300 0.817200
31.060400 0.779600
31.118400 0.741100
31.176500 0.705600
31.234600 0.709200
31.292600 0.612500
31.350700 0.606900
31.408700 0.607300
31.466800 0.621300
31.524800 0.644500
31.582900 0.696100
31.640900 0.732100
31.699000 0.773000
31.757100 0.804600
31.815100 0.837100
31.873200 0.872000
31.931200 0.909700
31.989300 0.964200
32.047300 0.974400
32.105400 1.016200
32.163500 1.043400
32.221500 1.130500
32.279600 1.107200
32.337600 1.087800
32.395700 1.040500
32.453700 0.993100
32.511800 0.969200
32.569800 0.987300
32.627900 0.990400
32.686000 0.982800
32.744000 0.976800
32.802100 0.969300
32.860100 0.959000
32.918200 1.022900
32.976200 1.001600
33.034300 0.934200
33.092400 0.888700
33.150400 0.873400
33.208500 0.866100
33.266500 0.856300
33.324600 0.849000
33.382600 0.864000
33.440700 0.879100
33.498800 0.885300
33.556800 0.883000
33.614900 0.903300
33.672900 0.890100
33.731000 0.884900
33.789000 0.932900
33.847100 0.951000
33.905100 0.958200
33.963200 0.954200
34.021300 0.936000
34.079300 0.895400
34.137400 0.898800
34.195400 0.919200
34.253500 0.944500
34.311500 1.011000
34.369600 0.956200
34.427700 0.966400
34.485700 0.988500
34.543800 1.002100
34.601800 1.003800
34.659900 1.004400
34.717900 0.999100
34.776000 0.993100
34.834000 1.000900
34.892100 1.002400
34.950200 0.997600
35.008200 0.995000
35.066300 0.988300
35.124300 0.980700
35.182400 0.980900
35.240400 1.012300
35.298500 0.992300
35.356600 0.990200
35.414600 0.991900
35.472700 1.007900
35.530700 1.013000
35.588800 0.920200
35.646800 0.921500
35.704900 0.922100
35.762900 0.967800
35.821000 0.979300
35.879100 0.980400
35.937100 0.977200
35.995200 0.976600
36.053200 0.979800
36.111300 1.002900
36.169300 0.998200
36.227400 0.987000
36.285500 0.977300
36.343500 0.975400
36.401600 0.935500
36.459600 0.921800
36.517700 0.921900
36.575700 0.954900
36.633800 0.960700
36.691900 0.954200
36.749900 0.967300
36.808000 1.066300
36.866000 1.103400
36.924100 1.052300
36.982100 1.047100
37.040200 1.041100
37.098200 1.010900
37.156300 1.011500
37.214400 1.013500
37.272400 1.004000
37.330500 0.978700
37.388500 0.965300
37.446600 0.955600
37.504600 0.958400
37.562700 0.963000
37.620800 0.958800
37.678800 0.944900
37.736900 0.934900
37.794900 0.928900
37.853000 0.950300
37.911000 0.942900
37.969100 0.935400
38.027100 0.927600
38.085200 0.921500
38.143300 0.888900
38.201300 0.888100
38.259400 0.884100
38.317400 0.879700
38.375500 0.880200
38.433500 0.882600
38.491600 0.903600
38.549700 0.896700
38.607700 0.931200
38.665800 0.946300
38.723800 0.950900
38.781900 0.963400
38.839900 0.971700
38.898000 0.942800
38.956000 0.938900
39.014100 0.930200
39.072200 0.928800
39.130200 0.931500
39.188300 0.947900
39.246300 0.972400
39.304400 0.998400
39.362400 1.012700
39.420500 1.022300
39.478600 1.269200
39.536600 1.232100
39.594700 1.151000
39.652700 1.130900
39.710800 1.188700
39.768800 1.116200
39.826900 1.088400
39.885000 1.082700
39.943000 1.092100
40.001100 1.099800
40.059100 1.100000
40.117200 1.106000
40.175200 1.219700
40.233300 1.240400
40.291300 1.250000
40.349400 1.162800
40.407500 1.151000
40.465500 1.136900
40.523600 1.129900
40.581600 1.130700
40.639700 1.127300
40.697700 1.117400
40.755800 1.118400
40.813900 1.113200
40.871900 1.104500
40.930000 1.092300
40.988000 1.089400
41.046100 1.082600
41.104100 1.095200
41.162200 1.080000
41.220200 1.066900
41.278300 1.053700
41.336400 1.035100
41.394400 1.016500
41.452500 1.003300
41.510500 0.985000
41.568600 0.959200
41.626600 0.949900
41.684700 0.939000
41.742800 0.947600
41.800800 0.939700
41.858900 0.922800
41.916900 0.904800
41.975000 0.880000
42.033000 0.877100
42.091100 0.872700
42.149100 0.883200
42.207200 0.896600
42.265300 0.913200
42.323300 0.966800
42.381400 1.004700
42.439400 1.070800
42.497500 1.110500
42.555500 1.138400
42.613600 1.136400
42.671700 1.114100
42.729700 1.101400
42.787800 1.086900
42.845800 1.075500
42.903900 1.048700
42.961900 1.022500
43.020000 0.988700
43.078100 0.961600
43.136100 0.948100
43.194200 0.941700
43.252200 0.941800
43.310300 0.990000
43.368300 0.989400
43.426400 1.001800
43.484400 1.030100
43.542500 1.052500
43.600600 1.055800
43.658600 1.053700
43.716700 1.045700
43.774700 1.050000
43.832800 1.057500
43.890800 1.060000
43.948900 1.070400
44.007000 1.066000
44.065000 1.056700
44.123100 1.041900
44.181100 1.033500
44.239200 1.010900
44.297200 0.986700
44.355300 0.962300
44.413300 0.942100
44.471400 0.942600
44.529500 0.908800
44.587500 0.930400
44.645600 0.929000
44.703600 0.933100
44.761700 0.931800
44.819700 0.895500
44.877800 0.886600
44.935900 0.939800
44.993900 0.967800
45.052000 1.001100
45.110000 1.034000
45.168100 1.075800
45.226100 1.109600
45.284200 1.145100
45.342200 1.231800
45.400300 1.227400
45.458400 1.121500
45.516400 1.101900
45.574500 1.108800
45.632500 1.097300
45.690600 1.052100
45.748600 1.094400
45.806700 1.120800
45.864800 1.155600
45.922800 1.174100
45.980900 1.160000
46.038900 1.165400
46.097000 1.178600
46.155000 1.182500
46.213100 1.170100
46.271100 1.183900
46.329200 1.195700
46.387300 1.156800
46.445300 1.157100
46.503400 1.137300
46.561400 1.107000
46.619500 1.068800
46.677500 1.052000
46.735600 1.042800
46.793700 1.056900
46.851700 1.072600
46.909800 1.064000
46.967800 1.046600
47.025900 1.029200
47.083900 1.074500
47.142000 1.083000
47.200100 1.043600
47.258100 1.010800
47.316200 1.018300
47.374200 1.023700
47.432300 1.029800
47.490300 1.041300
47.548400 1.077400
47.606400 1.086700
47.664500 1.084500
47.722600 1.102900
47.780600 1.135100
47.838700 1.207600
47.896700 1.197600
47.954800 1.199100
48.012800 1.177900
48.070900 1.128000
48.129000 1.078300
48.187000 1.026000
48.245100 0.989800
48.303100 0.995200
48.361200 1.014100
48.419200 1.028000
48.477300 1.025600
48.535300 1.068800
48.593400 1.022900
48.651500 1.018900
48.709500 1.046100
48.767600 1.130500
48.825600 1.105700
48.883700 1.071400
48.941700 1.082600
48.999800 1.099700
49.057900 1.064800
49.115900 1.069000
49.174000 1.095200
49.232000 1.154500
49.290100 1.182600
49.348100 1.151300
49.406200 1.173700
49.464200 1.199400
49.522300 1.220700
49.580400 1.223300
49.638400 1.189200
49.696500 1.167800
49.754500 1.153100
49.812600 1.165900
49.870600 1.170800
49.928700 1.178700
49.986800 1.161100
50.044800 1.192400
50.102900 1.196000
50.160900 1.210200
50.219000 1.186500
50.277000 1.175600
50.335100 1.165200
50.393200 1.150800
50.451200 1.172500
50.509300 1.187700
50.567300 1.199100
50.625400 1.230300
50.683400 1.225800
50.741500 1.175400
50.799500 1.172200
50.857600 1.162000
50.915700 1.162600
50.973700 1.169000
51.031800 1.174100
51.089800 1.212900
51.147900 1.267900
51.205900 1.199100
51.264000 1.177800
51.322100 1.178000
51.380100 1.176300
51.438200 1.154200
51.496200 1.137200
51.554300 1.149800
51.612300 1.218000
51.670400 1.315000
51.728400 1.303700
51.786500 1.167500
51.844600 1.162100
51.902600 1.205100
51.960700 1.223200
52.018700 1.181300
52.076800 1.152100
52.134800 1.133000
52.192900 1.121700
52.251000 1.099500
52.309000 1.069500
52.367100 1.127500
52.425100 1.082800
52.483200 1.120600
52.541200 1.075500
52.599300 0.949400
52.657300 0.930200
52.715400 0.907700
52.773500 0.897600
52.831500 0.916900
52.889600 1.064900
52.947600 1.146500
53.005700 1.141800
53.063700 1.068200
53.121800 1.034700
53.179900 0.979400
53.237900 0.965300
53.296000 0.952300
53.354000 0.931600
53.412100 0.938900
53.470100 0.953500
53.528200 0.943800
53.586300 0.924500
53.644300 0.908800
53.702400 0.893400
53.760400 0.878500
53.818500 0.882800
53.876500 0.940300
53.934600 0.990000
53.992600 1.014600
54.050700 1.027200
54.108800 1.102100
54.166800 1.149500
54.224900 1.139600
54.282900 1.173700
54.341000 1.197200
54.399000 1.232400
54.457100 1.268300
54.515200 1.262900
54.573200 1.289900
54.631300 1.321900
54.689300 1.317500
54.747400 1.310700
54.805400 1.310100
54.863500 1.368900
54.921500 1.314700
54.979600 1.197600
55.037700 1.168200
55.095700 1.150900
55.153800 1.145300
55.211800 1.158000
55.269900 1.175100
55.327900 1.266600
55.386000 1.359000
55.444100 1.377800
55.502100 1.446700
55.560200 1.356900
55.618200 1.333300
55.676300 1.310100
55.734300 1.247500
55.792400 1.205500
55.850400 1.346400
55.908500 1.140000
55.966600 1.202900
56.024600 1.127500
56.082700 1.094200
56.140700 1.060000
56.198800 1.029000
56.256800 1.023900
56.314900 0.967100
56.373000 0.935700
56.431000 0.903000
56.489100 0.887000
56.547100 0.882400
56.605200 0.897600
56.663200 0.916800
56.721300 0.965900
56.779400 1.024500
56.837400 1.091400
56.895500 1.195100
56.953500 1.285800
57.011600 1.397000
57.069600 1.471900
57.127700 1.422900
57.185700 1.346700
57.243800 1.303000
57.301900 1.285900
57.359900 1.199800
57.418000 1.122000
57.476000 1.055200
57.534100 0.983700
57.592100 0.916200
57.650200 0.827000
57.708300 0.770300
57.766300 0.736400
57.824400 0.750200
57.882400 0.791900
57.940500 0.818100
57.998500 0.892400
58.056600 0.901300
58.114600 0.938400
58.172700 0.965600
58.230800 0.978000
58.288800 1.038200
58.346900 1.116400
58.404900 1.218000
58.463000 1.266500
58.521000 1.296600
58.579100 1.274000
58.637200 1.268400
58.695200 1.243900
58.753300 1.295600
58.811300 1.280400
58.869400 1.270100
58.927400 1.268700
58.985500 1.179700
59.043500 1.128400
59.101600 1.098900
59.159700 1.090100
59.217700 1.077000
59.275800 1.077200
59.333800 1.081000
59.391900 1.114700
59.449900 1.152300
59.508000 1.219700
59.566100 1.235500
59.624100 1.283000
59.682200 1.338600
59.740200 1.473200
59.798300 1.502300
59.856300 1.505600
59.914400 1.514900
59.972500 1.502100
60.030500 1.476700
60.088600 1.468600
60.146600 1.467300
60.204700 1.423800
60.262700 1.353400
60.320800 1.306000
60.378800 1.270300
60.436900 1.247600
60.495000 1.246000
60.553000 1.236100
60.611100 1.279600
60.669100 1.212400
60.727200 1.216700
60.785200 1.270900
60.843300 1.252800
60.901400 1.256200
60.959400 1.263200
61.017500 1.273200
61.075500 1.267300
61.133600 1.264900
61.191600 1.259000
61.249700 1.252200
61.307700 1.236400
61.365800 1.258000
61.423900 1.305300
61.481900 1.283600
61.540000 1.282500
61.598000 1.300400
61.656100 1.322200
61.714100 1.361500
61.772200 1.347200
61.830300 1.309800
61.888300 1.245500
61.946400 1.232600
62.004400 1.225500
62.062500 1.233300
62.120500 1.288400
62.178600 1.276300
62.236600 1.269700
62.294700 1.212700
62.352800 1.167300
62.410800 1.186100
62.468900 1.197000
62.526900 1.292900
62.585000 1.167600
62.643000 1.133100
62.701100 1.099800
62.759200 1.076400
62.817200 1.053300
62.875300 1.017700
62.933300 1.028600
62.991400 1.019000
63.049400 1.034300
63.107500 1.050100
63.165500 1.040900
63.223600 1.033600
63.281700 0.973300
63.339700 0.982300
63.397800 0.999100
63.455800 1.026600
63.513900 1.058200
63.571900 1.204000
63.630000 1.064500
63.688100 1.025400
63.746100 0.954700
63.804200 0.962700
63.862200 1.016000
63.920300 1.134800
63.978300 1.180200
64.036400 1.186800
64.094500 1.046400
64.152500 1.032000
64.210600 1.037600
64.268600 1.035700
64.326700 1.039700
64.384700 1.054400
64.442800 1.135800
64.500800 1.223100
64.558900 1.363800
64.617000 1.365000
64.675000 1.329200
64.733100 1.266300
64.791100 1.218300
64.849200 1.208700
64.907200 1.226800
64.965300 1.251400
65.023400 1.361900
65.081400 1.412700
65.139500 1.464000
65.197500 1.473000
65.255600 1.444300
65.313600 1.446700
65.371700 1.361900
65.429700 1.359300
65.487800 1.400500
65.545900 1.455100
65.603900 1.449900
65.662000 1.448400
65.720000 1.497900
65.778100 1.564500
65.836100 1.511500
65.894200 1.467200
65.952300 1.378200
66.010300 1.322800
66.068400 1.292600
66.126400 1.267100
66.184500 1.230300
66.242500 1.199500
66.300600 1.180800
66.358600 1.168100
66.416700 1.158600
66.474800 1.124900
66.532800 1.129100
66.590900 1.145500
66.648900 1.180300
66.707000 1.245800
66.765000 1.256300
66.823100 1.224000
66.881200 1.247900
66.939200 1.265000
66.997300 1.334200
67.055300 1.351300
67.113400 1.336400
67.171400 1.346500
67.229500 1.341600
67.287600 1.376100
67.345600 1.366800
67.403700 1.311900
67.461700 1.344700
67.519800 1.198000
67.577800 1.147100
67.635900 1.135300
67.693900 1.023700
67.752000 1.015300
67.810100 1.015900
67.868100 1.024000
67.926200 1.045400
67.984200 1.065700
68.042300 1.095700
68.100300 1.139100
68.158400 1.137300
68.216500 1.119400
68.274500 1.122400
68.332600 1.161800
68.390600 1.117000
68.448700 1.126900
68.506700 1.133100
68.564800 1.156300
68.622800 1.177000
68.680900 1.213800
68.739000 1.225300
68.797000 1.263100
68.855100 1.289000
68.913100 1.304400
68.971200 1.314500
69.029200 1.373400
69.087300 1.323600
69.145400 1.293100
69.203400 1.283200
69.261500 1.219800
69.319500 1.227900
69.377600 1.230600
69.435600 1.231300
69.493700 1.249500
69.551700 1.262500
69.609800 1.272300
69.667900 1.284900
69.725900 1.261100
69.784000 1.270400
69.842000 1.284400
69.900100 1.284200
69.958100 1.293800
70.016200 1.311100
70.074300 1.308400
70.132300 1.315900
70.190400 1.316100
70.248400 1.315600
70.306500 1.300400
70.364500 1.310600
70.422600 1.296700
70.480700 1.248800
70.538700 1.196600
70.596800 1.156800
70.654800 1.116800
70.712900 1.087700
70.770900 1.093300
70.829000 1.115800
70.887000 1.161400
70.945100 1.213800
71.003200 1.292500
71.061200 1.185500
71.119300 1.185300
71.177300 1.223900
71.235400 1.186300
71.293400 1.169400
71.351500 1.166700
71.409600 1.154600
71.467600 1.150100
71.525700 1.146800
71.583700 1.139100
71.641800 1.141500
71.699800 1.151300
71.757900 1.222700
71.815900 1.263200
71.874000 1.241900
71.932100 1.215900
71.990100 1.198400
72.048200 1.163400
72.106200 1.173600
72.164300 1.217400
72.222300 1.214000
72.280400 1.203800
72.338500 1.188800
72.396500 1.193600
72.454600 1.235600
72.512600 1.209500
72.570700 1.206000
72.628700 1.221500
72.686800 1.236200
72.744800 1.251200
72.802900 1.275500
72.861000 1.322700
72.919000 1.327600
72.977100 1.360300
73.035100 1.409600
73.093200 1.449500
73.151200 1.465700
73.209300 1.461400
73.267400 1.458200
73.325400 1.475700
73.383500 1.469200
73.441500 1.461400
73.499600 1.474600
73.557600 1.503900
73.615700 1.553400
73.673800 1.536400
73.731800 1.517700
73.789900 1.516900
73.847900 1.463200
73.906000 1.443900
73.964000 1.417300
74.022100 1.373800
74.080100 1.384200
74.138200 1.377800
74.196300 1.380400
74.254300 1.373400
74.312400 1.329200
74.370400 1.369200
74.428500 1.249800
74.486500 1.210000
74.544600 1.195000
74.602700 1.171200
74.660700 1.152400
74.718800 1.141800
74.776800 1.120000
74.834900 1.118300
74.892900 1.114500
74.951000 1.128500
75.009000 1.149100
75.067100 1.168000
75.125200 1.181500
75.183200 1.259700
75.241300 1.271000
75.299300 1.282100
75.357400 1.292200
75.415400 1.343700
75.473500 1.349600
75.531600 1.357500
75.589600 1.365100
75.647700 1.384000
75.705700 1.337900
75.763800 1.324300
75.821800 1.341600
75.879900 1.351700
75.937900 1.354600
75.996000 1.476100
76.054100 1.431700
76.112100 1.498800
76.170200 1.536800
76.228200 1.522600
76.286300 1.570200
76.344300 1.569300
76.402400 1.601900
76.460500 1.569400
76.518500 1.546100
76.576600 1.517600
76.634600 1.502400
76.692700 1.452700
76.750700 1.407300
76.808800 1.372300
76.866900 1.339800
76.924900 1.310700
76.983000 1.325900
77.041000 1.434500
77.099100 1.377800
77.157100 1.266300
77.215200 1.261200
77.273200 1.261500
77.331300 1.298200
77.389400 1.278000
77.447400 1.254700
77.505500 1.254400
77.563500 1.239900
77.621600 1.245100
77.679600 1.256200
77.737700 1.281200
77.795800 1.295300
77.853800 1.338100
77.911900 1.278700
77.969900 1.314200
78.028000 1.348500
78.086000 1.389300
78.144100 1.528700
78.202100 1.324100
78.260200 1.340800
78.318300 1.370400
78.376300 1.385800
78.434400 1.369400
78.492400 1.287900
78.550500 1.283000
78.608500 1.278200
78.666600 1.296100
78.724700 1.276000
78.782700 1.388500
78.840800 1.238400
78.898800 1.244600
78.956900 1.240000
79.014900 1.234100
79.073000 1.241000
79.131000 1.257000
79.189100 1.258700
79.247200 1.267400
79.305200 1.278400
79.363300 1.233300
79.421300 1.201700
79.479400 1.218900
79.537400 1.254300
79.595500 1.286700
79.653600 1.295400
79.711600 1.316300
79.769700 1.302900
79.827700 1.293300
79.885800 1.277900
79.943800 1.236500
80.001900 1.221800
80.059900 1.203500
80.118000 1.230600
80.176100 1.238700
80.234100 1.256200
80.292200 1.271400
80.350200 1.463600
80.408300 1.329900
80.466300 1.349200
80.524400 1.377900
80.582500 1.398700
80.640500 1.412100
80.698600 1.414800
80.756600 1.410000
80.814700 1.378700
80.872700 1.352000
80.930800 1.330700
80.988900 1.251300
81.046900 1.206200
81.105000 1.145300
81.163000 1.135600
81.221100 1.113000
81.279100 1.069700
81.337200 1.058300
81.395200 1.061200
81.453300 1.066500
81.511400 1.077600
81.569400 1.148800
81.627500 1.129900
81.685500 1.223100
81.743600 1.280400
81.801600 1.306400
81.859700 1.371400
81.917800 1.359000
81.975800 1.362300
82.033900 1.373200
82.091900 1.394300
82.150000 1.412400
82.208000 1.432300
82.266100 1.424900
82.324100 1.423900
82.382200 1.410200
82.440300 1.400000
82.498300 1.379700
82.556400 1.343600
82.614400 1.755200
82.672500 1.361100
82.730500 1.367600
82.788600 1.347800
82.846700 1.377200
82.904700 1.361900
82.962800 1.349200
83.020800 1.330500
83.078900 1.312500
83.136900 1.316800
83.195000 1.316100
83.253000 1.325900
83.311100 1.340100
83.369200 1.351400
83.427200 1.376400
83.485300 1.422800
83.543300 1.435900
83.601400 1.392600
83.659400 1.464800
83.717500 1.442900
83.775600 1.426400
83.833600 1.419900
83.891700 1.441900
83.949700 1.530000
84.007800 1.501200
84.065800 1.465400
84.123900 1.450300
84.182000 1.389400
84.240000 1.324100
84.298100 1.332000
84.356100 1.287900
84.414200 1.249800
84.472200 1.223200
84.530300 1.205600
84.588300 1.194200
84.646400 1.195100
84.704500 1.213500
84.762500 1.219100
84.820600 1.196100
84.878600 1.195700
84.936700 1.223000
84.994700 1.250900
85.052800 1.287900
85.110900 1.325700
85.168900 1.370600
85.227000 1.362500
85.285000 1.344100
85.343100 1.361200
85.401100 1.383600
85.459200 1.395600
85.517200 1.405000
85.575300 1.412500
85.633400 1.431400
85.691400 1.465800
85.749500 1.457600
85.807500 1.427400
85.865600 1.418500
85.923600 1.424100
85.981700 1.438900
86.039800 1.435000
86.097800 1.386700
86.155900 1.386200
86.213900 1.391000
86.272000 1.434700
86.330000 1.489900
86.388100 1.523700
86.446100 1.502300
86.504200 1.496200
86.562300 1.485900
86.620300 1.561400
86.678400 1.617200
86.736400 1.546700
86.794500 1.517400
86.852500 1.442300
86.910600 1.406000
86.968700 1.404000
87.026700 1.386400
87.084800 1.363700
87.142800 1.388300
87.200900 1.360100
87.258900 1.423600
87.317000 1.357400
87.375100 1.334600
87.433100 1.312900
87.491200 1.312100
87.549200 1.287700
87.607300 1.281800
87.665300 1.269000
87.723400 1.277400
87.781400 1.244200
87.839500 1.223400
87.897600 1.202700
87.955600 1.193700
88.013700 1.196600
88.071700 1.208800
88.129800 1.263100
88.187800 1.331500
88.245900 1.350900
88.304000 1.289500
88.362000 1.264200
88.420100 1.231700
88.478100 1.213600
88.536200 1.208500
88.594200 1.200100
88.652300 1.236200
88.710300 1.202600
88.768400 1.177200
88.826500 1.155800
88.884500 1.175500
88.942600 1.312100
89.000600 1.299200
89.058700 1.362000
89.116700 1.406600
89.174800 1.439400
89.232900 1.495300
89.290900 1.551700
89.349000 1.579700
89.407000 1.583100
89.465100 1.571500
89.523100 1.552900
89.581200 1.508200
89.639200 1.538900
89.697300 1.507400
89.755400 1.477500
89.813400 1.486700
89.871500 1.484700
89.929500 1.464400
89.987600 1.462200
90.045600 1.444200
90.103700 1.376700
90.161800 1.335000
90.219800 1.334300
90.277900 1.331100
90.335900 1.357900
90.394000 1.379500
90.452000 1.443000
90.510100 1.403000
90.568200 1.386600
90.626200 1.377700
90.684300 1.368600
90.742300 1.383200
90.800400 1.381000
90.858400 1.391000
90.916500 1.404500
90.974500 1.420700
91.032600 1.424600
91.090700 1.389500
91.148700 1.386500
91.206800 1.362900
91.264800 1.332000
91.322900 1.286800
91.380900 1.261900
91.439000 1.539700
91.497100 1.195300
91.555100 1.153500
91.613200 1.129800
91.671200 1.090400
91.729300 1.061800
91.787300 1.006900
91.845400 1.002500
91.903400 1.016300
91.961500 0.987500
92.019600 0.990100
92.077600 0.982200
92.135700 0.998300
92.193700 0.996600
92.251800 0.986100
92.309800 0.988000
92.367900 0.952000
92.426000 0.995900
92.484000 0.967800
92.542100 0.892800
92.600100 0.862700
92.658200 0.836900
92.716200 0.829400
92.774300 0.813800
92.832300 0.811900
92.890400 0.792100
92.948500 0.769600
93.006500 0.732900
93.064600 0.700600
93.122600 0.672200
93.180700 0.653800
93.238700 0.659400
93.296800 0.643300
93.354900 0.634500
93.412900 0.608600
93.471000 0.594700
93.529000 0.587900
93.587100 0.688100
93.645100 0.460100
93.703200 0.423800
93.761300 0.390400
93.819300 0.374500
93.877400 0.359900
93.935400 0.335900
93.993500 0.297400
94.051500 0.276900
94.109600 0.257500
94.167600 0.238700
94.225700 0.223000
94.283800 0.208000
94.341800 0.186200
94.399900 0.170200
94.457900 0.158400
94.516000 0.147000
94.574000 0.135700
94.632100 0.122800
94.690200 0.109800
94.748200 0.100700
94.806300 0.095000
94.864300 0.090500
94.922400 0.087000
94.980400 0.084100
95.038500 0.081700
95.096500 0.091600
95.154600 0.107500
95.212700 0.064600
95.270700 0.058200
95.328800 0.072000
95.386800 0.063600
95.444900 0.057600
95.502900 0.052100
95.561000 0.047400
95.619100 0.043000
95.677100 0.038900
95.735200 0.034800
95.793200 0.031000
95.851300 0.027200
95.909300 0.023600
95.967400 0.020200
96.025400 0.016900
96.083500 0.013700
96.141600 0.010700
96.199600 0.007800
96.257700 0.005100
96.315700 0.002500
96.373800 0.000800
96.431800 0.000100
96.489900 0.000000
96.548000 0.000000
96.606000 0.000000
96.664100 0.000000
96.722100 0.000000
96.780200 0.000000
96.838200 0.000000
96.896300 0.000000
96.954300 0.000000
97.012400 0.000000
97.070500 0.000000
97.128500 0.000000
97.186600 0.000000
97.244600 0.000000
97.302700 0.000000
97.360700 0.000000
97.418800 0.000000
97.476900 0.000000
97.534900 0.000000
97.593000 0.000000
97.651000 0.000000
97.709100 0.000000
97.767100 0.000000
97.825200 0.000000
97.883300 0.000000
97.941300 0.000000
97.999400 0.000000
98.057400 0.000000
98.115500 0.000000
98.173500 0.000000
98.231600 0.000000
98.289600 0.000000
98.347700 0.000000
98.405800 0.000000
98.463800 0.000000
98.521900 0.000000
98.579900 0.000000
98.638000 0.000000
98.696000 0.000000
98.754100 0.000000
98.812200 0.000000
98.870200 0.000000
98.928300 0.000000
98.986300 0.000000
99.044400 0.000000
99.102400 0.000000
99.160500 0.000000
99.218500 0.000000
99.276600 0.000000
99.334700 0.000000
99.392700 0.000000
99.450800 0.000000
99.508800 0.000000
99.566900 0.000000
99.624900 0.000000
99.683000 0.000000
99.741100 0.000000
99.799100 0.000000
99.857200 0.000000
99.915200 0.000000
99.973300 0.000000
100.031300 0.000000
100.089400 0.000000
100.147400 0.000000
100.205500 0.000000
100.263600 0.000000
100.321600 0.000000
100.379700 0.000000
100.437700 0.000000
100.495800 0.000000
100.553800 0.000000
100.611900 0.000000
100.670000 0.000000
100.728000 0.000000
100.786100 0.000000
100.844100 0.000000
100.902200 0.000000
100.960200 0.000000
101.018300 0.000000
101.076400 0.000000
101.134400 0.000000
101.192500 0.000000
101.250500 0.000000
101.308600 0.000000
101.366600 0.000000
101.424700 0.000000
101.482700 0.000000
101.540800 0.000000
101.598900 0.000000
101.656900 0.000000
101.715000 0.000000
101.773000 0.000000
e
