set title 'mp-22205 - Density of States'
set xlabel 'Energy (eV)'
set ylabel 'DOS (states/eV)'
set grid
set xrange [-10:10]
set yrange [0:79.584]
set xzeroaxis lt -1
set terminal png size 800,600
set output 'mp-22205_dos_gnuplot.png'
plot '-' using 1:2 with lines title 'DOS'
-10.300700 0.000000
-10.281900 0.000000
-10.263100 0.000000
-10.244300 0.000000
-10.225500 0.000000
-10.206700 0.000000
-10.187900 0.000000
-10.169100 0.000000
-10.150300 0.000000
-10.131500 0.000000
-10.112700 0.000000
-10.093900 0.000000
-10.075100 0.000000
-10.056300 0.000000
-10.037600 0.000000
-10.018800 0.000000
-10.000000 0.000000
-9.981200 0.000000
-9.962400 0.000000
-9.943600 0.000000
-9.924800 0.000000
-9.906000 0.000000
-9.887200 0.000000
-9.868400 0.000000
-9.849600 0.000000
-9.830800 0.000000
-9.812000 0.000000
-9.793200 0.000000
-9.774400 0.000000
-9.755600 0.000000
-9.736800 0.000000
-9.718000 0.000000
-9.699200 0.000000
-9.680400 0.000000
-9.661600 0.000000
-9.642800 0.000000
-9.624000 0.000000
-9.605200 0.000000
-9.586400 0.000000
-9.567600 0.000000
-9.548800 0.000000
-9.530000 0.000000
-9.511200 0.000000
-9.492400 0.000000
-9.473600 0.000000
-9.454800 0.000000
-9.436000 0.000000
-9.417200 0.000000
-9.398400 0.000000
-9.379600 0.000000
-9.360800 0.000000
-9.342000 0.000000
-9.323200 0.000000
-9.304400 0.000000
-9.285600 0.000000
-9.266800 0.000000
-9.248000 0.000000
-9.229200 0.000000
-9.210400 0.000000
-9.191600 0.000000
-9.172800 0.000000
-9.154000 0.000000
-9.135200 0.000000
-9.116400 0.000000
-9.097600 0.000000
-9.078800 0.000000
-9.060100 0.000000
-9.041300 0.000000
-9.022500 0.000000
-9.003700 0.000000
-8.984900 0.000000
-8.966100 0.000000
-8.947300 0.000000
-8.928500 0.000000
-8.909700 0.000000
-8.890900 0.000000
-8.872100 0.000000
-8.853300 0.000000
-8.834500 0.000000
-8.815700 0.000000
-8.796900 0.000000
-8.778100 0.000000
-8.759300 0.000000
-8.740500 0.000000
-8.721700 0.000000
-8.702900 0.000000
-8.684100 0.000000
-8.665300 0.000000
-8.646500 0.000000
-8.627700 0.000000
-8.608900 0.000000
-8.590100 6.630800
-8.571300 27.050100
-8.552500 22.298900
-8.533700 29.738200
-8.514900 30.718600
-8.496100 18.174300
-8.477300 13.073700
-8.458500 10.359200
-8.439700 8.360200
-8.420900 6.910300
-8.402100 5.220600
-8.383300 4.908400
-8.364500 4.217400
-8.345700 3.380400
-8.326900 2.805400
-8.308100 2.288300
-8.289300 1.833900
-8.270500 1.335300
-8.251700 0.828300
-8.232900 0.004500
-8.214100 0.000000
-8.195300 0.000000
-8.176500 0.000000
-8.157700 0.000000
-8.138900 0.000000
-8.120100 0.000000
-8.101300 0.000000
-8.082600 0.000000
-8.063800 0.000000
-8.045000 0.000000
-8.026200 0.000000
-8.007400 0.000000
-7.988600 0.000000
-7.969800 0.000000
-7.951000 0.000000
-7.932200 0.000000
-7.913400 0.000000
-7.894600 0.000000
-7.875800 0.000000
-7.857000 0.000000
-7.838200 0.000000
-7.819400 0.000000
-7.800600 0.000000
-7.781800 0.000000
-7.763000 0.000000
-7.744200 0.000000
-7.725400 0.000000
-7.706600 0.000000
-7.687800 0.000000
-7.669000 0.000000
-7.650200 0.000000
-7.631400 0.000000
-7.612600 0.000000
-7.593800 0.000000
-7.575000 0.000000
-7.556200 0.000000
-7.537400 0.000000
-7.518600 0.000000
-7.499800 0.000000
-7.481000 0.000000
-7.462200 0.000000
-7.443400 0.000000
-7.424600 0.000000
-7.405800 0.000000
-7.387000 0.000000
-7.368200 0.000000
-7.349400 0.000000
-7.330600 0.000000
-7.311800 0.000000
-7.293000 0.000000
-7.274200 2.277300
-7.255400 14.330600
-7.236600 22.629700
-7.217800 59.112300
-7.199000 47.872900
-7.180200 49.581700
-7.161400 33.379900
-7.142600 32.397200
-7.123800 31.982500
-7.105100 26.948800
-7.086300 29.043700
-7.067500 22.660300
-7.048700 56.423800
-7.029900 31.130500
-7.011100 56.718500
-6.992300 50.913700
-6.973500 35.456900
-6.954700 40.875100
-6.935900 50.416700
-6.917100 72.348800
-6.898300 42.731400
-6.879500 15.118700
-6.860700 0.672400
-6.841900 0.637100
-6.823100 0.623700
-6.804300 0.616100
-6.785500 0.582500
-6.766700 0.552900
-6.747900 0.548000
-6.729100 0.548800
-6.710300 0.551400
-6.691500 0.557400
-6.672700 0.567500
-6.653900 0.579300
-6.635100 0.591600
-6.616300 0.604200
-6.597500 0.617000
-6.578700 0.666400
-6.559900 0.712800
-6.541100 0.684800
-6.522300 0.692900
-6.503500 0.700300
-6.484700 0.706600
-6.465900 0.706200
-6.447100 0.708400
-6.428300 0.714100
-6.409500 0.719700
-6.390700 0.725700
-6.371900 0.732000
-6.353100 0.734200
-6.334300 0.739100
-6.315500 0.744200
-6.296700 0.808700
-6.277900 0.820600
-6.259100 0.838400
-6.240300 0.856800
-6.221500 0.875800
-6.202700 0.886400
-6.183900 0.895500
-6.165100 0.912200
-6.146300 0.929400
-6.127600 0.947100
-6.108800 0.965100
-6.090000 0.978200
-6.071200 0.994600
-6.052400 1.011200
-6.033600 1.028600
-6.014800 1.045700
-5.996000 1.065000
-5.977200 1.084900
-5.958400 1.104700
-5.939600 1.123000
-5.920800 1.143400
-5.902000 1.164400
-5.883200 1.185800
-5.864400 1.207600
-5.845600 1.230200
-5.826800 1.253100
-5.808000 1.276400
-5.789200 1.300100
-5.770400 1.323800
-5.751600 1.349000
-5.732800 1.375100
-5.714000 1.403100
-5.695200 1.435100
-5.676400 1.468100
-5.657600 1.502000
-5.638800 1.537000
-5.620000 1.573000
-5.601200 1.610300
-5.582400 1.649500
-5.563600 1.692300
-5.544800 1.737100
-5.526000 1.783900
-5.507200 1.833000
-5.488400 1.884000
-5.469600 1.937000
-5.450800 1.991800
-5.432000 2.057800
-5.413200 2.140900
-5.394400 2.235700
-5.375600 2.344200
-5.356800 2.477000
-5.338000 2.638400
-5.319200 3.084900
-5.300400 2.975200
-5.281600 2.966400
-5.262800 2.952500
-5.244000 2.978300
-5.225200 3.045700
-5.206400 3.169400
-5.187600 3.188100
-5.168800 3.211800
-5.150100 3.194400
-5.131300 3.159100
-5.112500 3.167500
-5.093700 3.204400
-5.074900 3.230700
-5.056100 3.291600
-5.037300 3.319700
-5.018500 3.368100
-4.999700 3.440800
-4.980900 3.432600
-4.962100 3.417500
-4.943300 3.459800
-4.924500 3.589300
-4.905700 3.647100
-4.886900 3.606100
-4.868100 3.946900
-4.849300 3.838500
-4.830500 4.166400
-4.811700 4.529200
-4.792900 4.431400
-4.774100 4.471500
-4.755300 4.972500
-4.736500 3.339400
-4.717700 2.317200
-4.698900 1.747600
-4.680100 1.030500
-4.661300 0.029500
-4.642500 0.000000
-4.623700 0.000000
-4.604900 0.000000
-4.586100 0.000000
-4.567300 0.000000
-4.548500 0.000000
-4.529700 0.000000
-4.510900 0.000000
-4.492100 0.000000
-4.473300 0.000000
-4.454500 0.000000
-4.435700 0.000000
-4.416900 0.000000
-4.398100 0.000000
-4.379300 0.000000
-4.360500 0.000000
-4.341700 0.000000
-4.322900 0.000000
-4.304100 0.000000
-4.285300 0.000000
-4.266500 0.000000
-4.247700 0.000000
-4.228900 0.000000
-4.210100 0.000000
-4.191300 0.000000
-4.172500 0.000000
-4.153800 0.000000
-4.135000 0.000000
-4.116200 0.000000
-4.097400 0.000000
-4.078600 0.000000
-4.059800 0.000000
-4.041000 0.000000
-4.022200 0.000000
-4.003400 0.000000
-3.984600 0.000000
-3.965800 0.000000
-3.947000 0.000000
-3.928200 0.000000
-3.909400 0.000000
-3.890600 0.000000
-3.871800 0.000000
-3.853000 0.000000
-3.834200 0.000000
-3.815400 0.000000
-3.796600 0.000000
-3.777800 0.000000
-3.759000 0.000000
-3.740200 0.000000
-3.721400 0.000000
-3.702600 0.000000
-3.683800 0.000000
-3.665000 0.000000
-3.646200 0.000000
-3.627400 0.000000
-3.608600 0.000000
-3.589800 0.000000
-3.571000 0.000000
-3.552200 0.000000
-3.533400 0.000000
-3.514600 0.000000
-3.495800 0.000000
-3.477000 0.000000
-3.458200 0.000000
-3.439400 0.000000
-3.420600 0.000000
-3.401800 0.000000
-3.383000 0.000000
-3.364200 0.000000
-3.345400 0.000000
-3.326600 0.000000
-3.307800 0.000000
-3.289000 0.000000
-3.270200 0.000000
-3.251400 0.000000
-3.232600 0.000000
-3.213800 0.000000
-3.195000 0.000000
-3.176300 0.000000
-3.157500 0.000000
-3.138700 0.000000
-3.119900 0.000000
-3.101100 0.000000
-3.082300 0.000000
-3.063500 0.000000
-3.044700 0.000000
-3.025900 0.000000
-3.007100 0.000000
-2.988300 0.000000
-2.969500 0.000000
-2.950700 0.000000
-2.931900 0.000000
-2.913100 0.000000
-2.894300 0.000000
-2.875500 0.000000
-2.856700 0.000000
-2.837900 0.000000
-2.819100 0.000000
-2.800300 0.000000
-2.781500 0.000000
-2.762700 0.000000
-2.743900 0.000000
-2.725100 0.000000
-2.706300 0.000000
-2.687500 0.000000
-2.668700 0.000000
-2.649900 0.000000
-2.631100 0.000000
-2.612300 0.000000
-2.593500 0.000000
-2.574700 0.000000
-2.555900 0.000000
-2.537100 0.000000
-2.518300 0.000000
-2.499500 0.000000
-2.480700 0.000000
-2.461900 0.000000
-2.443100 0.000000
-2.424300 0.000000
-2.405500 0.000000
-2.386700 0.000000
-2.367900 0.000000
-2.349100 0.000000
-2.330300 0.000000
-2.311500 0.000000
-2.292700 0.000000
-2.273900 0.000000
-2.255100 0.000000
-2.236300 0.000000
-2.217500 0.000000
-2.198800 0.000000
-2.180000 0.000000
-2.161200 0.000000
-2.142400 0.000000
-2.123600 0.000000
-2.104800 0.000000
-2.086000 0.000000
-2.067200 0.000000
-2.048400 0.000000
-2.029600 0.000000
-2.010800 0.000000
-1.992000 0.000000
-1.973200 0.000000
-1.954400 0.000000
-1.935600 0.000000
-1.916800 0.000000
-1.898000 0.000000
-1.879200 0.000000
-1.860400 0.000000
-1.841600 0.000000
-1.822800 0.000000
-1.804000 0.000000
-1.785200 0.000000
-1.766400 0.000000
-1.747600 0.000000
-1.728800 0.000000
-1.710000 0.000000
-1.691200 0.000000
-1.672400 0.000000
-1.653600 0.000000
-1.634800 0.000000
-1.616000 0.000000
-1.597200 0.000000
-1.578400 0.000000
-1.559600 0.000000
-1.540800 0.000000
-1.522000 0.000000
-1.503200 0.000000
-1.484400 0.000000
-1.465600 0.000000
-1.446800 0.000000
-1.428000 0.000000
-1.409200 0.000000
-1.390400 0.000000
-1.371600 0.000000
-1.352800 0.000000
-1.334000 0.000000
-1.315200 0.000000
-1.296400 0.000000
-1.277600 0.000000
-1.258800 0.000000
-1.240000 0.000000
-1.221300 0.000000
-1.202500 0.000000
-1.183700 0.000000
-1.164900 0.000000
-1.146100 0.000000
-1.127300 0.000000
-1.108500 0.000000
-1.089700 0.000000
-1.070900 0.000000
-1.052100 0.000000
-1.033300 0.000000
-1.014500 0.000000
-0.995700 0.000000
-0.976900 0.000000
-0.958100 0.000000
-0.939300 0.000000
-0.920500 0.000000
-0.901700 0.000000
-0.882900 0.000000
-0.864100 0.000000
-0.845300 0.000000
-0.826500 0.000000
-0.807700 0.000000
-0.788900 0.000000
-0.770100 0.000000
-0.751300 0.000000
-0.732500 0.000000
-0.713700 0.000000
-0.694900 0.000000
-0.676100 0.000000
-0.657300 0.000000
-0.638500 0.000000
-0.619700 0.000000
-0.600900 0.000000
-0.582100 0.000000
-0.563300 0.000000
-0.544500 0.000000
-0.525700 0.000000
-0.506900 0.000000
-0.488100 0.000000
-0.469300 0.000000
-0.450500 0.000000
-0.431700 0.000000
-0.412900 0.000000
-0.394100 0.000000
-0.375300 0.000000
-0.356500 0.000000
-0.337700 0.000000
-0.318900 0.000000
-0.300100 0.000000
-0.281300 0.000000
-0.262500 0.000000
-0.243800 0.000000
-0.225000 0.000000
-0.206200 0.000000
-0.187400 0.000000
-0.168600 0.000000
-0.149800 0.000000
-0.131000 0.000000
-0.112200 0.000000
-0.093400 0.000000
-0.074600 0.000000
-0.055800 0.000000
-0.037000 0.000000
-0.018200 0.000000
0.000600 0.000000
0.019400 0.000000
0.038200 0.000000
0.057000 0.000000
0.075800 0.000000
0.094600 0.000000
0.113400 0.000000
0.132200 0.000000
0.151000 0.000000
0.169800 0.000000
0.188600 0.000000
0.207400 0.000000
0.226200 0.000000
0.245000 0.000000
0.263800 0.000000
0.282600 0.000000
0.301400 0.000000
0.320200 0.000000
0.339000 0.000000
0.357800 0.000000
0.376600 0.000000
0.395400 0.000000
0.414200 0.000000
0.433000 0.000000
0.451800 0.000000
0.470600 0.000000
0.489400 0.000000
0.508200 0.000000
0.527000 0.000000
0.545800 0.000000
0.564600 0.006800
0.583400 0.033600
0.602200 0.053900
0.621000 0.076100
0.639800 0.100300
0.658600 0.125100
0.677400 0.137500
0.696200 0.145000
0.715000 0.155000
0.733700 0.165100
0.752500 0.362500
0.771300 0.674300
0.790100 0.895500
0.808900 1.089200
0.827700 1.251100
0.846500 1.345800
0.865300 1.426400
0.884100 1.607000
0.902900 1.809600
0.921700 1.939900
0.940500 2.043100
0.959300 2.192600
0.978100 2.212500
0.996900 2.316000
1.015700 2.427100
1.034500 2.573500
1.053300 2.782900
1.072100 2.956100
1.090900 3.192100
1.109700 3.802700
1.128500 3.840600
1.147300 3.744000
1.166100 3.800700
1.184900 3.791200
1.203700 3.708500
1.222500 3.784100
1.241300 3.907900
1.260100 4.111000
1.278900 4.443100
1.297700 4.322400
1.316500 4.375200
1.335300 4.235700
1.354100 4.096400
1.372900 3.812800
1.391700 3.016600
1.410500 2.501500
1.429300 2.392300
1.448100 2.302100
1.466900 2.170000
1.485700 2.113600
1.504500 2.058000
1.523300 2.012100
1.542100 1.992100
1.560900 1.973000
1.579700 1.978100
1.598500 1.983000
1.617300 1.996600
1.636100 2.027200
1.654900 2.082200
1.673700 2.159400
1.692500 2.296200
1.711200 2.328800
1.730000 2.438000
1.748800 2.392600
1.767600 2.120400
1.786400 1.865100
1.805200 1.751500
1.824000 1.638500
1.842800 1.521600
1.861600 1.441000
1.880400 1.398000
1.899200 1.359300
1.918000 1.320300
1.936800 1.279000
1.955600 1.241600
1.974400 1.205200
1.993200 1.170000
2.012000 1.135800
2.030800 1.102800
2.049600 1.069700
2.068400 1.040000
2.087200 1.019400
2.106000 1.005300
2.124800 0.994000
2.143600 0.987000
2.162400 0.978600
2.181200 0.972000
2.200000 0.967900
2.218800 0.967200
2.237600 0.968900
2.256400 0.955800
2.275200 0.944000
2.294000 0.939500
2.312800 0.941300
2.331600 0.931700
2.350400 0.923400
2.369200 0.915100
2.388000 0.914700
2.406800 0.922100
2.425600 0.957400
2.444400 0.946900
2.463200 1.098300
2.482000 0.758800
2.500800 0.764200
2.519600 0.771100
2.538400 0.778500
2.557200 0.786200
2.576000 0.794000
2.594800 0.801800
2.613600 0.809600
2.632400 0.817700
2.651200 0.826200
2.670000 0.836000
2.688800 0.846300
2.707500 0.857500
2.726300 0.879900
2.745100 0.956600
2.763900 1.118800
2.782700 1.294500
2.801500 1.504500
2.820300 1.754600
2.839100 2.186000
2.857900 2.410200
2.876700 2.465700
2.895500 2.398700
2.914300 2.208000
2.933100 1.971700
2.951900 1.823300
2.970700 1.713900
2.989500 1.735500
3.008300 1.743100
3.027100 1.733600
3.045900 1.815300
3.064700 1.620200
3.083500 1.591500
3.102300 1.590100
3.121100 1.588700
3.139900 1.589000
3.158700 1.592400
3.177500 1.601400
3.196300 1.575600
3.215100 1.581800
3.233900 1.592600
3.252700 1.613300
3.271500 1.639100
3.290300 1.666800
3.309100 1.703500
3.327900 1.749400
3.346700 1.794400
3.365500 1.838400
3.384300 1.880100
3.403100 1.939700
3.421900 1.971500
3.440700 1.993000
3.459500 2.013500
3.478300 2.019700
3.497100 2.024500
3.515900 2.032300
3.534700 2.043700
3.553500 2.056600
3.572300 2.075600
3.591100 2.080300
3.609900 2.086900
3.628700 2.104700
3.647500 2.126000
3.666300 2.147900
3.685000 2.178800
3.703800 2.231100
3.722600 2.285000
3.741400 2.327600
3.760200 2.373800
3.779000 2.424900
3.797800 2.470900
3.816600 2.536700
3.835400 2.620400
3.854200 2.674100
3.873000 2.691000
3.891800 2.669600
3.910600 2.593400
3.929400 2.512900
3.948200 2.474100
3.967000 2.489100
3.985800 2.516700
4.004600 2.558000
4.023400 2.682000
4.042200 2.567300
4.061000 2.610700
4.079800 2.603700
4.098600 2.630300
4.117400 2.692200
4.136200 2.737200
4.155000 2.797200
4.173800 2.840000
4.192600 2.856000
4.211400 2.875100
4.230200 2.919300
4.249000 2.977900
4.267800 3.057100
4.286600 3.748600
4.305400 3.122100
4.324200 3.104600
4.343000 3.015300
4.361800 2.983300
4.380600 2.991800
4.399400 2.998200
4.418200 3.013800
4.437000 2.930400
4.455800 3.122900
4.474600 3.109600
4.493400 3.112200
4.512200 3.313500
4.531000 3.479500
4.549800 3.683600
4.568600 3.932600
4.587400 4.023300
4.606200 3.969300
4.625000 3.914600
4.643800 3.853800
4.662500 3.778000
4.681300 3.767100
4.700100 3.802200
4.718900 3.619000
4.737700 3.538700
4.756500 3.739300
4.775300 3.756200
4.794100 3.798900
4.812900 3.863300
4.831700 4.067400
4.850500 5.265700
4.869300 4.997000
4.888100 5.259400
4.906900 5.688600
4.925700 6.984400
4.944500 5.536900
4.963300 5.043000
4.982100 4.687100
5.000900 4.458500
5.019700 4.276600
5.038500 4.112900
5.057300 3.997900
5.076100 3.906400
5.094900 3.851200
5.113700 3.769900
5.132500 3.647000
5.151300 3.645600
5.170100 3.602400
5.188900 3.550700
5.207700 3.484900
5.226500 3.385600
5.245300 3.224500
5.264100 3.040600
5.282900 2.905300
5.301700 2.777900
5.320500 2.643500
5.339300 2.544800
5.358100 2.462700
5.376900 2.376000
5.395700 2.298600
5.414500 2.237600
5.433300 2.163200
5.452100 2.091300
5.470900 2.038400
5.489700 1.974900
5.508500 1.911500
5.527300 1.852300
5.546100 1.796100
5.564900 1.808100
5.583700 1.706800
5.602500 1.648700
5.621300 1.602500
5.640000 1.552200
5.658800 1.503900
5.677600 1.456200
5.696400 1.445400
5.715200 1.361000
5.734000 1.311700
5.752800 1.270200
5.771600 1.223300
5.790400 1.165000
5.809200 1.109400
5.828000 1.059700
5.846800 1.013600
5.865600 0.970600
5.884400 0.937900
5.903200 0.876400
5.922000 0.808100
5.940800 0.745900
5.959600 0.684200
5.978400 0.622400
5.997200 0.572500
6.016000 0.458300
6.034800 0.328900
6.053600 0.240200
6.072400 0.017100
6.091200 0.000000
6.110000 0.000100
6.128800 0.000200
6.147600 0.000300
6.166400 0.000500
6.185200 0.000700
6.204000 0.001000
6.222800 0.001300
6.241600 0.001700
6.260400 0.002100
6.279200 0.002500
6.298000 0.003000
6.316800 0.003600
6.335600 0.004100
6.354400 0.004800
6.373200 0.005400
6.392000 0.006200
6.410800 0.006900
6.429600 0.007700
6.448400 0.008600
6.467200 0.009800
6.486000 0.011800
6.504800 0.014300
6.523600 0.015800
6.542400 0.017300
6.561200 0.018700
6.580000 0.020100
6.598800 0.021500
6.617500 0.022800
6.636300 0.024000
6.655100 0.025200
6.673900 0.026400
6.692700 0.027500
6.711500 0.028800
6.730300 0.030300
6.749100 0.031900
6.767900 0.033500
6.786700 0.035200
6.805500 0.036800
6.824300 0.038500
6.843100 0.040300
6.861900 0.042000
6.880700 0.043800
6.899500 0.045700
6.918300 0.047500
6.937100 0.049500
6.955900 0.051500
6.974700 0.053500
6.993500 0.055600
7.012300 0.057700
7.031100 0.059900
7.049900 0.062200
7.068700 0.064700
7.087500 0.067500
7.106300 0.070500
7.125100 0.073100
7.143900 0.075600
7.162700 0.078100
7.181500 0.080600
7.200300 0.083100
7.219100 0.085600
7.237900 0.088100
7.256700 0.090700
7.275500 0.093200
7.294300 0.095800
7.313100 0.098400
7.331900 0.101100
7.350700 0.103700
7.369500 0.106500
7.388300 0.109400
7.407100 0.112600
7.425900 0.116000
7.444700 0.119700
7.463500 0.123500
7.482300 0.127400
7.501100 0.131000
7.519900 0.134700
7.538700 0.138400
7.557500 0.142000
7.576300 0.145600
7.595000 0.149200
7.613800 0.152800
7.632600 0.156500
7.651400 0.160100
7.670200 0.163700
7.689000 0.167400
7.707800 0.171100
7.726600 0.175000
7.745400 0.179400
7.764200 0.183800
7.783000 0.188200
7.801800 0.192600
7.820600 0.197100
7.839400 0.201700
7.858200 0.206300
7.877000 0.211100
7.895800 0.216000
7.914600 0.221100
7.933400 0.226300
7.952200 0.231400
7.971000 0.236400
7.989800 0.241300
8.008600 0.246400
8.027400 0.251400
8.046200 0.256500
8.065000 0.261700
8.083800 0.267800
8.102600 0.274000
8.121400 0.280100
8.140200 0.286100
8.159000 0.292200
8.177800 0.298300
8.196600 0.307300
8.215400 0.317000
8.234200 0.326200
8.253000 0.335100
8.271800 0.343700
8.290600 0.351900
8.309400 0.349100
8.328200 0.354600
8.347000 0.360100
8.365800 0.365500
8.384600 0.371000
8.403400 0.377000
8.422200 0.383300
8.441000 0.389800
8.459800 0.399300
8.478600 0.410200
8.497400 0.422100
8.516200 0.434500
8.535000 0.447500
8.553800 0.461100
8.572500 0.475500
8.591300 0.478200
8.610100 0.488300
8.628900 0.499100
8.647700 0.510800
8.666500 0.523200
8.685300 0.536500
8.704100 0.551000
8.722900 0.570100
8.741700 0.596900
8.760500 0.623900
8.779300 0.649000
8.798100 0.673400
8.816900 0.697200
8.835700 0.721300
8.854500 0.743400
8.873300 0.759800
8.892100 0.775100
8.910900 0.761500
8.929700 0.776500
8.948500 0.792500
8.967300 0.814000
8.986100 0.838600
9.004900 0.864200
9.023700 0.889000
9.042500 0.913700
9.061300 0.938200
9.080100 0.962600
9.098900 0.993000
9.117700 1.058700
9.136500 1.128700
9.155300 1.267800
9.174100 1.377300
9.192900 1.431100
9.211700 1.469400
9.230500 1.505400
9.249300 1.517600
9.268100 1.493900
9.286900 1.485000
9.305700 1.549600
9.324500 1.575800
9.343300 1.591300
9.362100 1.643900
9.380900 1.678000
9.399700 1.634000
9.418500 1.554700
9.437300 1.497000
9.456100 1.436700
9.474900 1.368100
9.493700 1.360700
9.512500 1.352900
9.531300 1.342800
9.550000 1.331100
9.568800 1.317400
9.587600 1.327400
9.606400 1.371000
9.625200 1.394700
9.644000 1.418100
9.662800 1.439000
9.681600 1.461100
9.700400 1.456600
9.719200 1.464300
9.738000 1.552100
9.756800 1.558200
9.775600 1.540200
9.794400 1.517100
9.813200 1.475700
9.832000 1.415800
9.850800 1.410000
9.869600 1.407000
9.888400 1.408800
9.907200 1.410500
9.926000 1.411500
9.944800 1.411500
9.963600 1.411300
9.982400 1.408100
10.001200 1.400000
10.020000 1.393200
10.038800 1.383400
10.057600 1.379500
10.076400 1.376500
10.095200 1.374100
10.114000 1.373600
10.132800 1.375300
10.151600 1.379600
10.170400 1.384000
10.189200 1.388700
10.208000 1.391100
10.226800 1.386000
10.245600 1.389800
10.264400 1.394900
10.283200 1.400800
10.302000 1.407300
10.320800 1.414100
10.339600 1.420900
10.358400 1.421000
10.377200 1.425200
10.396000 1.431600
10.414800 1.443800
10.433600 1.462900
10.452400 1.486300
10.471200 1.516100
10.490000 1.558600
10.508800 1.594900
10.527600 1.620500
10.546300 1.627200
10.565100 1.627800
10.583900 1.630300
10.602700 1.626000
10.621500 1.629700
10.640300 1.627500
10.659100 1.634900
10.677900 1.642400
10.696700 1.647700
10.715500 1.648200
10.734300 1.642500
10.753100 1.618200
10.771900 1.574700
10.790700 1.530100
10.809500 1.487100
10.828300 1.445500
10.847100 1.381200
10.865900 1.306400
10.884700 1.285300
10.903500 1.264100
10.922300 1.243200
10.941100 1.224200
10.959900 1.208000
10.978700 1.193900
10.997500 1.182200
11.016300 1.239700
11.035100 1.524200
11.053900 1.198900
11.072700 1.115600
11.091500 1.094200
11.110300 1.075200
11.129100 1.063600
11.147900 1.156200
11.166700 1.325000
11.185500 1.523500
11.204300 1.675100
11.223100 1.786800
11.241900 1.939800
11.260700 1.947300
11.279500 1.789000
11.298300 1.630200
11.317100 1.476100
11.335900 1.364700
11.354700 1.123800
11.373500 0.919000
11.392300 0.977700
11.411100 0.853500
11.429900 0.785300
11.448700 0.727500
11.467500 0.692900
11.486300 0.681100
11.505100 0.669200
11.523800 0.675200
11.542600 0.703600
11.561400 0.744400
11.580200 0.777300
11.599000 0.823700
11.617800 0.881400
11.636600 0.949800
11.655400 1.018600
11.674200 1.068200
11.693000 1.091200
11.711800 1.131100
11.730600 1.171300
11.749400 1.212300
11.768200 1.261300
11.787000 1.322700
11.805800 1.418600
11.824600 1.580400
11.843400 2.095400
11.862200 1.715900
11.881000 1.870800
11.899800 1.930600
11.918600 1.997600
11.937400 2.053600
11.956200 2.062800
11.975000 2.091900
11.993800 2.219500
12.012600 2.574300
12.031400 2.679300
12.050200 2.688900
12.069000 2.596300
12.087800 2.520400
12.106600 2.446300
12.125400 2.415500
12.144200 2.378200
12.163000 2.353000
12.181800 3.079200
12.200600 3.351800
12.219400 4.105700
12.238200 5.185600
12.257000 5.320600
12.275800 4.731700
12.294600 4.518100
12.313400 4.409400
12.332200 4.359000
12.351000 4.676600
12.369800 4.273100
12.388600 5.571700
12.407400 8.783500
12.426200 9.130400
12.445000 7.242300
12.463800 6.303000
12.482600 5.802200
12.501300 3.673100
12.520100 3.212900
12.538900 2.868800
12.557700 2.601500
12.576500 2.386900
12.595300 2.254200
12.614100 2.150400
12.632900 2.039400
12.651700 1.927600
12.670500 1.832700
12.689300 1.823800
12.708100 1.635300
12.726900 1.500700
12.745700 1.409700
12.764500 1.314600
12.783300 1.360100
12.802100 1.287600
12.820900 1.127300
12.839700 1.171500
12.858500 1.159800
12.877300 1.056300
12.896100 1.011400
12.914900 0.992600
12.933700 0.984900
12.952500 0.970200
12.971300 0.955500
12.990100 0.953000
13.008900 0.953500
13.027700 0.959900
13.046500 0.970400
13.065300 0.977000
13.084100 0.976800
13.102900 0.976500
13.121700 0.976500
13.140500 1.003200
13.159300 0.949400
13.178100 0.933800
13.196900 0.932000
13.215700 0.928200
13.234500 0.917200
13.253300 0.904400
13.272100 0.911500
13.290900 0.920500
13.309700 0.931500
13.328500 0.945900
13.347300 0.959200
13.366100 0.974300
13.384900 0.990300
13.403700 1.007700
13.422500 1.025100
13.441300 1.042100
13.460100 1.059200
13.478800 1.076600
13.497600 1.094100
13.516400 1.112300
13.535200 1.132200
13.554000 1.155400
13.572800 1.180700
13.591600 1.207400
13.610400 1.232500
13.629200 1.265700
13.648000 1.307600
13.666800 1.353000
13.685600 1.401900
13.704400 1.443200
13.723200 1.488600
13.742000 1.538200
13.760800 1.589900
13.779600 1.642200
13.798400 1.693500
13.817200 1.754900
13.836000 1.826800
13.854800 1.935300
13.873600 2.160700
13.892400 2.337100
13.911200 2.514000
13.930000 2.618800
13.948800 2.681200
13.967600 2.709900
13.986400 2.759000
14.005200 2.835700
14.024000 2.930700
14.042800 3.053100
14.061600 3.177600
14.080400 3.334100
14.099200 4.160300
14.118000 4.079000
14.136800 4.190000
14.155600 4.244300
14.174400 4.255800
14.193200 4.123300
14.212000 4.033000
14.230800 4.189100
14.249600 4.409100
14.268400 3.752400
14.287200 3.031800
14.306000 2.276500
14.324800 2.203600
14.343600 2.148600
14.362400 2.097300
14.381200 2.068500
14.400000 2.037000
14.418800 1.997600
14.437600 1.955700
14.456300 1.903300
14.475100 1.841800
14.493900 1.796900
14.512700 1.757700
14.531500 1.715200
14.550300 1.687500
14.569100 1.662300
14.587900 1.642600
14.606700 1.611600
14.625500 1.581300
14.644300 1.552200
14.663100 1.525100
14.681900 1.503600
14.700700 1.492200
14.719500 1.481100
14.738300 1.462100
14.757100 1.471000
14.775900 1.473900
14.794700 1.476100
14.813500 1.477500
14.832300 1.481900
14.851100 1.480100
14.869900 1.483300
14.888700 1.488000
14.907500 1.495300
14.926300 1.506000
14.945100 1.526000
14.963900 1.567600
14.982700 1.625500
15.001500 1.641900
15.020300 1.697200
15.039100 1.768400
15.057900 1.788200
15.076700 1.835100
15.095500 1.872600
15.114300 2.079900
15.133100 2.130200
15.151900 2.126400
15.170700 2.090200
15.189500 1.967500
15.208300 1.773500
15.227100 1.671800
15.245900 1.647700
15.264700 1.749500
15.283500 1.965100
15.302300 2.130900
15.321100 2.525900
15.339900 2.933300
15.358700 3.149800
15.377500 3.529700
15.396300 3.515600
15.415100 3.265900
15.433800 3.144000
15.452600 3.024200
15.471400 2.964600
15.490200 2.901700
15.509000 2.834800
15.527800 2.763200
15.546600 2.679200
15.565400 2.608700
15.584200 2.587800
15.603000 2.575400
15.621800 2.433900
15.640600 2.337400
15.659400 2.293900
15.678200 2.254100
15.697000 2.244600
15.715800 2.266500
15.734600 2.315200
15.753400 2.312100
15.772200 2.295300
15.791000 2.283200
15.809800 2.283900
15.828600 2.337900
15.847400 2.365000
15.866200 2.388300
15.885000 2.744300
15.903800 2.180100
15.922600 2.039700
15.941400 1.921000
15.960200 1.859900
15.979000 1.810300
15.997800 1.742200
16.016600 1.691100
16.035400 1.656900
16.054200 1.634000
16.073000 1.632600
16.091800 1.637100
16.110600 1.623900
16.129400 1.606900
16.148200 1.636100
16.167000 1.676100
16.185800 1.652300
16.204600 1.602800
16.223400 1.518900
16.242200 1.531400
16.261000 1.531100
16.279800 1.528100
16.298600 1.526800
16.317400 1.533900
16.336200 1.537900
16.355000 1.551400
16.373800 1.583500
16.392600 1.623200
16.411300 1.695600
16.430100 1.811500
16.448900 1.796300
16.467700 1.661500
16.486500 1.656400
16.505300 1.664800
16.524100 1.672600
16.542900 1.667200
16.561700 1.659900
16.580500 1.672400
16.599300 1.682700
16.618100 1.702800
16.636900 1.725300
16.655700 1.750000
16.674500 1.777300
16.693300 1.800700
16.712100 1.826000
16.730900 1.863400
16.749700 1.908300
16.768500 1.960700
16.787300 2.014000
16.806100 2.081900
16.824900 2.282200
16.843700 2.179200
16.862500 2.099100
16.881300 2.056300
16.900100 2.070800
16.918900 2.137200
16.937700 2.129300
16.956500 2.104000
16.975300 2.064100
16.994100 2.020100
17.012900 2.023000
17.031700 2.049400
17.050500 2.040500
17.069300 1.843100
17.088100 1.763000
17.106900 1.734100
17.125700 1.670400
17.144500 1.614600
17.163300 1.563200
17.182100 1.511300
17.200900 1.460000
17.219700 1.418900
17.238500 1.397300
17.257300 1.398100
17.276100 1.422200
17.294900 1.473500
17.313700 1.546100
17.332500 1.609800
17.351300 1.688500
17.370100 1.729500
17.388900 1.737100
17.407600 1.728100
17.426400 1.718700
17.445200 1.716700
17.464000 1.721300
17.482800 1.685900
17.501600 1.552500
17.520400 1.561000
17.539200 1.553300
17.558000 1.515700
17.576800 1.552600
17.595600 1.612000
17.614400 1.678000
17.633200 1.768200
17.652000 1.913600
17.670800 2.033100
17.689600 2.198500
17.708400 2.462400
17.727200 2.736000
17.746000 2.918200
17.764800 2.800000
17.783600 2.704400
17.802400 2.447900
17.821200 1.968500
17.840000 1.459500
17.858800 1.314800
17.877600 1.285600
17.896400 1.257600
17.915200 1.222200
17.934000 1.191000
17.952800 1.155900
17.971600 1.120100
17.990400 1.108300
18.009200 1.107100
18.028000 1.151400
18.046800 1.195600
18.065600 1.249300
18.084400 1.258200
18.103200 1.270400
18.122000 1.227700
18.140800 1.130700
18.159600 1.111500
18.178400 1.085200
18.197200 1.069200
18.216000 1.065600
18.234800 1.045000
18.253600 1.024400
18.272400 1.012100
18.291200 0.998200
18.310000 0.998700
18.328800 0.988700
18.347600 0.978000
18.366400 0.964100
18.385100 0.949300
18.403900 1.017800
18.422700 0.939200
18.441500 0.862000
18.460300 0.792300
18.479100 0.752000
18.497900 0.743700
18.516700 0.724900
18.535500 0.710400
18.554300 0.696800
18.573100 0.684900
18.591900 0.674500
18.610700 0.669700
18.629500 0.666200
18.648300 0.664300
18.667100 0.664600
18.685900 0.674000
18.704700 0.687200
18.723500 0.848200
18.742300 1.060700
18.761100 1.185300
18.779900 1.300600
18.798700 1.278500
18.817500 1.726200
18.836300 1.350400
18.855100 1.086600
18.873900 1.108200
18.892700 1.129200
18.911500 1.133300
18.930300 1.137800
18.949100 1.146200
18.967900 1.136500
18.986700 1.149100
19.005500 1.162500
19.024300 1.175600
19.043100 1.188500
19.061900 1.203300
19.080700 1.228100
19.099500 1.253900
19.118300 1.286800
19.137100 1.282100
19.155900 1.313300
19.174700 1.342000
19.193500 1.365300
19.212300 1.407100
19.231100 1.447400
19.249900 1.490800
19.268700 1.537100
19.287500 1.737700
19.306300 1.723900
19.325100 1.721100
19.343900 1.709500
19.362600 1.666200
19.381400 1.650000
19.400200 1.645600
19.419000 1.637000
19.437800 1.637800
19.456600 1.634400
19.475400 1.561900
19.494200 1.544500
19.513000 1.527300
19.531800 1.603500
19.550600 1.460300
19.569400 1.338100
19.588200 1.257200
19.607000 1.240000
19.625800 1.229900
19.644600 1.220600
19.663400 1.208500
19.682200 1.197800
19.701000 1.189800
19.719800 1.182800
19.738600 1.187900
19.757400 1.194800
19.776200 1.215200
19.795000 1.224200
19.813800 1.268700
19.832600 1.295300
19.851400 1.312000
19.870200 1.324900
19.889000 1.260300
19.907800 1.182600
19.926600 1.171400
19.945400 1.160300
19.964200 1.152500
19.983000 1.131800
20.001800 1.106200
20.020600 1.079800
20.039400 1.050000
20.058200 1.021300
20.077000 1.001400
20.095800 0.988500
20.114600 0.987200
20.133400 0.985900
20.152200 0.973200
20.171000 0.953300
20.189800 0.948500
20.208600 0.943300
20.227400 0.935200
20.246200 0.926900
20.265000 0.921200
20.283800 0.919700
20.302600 0.920200
20.321400 0.916800
20.340100 0.911300
20.358900 0.906100
20.377700 0.901900
20.396500 0.898900
20.415300 0.897400
20.434100 0.897700
20.452900 0.899900
20.471700 0.901000
20.490500 0.901800
20.509300 0.915400
20.528100 1.099700
20.546900 0.863300
20.565700 0.824600
20.584500 0.856400
20.603300 0.947100
20.622100 1.044900
20.640900 1.139500
20.659700 1.279900
20.678500 1.313100
20.697300 1.515500
20.716100 1.351100
20.734900 1.328000
20.753700 1.328500
20.772500 1.346200
20.791300 1.364300
20.810100 1.370500
20.828900 1.384500
20.847700 1.373300
20.866500 1.369600
20.885300 1.365600
20.904100 1.359200
20.922900 1.364500
20.941700 1.482100
20.960500 1.538400
20.979300 1.403600
20.998100 1.586700
21.016900 1.856900
21.035700 1.713900
21.054500 1.727900
21.073300 1.749000
21.092100 1.778000
21.110900 1.914500
21.129700 1.893800
21.148500 1.959100
21.167300 2.064100
21.186100 2.023500
21.204900 2.062100
21.223700 2.078000
21.242500 2.090300
21.261300 2.078500
21.280100 2.051500
21.298900 2.054600
21.317600 2.342200
21.336400 2.342900
21.355200 2.316100
21.374000 2.282800
21.392800 2.147800
21.411600 2.043300
21.430400 1.945900
21.449200 1.902100
21.468000 1.912100
21.486800 1.939100
21.505600 1.832300
21.524400 1.803700
21.543200 1.782800
21.562000 1.746900
21.580800 1.724000
21.599600 1.678600
21.618400 1.663100
21.637200 1.647300
21.656000 1.635500
21.674800 1.779400
21.693600 1.735300
21.712400 1.718200
21.731200 1.769600
21.750000 1.760900
21.768800 1.770900
21.787600 1.753000
21.806400 1.735400
21.825200 1.762400
21.844000 1.809100
21.862800 1.818800
21.881600 1.816600
21.900400 1.821400
21.919200 1.821400
21.938000 1.822200
21.956800 1.860800
21.975600 1.897400
21.994400 1.928000
22.013200 1.957500
22.032000 1.984900
22.050800 2.010300
22.069600 2.036300
22.088400 2.061200
22.107200 2.084800
22.126000 2.054900
22.144800 2.087900
22.163600 2.122800
22.182400 2.161500
22.201200 2.265500
22.220000 2.389000
22.238800 2.513100
22.257600 2.650800
22.276400 2.479100
22.295100 2.281100
22.313900 2.276700
22.332700 2.292800
22.351500 2.319200
22.370300 2.359500
22.389100 2.429700
22.407900 2.488600
22.426700 2.555700
22.445500 2.632700
22.464300 2.686800
22.483100 2.782800
22.501900 2.656300
22.520700 2.687200
22.539500 2.682300
22.558300 2.721500
22.577100 2.732600
22.595900 2.519800
22.614700 2.322500
22.633500 2.187900
22.652300 2.071500
22.671100 1.988100
22.689900 1.924000
22.708700 1.856500
22.727500 1.810100
22.746300 1.783600
22.765100 1.749200
22.783900 1.751700
22.802700 1.745000
22.821500 1.703700
22.840300 1.667100
22.859100 1.632700
22.877900 1.638400
22.896700 1.646600
22.915500 1.659000
22.934300 1.677900
22.953100 1.659800
22.971900 1.723000
22.990700 1.759100
23.009500 1.792000
23.028300 1.839700
23.047100 1.893900
23.065900 1.949400
23.084700 1.938600
23.103500 1.962200
23.122300 2.019900
23.141100 2.086600
23.159900 2.149400
23.178700 2.267100
23.197500 2.323700
23.216300 2.386600
23.235100 2.477100
23.253900 2.492700
23.272600 2.467800
23.291400 2.459100
23.310200 2.326200
23.329000 2.193300
23.347800 2.087900
23.366600 2.011500
23.385400 1.999100
23.404200 2.021000
23.423000 1.978700
23.441800 1.893200
23.460600 1.805500
23.479400 1.745100
23.498200 1.610400
23.517000 1.567400
23.535800 1.542700
23.554600 1.528200
23.573400 1.516700
23.592200 1.508300
23.611000 1.526000
23.629800 1.585300
23.648600 1.584400
23.667400 1.619500
23.686200 1.641100
23.705000 1.642400
23.723800 1.649000
23.742600 1.654000
23.761400 1.664900
23.780200 1.685700
23.799000 1.715900
23.817800 1.767000
23.836600 1.828600
23.855400 1.859800
23.874200 1.886300
23.893000 1.903600
23.911800 1.913100
23.930600 1.914700
23.949400 1.938700
23.968200 1.989500
23.987000 2.056600
24.005800 2.153100
24.024600 2.243800
24.043400 2.279000
24.062200 2.309100
24.081000 2.356200
24.099800 2.379600
24.118600 2.278900
24.137400 2.209900
24.156200 2.134400
24.175000 2.053100
24.193800 1.966400
24.212600 1.879000
24.231400 1.873000
24.250100 1.745000
24.268900 1.637500
24.287700 1.547700
24.306500 1.502000
24.325300 1.466700
24.344100 1.421100
24.362900 1.345800
24.381700 1.284300
24.400500 1.229100
24.419300 1.201300
24.438100 1.193000
24.456900 1.124100
24.475700 1.076000
24.494500 1.026800
24.513300 0.971900
24.532100 0.911100
24.550900 0.807100
24.569700 0.735600
24.588500 0.687100
24.607300 0.657800
24.626100 0.554800
24.644900 0.527100
24.663700 0.506100
24.682500 0.490400
24.701300 0.476600
24.720100 0.464600
24.738900 0.454300
24.757700 0.446800
24.776500 0.440800
24.795300 0.436500
24.814100 0.435200
24.832900 0.436000
24.851700 0.433900
24.870500 0.430700
24.889300 0.427600
24.908100 0.425000
24.926900 0.422800
24.945700 0.421000
24.964500 0.419600
24.983300 0.418300
25.002100 0.416900
25.020900 0.415500
25.039700 0.414200
25.058500 0.414600
25.077300 0.417800
25.096100 0.443200
25.114900 0.473200
25.133700 0.501300
25.152500 0.545600
25.171300 0.611400
25.190100 0.675500
25.208900 0.717100
25.227700 0.717100
25.246400 0.629300
25.265200 0.584200
25.284000 0.509900
25.302800 0.426600
25.321600 0.355000
25.340400 0.317800
25.359200 0.294300
25.378000 0.271000
25.396800 0.247700
25.415600 0.213000
25.434400 0.181500
25.453200 0.169200
25.472000 0.143300
25.490800 0.107100
25.509600 0.072300
25.528400 0.041300
25.547200 0.018900
25.566000 0.005100
25.584800 0.000000
25.603600 0.000000
25.622400 0.000000
25.641200 0.000000
25.660000 0.000000
25.678800 0.000000
25.697600 0.000000
25.716400 0.000000
25.735200 0.000000
25.754000 0.000000
25.772800 0.000000
25.791600 0.000000
25.810400 0.000000
25.829200 0.000000
25.848000 0.000000
25.866800 0.000000
25.885600 0.000000
25.904400 0.000000
25.923200 0.000000
25.942000 0.000000
25.960800 0.000000
25.979600 0.000000
25.998400 0.000000
26.017200 0.000000
26.036000 0.000000
26.054800 0.000000
26.073600 0.000000
26.092400 0.000000
26.111200 0.000000
26.130000 0.000000
26.148800 0.000000
26.167600 0.000000
26.186400 0.000000
26.205200 0.000000
26.223900 0.000000
26.242700 0.000000
26.261500 0.000000
26.280300 0.000000
26.299100 0.000000
26.317900 0.000000
26.336700 0.000000
26.355500 0.000000
26.374300 0.000000
26.393100 0.000000
26.411900 0.000000
26.430700 0.000000
26.449500 0.000000
26.468300 0.000000
26.487100 0.000000
26.505900 0.000000
26.524700 0.000000
26.543500 0.000000
26.562300 0.000000
26.581100 0.000000
26.599900 0.000000
26.618700 0.000000
26.637500 0.000000
26.656300 0.000000
26.675100 0.000000
26.693900 0.000000
26.712700 0.000000
26.731500 0.000000
26.750300 0.000000
26.769100 0.000000
26.787900 0.000000
26.806700 0.000000
26.825500 0.000000
26.844300 0.000000
26.863100 0.000000
26.881900 0.000000
26.900700 0.000000
26.919500 0.000000
26.938300 0.000000
26.957100 0.000000
26.975900 0.000000
26.994700 0.000000
27.013500 0.000000
27.032300 0.000000
27.051100 0.000000
27.069900 0.000000
27.088700 0.000000
27.107500 0.000000
27.126300 0.000000
27.145100 0.000000
27.163900 0.000000
27.182700 0.000000
27.201400 0.000000
27.220200 0.000000
27.239000 0.000000
27.257800 0.000000
27.276600 0.000000
27.295400 0.000000
e
