set title 'mp-1224802 - Density of States'
set xlabel 'Energy (eV)'
set ylabel 'DOS (states/eV)'
set grid
set xrange [-10:10]
set yrange [0:72.650]
set xzeroaxis lt -1
set terminal png size 800,600
set output 'mp-1224802_dos_gnuplot.png'
plot '-' using 1:2 with lines title 'DOS'
-13.819000 0.000000
-13.778800 0.000000
-13.738600 0.000000
-13.698400 0.000000
-13.658200 0.000000
-13.618000 0.000000
-13.577800 0.000000
-13.537600 0.000000
-13.497400 0.000000
-13.457200 0.000000
-13.417000 0.000000
-13.376800 0.000000
-13.336600 0.000000
-13.296400 0.000000
-13.256200 0.000000
-13.216000 0.000000
-13.175800 0.000000
-13.135600 0.000000
-13.095400 0.000000
-13.055200 0.000000
-13.015000 0.000000
-12.974800 0.000000
-12.934700 0.000000
-12.894500 0.000000
-12.854300 0.000000
-12.814100 0.000000
-12.773900 0.000000
-12.733700 0.000000
-12.693500 0.000000
-12.653300 0.000000
-12.613100 0.000000
-12.572900 0.000000
-12.532700 0.000000
-12.492500 0.000000
-12.452300 0.000000
-12.412100 0.000000
-12.371900 0.000000
-12.331700 0.000000
-12.291500 0.000000
-12.251300 0.000000
-12.211100 0.000000
-12.170900 0.000000
-12.130700 0.000000
-12.090500 0.000000
-12.050300 0.000000
-12.010100 0.000000
-11.969900 0.000000
-11.929700 0.000000
-11.889600 0.000000
-11.849400 0.000000
-11.809200 0.000000
-11.769000 0.000000
-11.728800 0.000000
-11.688600 0.000000
-11.648400 0.000000
-11.608200 0.000000
-11.568000 0.000000
-11.527800 0.000000
-11.487600 0.000000
-11.447400 0.000000
-11.407200 0.000000
-11.367000 0.000000
-11.326800 0.000000
-11.286600 0.000000
-11.246400 0.000000
-11.206200 0.000000
-11.166000 0.000000
-11.125800 0.000000
-11.085600 0.000000
-11.045400 0.000000
-11.005200 0.000000
-10.965000 0.000000
-10.924800 0.000000
-10.884600 0.000000
-10.844400 0.000000
-10.804300 0.000000
-10.764100 0.000000
-10.723900 0.000000
-10.683700 0.000000
-10.643500 0.000000
-10.603300 0.000000
-10.563100 0.000000
-10.522900 0.000000
-10.482700 0.000000
-10.442500 0.000000
-10.402300 0.000000
-10.362100 0.000000
-10.321900 0.000000
-10.281700 0.000000
-10.241500 0.000000
-10.201300 0.000000
-10.161100 2.172000
-10.120900 13.545200
-10.080700 23.912700
-10.040500 8.190300
-10.000300 38.837300
-9.960100 22.484800
-9.919900 42.792700
-9.879700 51.566900
-9.839500 66.045200
-9.799300 0.000000
-9.759200 0.000000
-9.719000 0.000000
-9.678800 0.000000
-9.638600 0.000000
-9.598400 0.000000
-9.558200 0.000000
-9.518000 0.000000
-9.477800 0.000000
-9.437600 0.000000
-9.397400 0.000000
-9.357200 0.000000
-9.317000 0.000000
-9.276800 0.000000
-9.236600 0.000000
-9.196400 0.000000
-9.156200 0.000000
-9.116000 0.000000
-9.075800 0.000000
-9.035600 0.000000
-8.995400 0.000000
-8.955200 0.000000
-8.915000 0.000000
-8.874800 0.000000
-8.834600 0.000000
-8.794400 0.000000
-8.754200 0.000000
-8.714100 0.000000
-8.673900 0.000000
-8.633700 0.000000
-8.593500 0.000000
-8.553300 0.000000
-8.513100 0.000000
-8.472900 0.000000
-8.432700 0.000000
-8.392500 0.000000
-8.352300 0.000000
-8.312100 0.000000
-8.271900 0.000000
-8.231700 0.000000
-8.191500 0.000000
-8.151300 0.000000
-8.111100 0.000000
-8.070900 0.000000
-8.030700 0.000000
-7.990500 0.000000
-7.950300 0.000000
-7.910100 0.000000
-7.869900 0.000000
-7.829700 0.000000
-7.789500 0.000000
-7.749300 0.000000
-7.709100 0.000000
-7.669000 0.000000
-7.628800 0.000000
-7.588600 0.000000
-7.548400 0.000000
-7.508200 0.000000
-7.468000 0.000000
-7.427800 0.000000
-7.387600 0.000000
-7.347400 0.000000
-7.307200 0.000000
-7.267000 0.000000
-7.226800 0.000000
-7.186600 0.000000
-7.146400 0.000000
-7.106200 0.000000
-7.066000 0.000000
-7.025800 0.000000
-6.985600 0.000000
-6.945400 0.000000
-6.905200 0.000000
-6.865000 0.000000
-6.824800 0.000000
-6.784600 0.000000
-6.744400 0.000000
-6.704200 0.000000
-6.664000 0.000000
-6.623900 0.000000
-6.583700 0.000000
-6.543500 0.000000
-6.503300 0.000000
-6.463100 0.000000
-6.422900 0.000000
-6.382700 0.000000
-6.342500 0.000000
-6.302300 0.000000
-6.262100 0.000000
-6.221900 0.000000
-6.181700 0.000000
-6.141500 0.000000
-6.101300 0.000000
-6.061100 0.000000
-6.020900 0.000000
-5.980700 0.000000
-5.940500 0.000000
-5.900300 0.000000
-5.860100 0.000000
-5.819900 0.000000
-5.779700 0.000000
-5.739500 0.000000
-5.699300 0.000000
-5.659100 0.000000
-5.618900 0.005800
-5.578800 0.033900
-5.538600 0.067300
-5.498400 0.068800
-5.458200 0.079100
-5.418000 0.088500
-5.377800 0.099700
-5.337600 0.111400
-5.297400 0.121400
-5.257200 0.126600
-5.217000 0.131700
-5.176800 0.137900
-5.136600 0.144900
-5.096400 0.152500
-5.056200 0.160000
-5.016000 0.167100
-4.975800 0.174500
-4.935600 0.182200
-4.895400 0.187800
-4.855200 0.193400
-4.815000 0.199200
-4.774800 0.205100
-4.734600 0.211200
-4.694400 0.217400
-4.654200 0.224000
-4.614000 0.230900
-4.573800 0.238000
-4.533700 0.245100
-4.493500 0.252700
-4.453300 0.261700
-4.413100 0.271300
-4.372900 0.280400
-4.332700 0.288900
-4.292500 0.297500
-4.252300 0.306700
-4.212100 0.321200
-4.171900 0.354700
-4.131700 0.365700
-4.091500 0.357000
-4.051300 0.362000
-4.011100 0.366000
-3.970900 0.366700
-3.930700 0.362900
-3.890500 0.363200
-3.850300 0.366300
-3.810100 0.369200
-3.769900 0.371900
-3.729700 0.373300
-3.689500 0.372100
-3.649300 0.371000
-3.609100 0.371700
-3.568900 0.372500
-3.528700 0.373800
-3.488600 0.375700
-3.448400 0.377600
-3.408200 0.379100
-3.368000 0.380200
-3.327800 0.381000
-3.287600 0.380500
-3.247400 0.381200
-3.207200 0.383100
-3.167000 0.385000
-3.126800 0.387000
-3.086600 0.389100
-3.046400 0.391500
-3.006200 0.394000
-2.966000 0.396400
-2.925800 0.398700
-2.885600 0.400800
-2.845400 0.401500
-2.805200 0.402400
-2.765000 0.404100
-2.724800 0.406200
-2.684600 0.408700
-2.644400 0.411500
-2.604200 0.414400
-2.564000 0.417400
-2.523800 0.420700
-2.483600 0.424200
-2.443400 0.427900
-2.403300 0.431800
-2.363100 0.435900
-2.322900 0.439800
-2.282700 0.443500
-2.242500 0.447700
-2.202300 0.452300
-2.162100 0.456900
-2.121900 0.462000
-2.081700 0.467400
-2.041500 0.473200
-2.001300 0.479300
-1.961100 0.485800
-1.920900 0.493700
-1.880700 0.503800
-1.840500 0.516600
-1.800300 0.531400
-1.760100 0.548800
-1.719900 0.573800
-1.679700 0.602600
-1.639500 0.653900
-1.599300 0.694100
-1.559100 0.688000
-1.518900 0.662500
-1.478700 0.655900
-1.438500 0.661200
-1.398300 0.635600
-1.358200 0.634800
-1.318000 0.635800
-1.277800 0.633400
-1.237600 0.630600
-1.197400 0.627900
-1.157200 0.622000
-1.117000 0.612200
-1.076800 0.601900
-1.036600 0.597000
-0.996400 0.594500
-0.956200 0.597700
-0.916000 0.602400
-0.875800 0.583700
-0.835600 0.568400
-0.795400 0.555000
-0.755200 0.533900
-0.715000 0.591900
-0.674800 0.534000
-0.634600 0.454800
-0.594400 0.419400
-0.554200 0.398600
-0.514000 0.390300
-0.473800 0.384900
-0.433600 0.381700
-0.393400 0.381900
-0.353200 0.422800
-0.313100 0.526900
-0.272900 0.475200
-0.232700 0.426300
-0.192500 0.386100
-0.152300 0.405700
-0.112100 0.455200
-0.071900 0.521800
-0.031700 0.622100
0.008500 0.776500
0.048700 0.888600
0.088900 1.017400
0.129100 1.154700
0.169300 1.309200
0.209500 1.466000
0.249700 1.523300
0.289900 1.572100
0.330100 1.617500
0.370300 1.721400
0.410500 1.880200
0.450700 2.051000
0.490900 2.149900
0.531100 2.385400
0.571300 2.512900
0.611500 2.685400
0.651700 2.681900
0.691900 2.714300
0.732000 2.861000
0.772200 3.103400
0.812400 3.311200
0.852600 3.076400
0.892800 2.895700
0.933000 2.789700
0.973200 2.664700
1.013400 2.859900
1.053600 2.169100
1.093800 2.098100
1.134000 2.144100
1.174200 2.382700
1.214400 2.334600
1.254600 2.571300
1.294800 3.257600
1.335000 3.207700
1.375200 3.401300
1.415400 3.946700
1.455600 4.082800
1.495800 4.284100
1.536000 4.882000
1.576200 4.689200
1.616400 3.766200
1.656600 3.387400
1.696800 4.116900
1.737000 4.185300
1.777100 3.749300
1.817300 3.399600
1.857500 3.407900
1.897700 3.144900
1.937900 2.967700
1.978100 2.838500
2.018300 3.169100
2.058500 3.872500
2.098700 4.483200
2.138900 3.811300
2.179100 3.748100
2.219300 3.743800
2.259500 3.992600
2.299700 4.167400
2.339900 4.109000
2.380100 4.312300
2.420300 4.506000
2.460500 3.965900
2.500700 2.961300
2.540900 1.852600
2.581100 1.229600
2.621300 1.292600
2.661500 2.967300
2.701700 3.771300
2.741900 3.449300
2.782100 1.986900
2.822200 1.674100
2.862400 1.445800
2.902600 1.320700
2.942800 1.256700
2.983000 1.203400
3.023200 1.169200
3.063400 1.148000
3.103600 1.135500
3.143800 1.135500
3.184000 1.150500
3.224200 1.176100
3.264400 1.208600
3.304600 1.239100
3.344800 1.243300
3.385000 1.267800
3.425200 1.297400
3.465400 1.341500
3.505600 1.404300
3.545800 1.498200
3.586000 1.612400
3.626200 1.723300
3.666400 1.835300
3.706600 1.939900
3.746800 2.064200
3.787000 2.436900
3.827200 2.407600
3.867300 2.385700
3.907500 1.581700
3.947700 1.317900
3.987900 1.209100
4.028100 1.117900
4.068300 1.052300
4.108500 0.979400
4.148700 0.911300
4.188900 0.847800
4.229100 0.810400
4.269300 0.781700
4.309500 0.754100
4.349700 0.722900
4.389900 0.688700
4.430100 0.615900
4.470300 0.576000
4.510500 0.535100
4.550700 0.498700
4.590900 0.500900
4.631100 0.512700
4.671300 0.527400
4.711500 0.544400
4.751700 0.556300
4.791900 0.551300
4.832100 0.556100
4.872300 0.567300
4.912400 0.577200
4.952600 0.586400
4.992800 0.603500
5.033000 0.619200
5.073200 0.635000
5.113400 0.654000
5.153600 0.673600
5.193800 0.695900
5.234000 0.723000
5.274200 0.745100
5.314400 0.777600
5.354600 0.810700
5.394800 0.849300
5.435000 0.911200
5.475200 0.987200
5.515400 1.198500
5.555600 1.021600
5.595800 0.981400
5.636000 0.974100
5.676200 0.825200
5.716400 0.771500
5.756600 0.724600
5.796800 0.683700
5.837000 0.658500
5.877200 0.643200
5.917400 0.632000
5.957600 0.608500
5.997700 0.628900
6.037900 0.615000
6.078100 0.613900
6.118300 0.624200
6.158500 0.683200
6.198700 0.755000
6.238900 0.858600
6.279100 0.904400
6.319300 0.896000
6.359500 0.900600
6.399700 0.891000
6.439900 0.861400
6.480100 0.847800
6.520300 0.837900
6.560500 0.840400
6.600700 0.842700
6.640900 0.813400
6.681100 0.800700
6.721300 0.794700
6.761500 0.782400
6.801700 0.733300
6.841900 0.699300
6.882100 0.675300
6.922300 0.649300
6.962500 0.628300
7.002700 0.610600
7.042800 0.578800
7.083000 0.561400
7.123200 0.548200
7.163400 0.536400
7.203600 0.525200
7.243800 0.518700
7.284000 0.519800
7.324200 0.526800
7.364400 0.539800
7.404600 0.563400
7.444800 0.581000
7.485000 0.590400
7.525200 0.589000
7.565400 0.590300
7.605600 0.558900
7.645800 0.552900
7.686000 0.552600
7.726200 0.555200
7.766400 0.558400
7.806600 0.561100
7.846800 0.556400
7.887000 0.558200
7.927200 0.559500
7.967400 0.560700
8.007600 0.561600
8.047800 0.563200
8.087900 0.565600
8.128100 0.568400
8.168300 0.572600
8.208500 0.580900
8.248700 0.584200
8.288900 0.580700
8.329100 0.577700
8.369300 0.577100
8.409500 0.578700
8.449700 0.583300
8.489900 0.587300
8.530100 0.589700
8.570300 0.591400
8.610500 0.592500
8.650700 0.595500
8.690900 0.599500
8.731100 0.603600
8.771300 0.607600
8.811500 0.610700
8.851700 0.614400
8.891900 0.618400
8.932100 0.621600
8.972300 0.624500
9.012500 0.629400
9.052700 0.634900
9.092900 0.644800
9.133000 0.686100
9.173200 0.710500
9.213400 0.710600
9.253600 0.715000
9.293800 0.728600
9.334000 0.745400
9.374200 0.765200
9.414400 0.764300
9.454600 0.745300
9.494800 0.710500
9.535000 0.689000
9.575200 0.669600
9.615400 0.648900
9.655600 0.627400
9.695800 0.604300
9.736000 0.579600
9.776200 0.563300
9.816400 0.560600
9.856600 0.562700
9.896800 0.562600
9.937000 0.553800
9.977200 0.565000
10.017400 0.596300
10.057600 0.628600
10.097800 0.660200
10.138000 0.685000
10.178100 0.707200
10.218300 0.740600
10.258500 0.762900
10.298700 0.778400
10.338900 0.772500
10.379100 0.759300
10.419300 0.744400
10.459500 0.762100
10.499700 0.760500
10.539900 0.756800
10.580100 0.805200
10.620300 0.800600
10.660500 0.798700
10.700700 0.805600
10.740900 0.814400
10.781100 0.830500
10.821300 0.860600
10.861500 0.870100
10.901700 0.861800
10.941900 0.849800
10.982100 0.839400
11.022300 0.836900
11.062500 0.839900
11.102700 0.844200
11.142900 0.854800
11.183100 0.876700
11.223200 0.873800
11.263400 0.905000
11.303600 0.984700
11.343800 0.996500
11.384000 1.015400
11.424200 1.034600
11.464400 1.049500
11.504600 1.054300
11.544800 1.052400
11.585000 1.046500
11.625200 1.039100
11.665400 1.037500
11.705600 1.036100
11.745800 1.036900
11.786000 1.034000
11.826200 1.016100
11.866400 0.986900
11.906600 0.952900
11.946800 0.919600
11.987000 0.889800
12.027200 0.865800
12.067400 0.845200
12.107600 0.869600
12.147800 0.862500
12.188000 0.866600
12.228200 0.870700
12.268300 0.868800
12.308500 0.867000
12.348700 0.866400
12.388900 0.880600
12.429100 0.864400
12.469300 0.884500
12.509500 0.895000
12.549700 0.898700
12.589900 0.900200
12.630100 0.900500
12.670300 0.898900
12.710500 0.892900
12.750700 0.887100
12.790900 0.884900
12.831100 0.883400
12.871300 0.884600
12.911500 0.886100
12.951700 0.886000
12.991900 0.884400
13.032100 0.880500
13.072300 0.875200
13.112500 0.867100
13.152700 0.855800
13.192900 0.851600
13.233100 0.851000
13.273300 0.852800
13.313400 0.853500
13.353600 0.845900
13.393800 0.832000
13.434000 0.820500
13.474200 0.813600
13.514400 0.808700
13.554600 0.803100
13.594800 0.797800
13.635000 0.793500
13.675200 0.790000
13.715400 0.788200
13.755600 0.788300
13.795800 0.790300
13.836000 0.791100
13.876200 0.790400
13.916400 0.788100
13.956600 0.783700
13.996800 0.781200
14.037000 0.781500
14.077200 0.782100
14.117400 0.774400
14.157600 0.769400
14.197800 0.768100
14.238000 0.768900
14.278200 0.767800
14.318400 0.764200
14.358600 0.759300
14.398700 0.756500
14.438900 0.758800
14.479100 0.763400
14.519300 0.768900
14.559500 0.777400
14.599700 0.790900
14.639900 0.801400
14.680100 0.808000
14.720300 0.810600
14.760500 0.805500
14.800700 0.796300
14.840900 0.787800
14.881100 0.784000
14.921300 0.787800
14.961500 0.790300
15.001700 0.791800
15.041900 0.793000
15.082100 0.794100
15.122300 0.795000
15.162500 0.796600
15.202700 0.798300
15.242900 0.800700
15.283100 0.807200
15.323300 0.817200
15.363500 0.827900
15.403700 0.840800
15.443800 0.847400
15.484000 0.851100
15.524200 0.853100
15.564400 0.853700
15.604600 0.853900
15.644800 0.857300
15.685000 0.856500
15.725200 0.864100
15.765400 0.874000
15.805600 0.885200
15.845800 0.895000
15.886000 0.904900
15.926200 0.915000
15.966400 0.926000
16.006600 0.938900
16.046800 0.952500
16.087000 0.963100
16.127200 0.970100
16.167400 0.988200
16.207600 1.001200
16.247800 1.001100
16.288000 0.993400
16.328200 0.991500
16.368400 0.997500
16.408600 1.005500
16.448800 1.007400
16.488900 1.009100
16.529100 1.021700
16.569300 1.040300
16.609500 1.037600
16.649700 1.026600
16.689900 1.015800
16.730100 1.001000
16.770300 0.988600
16.810500 0.984600
16.850700 0.984900
16.890900 0.986500
16.931100 0.987100
16.971300 0.983400
17.011500 0.980200
17.051700 0.977400
17.091900 0.984300
17.132100 0.981600
17.172300 0.962200
17.212500 0.947800
17.252700 0.936300
17.292900 0.924800
17.333100 0.915800
17.373300 0.910500
17.413500 0.903000
17.453700 0.894000
17.493900 0.886800
17.534000 0.880400
17.574200 0.871100
17.614400 0.862600
17.654600 0.859100
17.694800 0.860200
17.735000 0.868300
17.775200 0.886100
17.815400 0.900600
17.855600 0.924900
17.895800 0.927400
17.936000 0.934400
17.976200 0.948000
18.016400 0.959500
18.056600 0.974600
18.096800 0.989300
18.137000 0.999600
18.177200 1.007300
18.217400 1.013100
18.257600 1.012100
18.297800 1.014000
18.338000 1.014600
18.378200 1.014200
18.418400 1.023400
18.458600 1.049700
18.498800 1.045200
18.539000 1.036100
18.579100 1.039400
18.619300 1.026500
18.659500 1.023600
18.699700 1.020000
18.739900 1.012800
18.780100 1.007900
18.820300 1.012700
18.860500 1.030900
18.900700 1.035400
18.940900 1.045500
18.981100 1.048200
19.021300 1.035800
19.061500 1.008400
19.101700 0.994200
19.141900 0.986200
19.182100 0.990500
19.222300 1.040600
19.262500 1.064900
19.302700 1.088900
19.342900 1.121000
19.383100 1.119000
19.423300 1.125800
19.463500 1.118000
19.503700 1.090000
19.543900 1.074300
19.584100 1.064300
19.624200 1.077000
19.664400 1.083700
19.704600 1.101600
19.744800 1.130500
19.785000 1.133500
19.825200 1.118300
19.865400 1.093300
19.905600 1.071200
19.945800 1.040100
19.986000 0.978000
20.026200 0.935900
20.066400 0.911600
20.106600 0.892500
20.146800 0.868300
20.187000 0.852900
20.227200 0.857500
20.267400 0.834500
20.307600 0.842300
20.347800 0.837800
20.388000 0.837000
20.428200 0.846200
20.468400 0.856100
20.508600 0.864900
20.548800 0.871200
20.589000 0.869200
20.629200 0.866300
20.669300 0.863500
20.709500 0.855700
20.749700 0.851900
20.789900 0.851600
20.830100 0.856600
20.870300 0.857400
20.910500 0.852700
20.950700 0.869500
20.990900 0.846300
21.031100 0.851900
21.071300 0.853400
21.111500 0.868800
21.151700 0.868600
21.191900 0.879100
21.232100 0.898300
21.272300 0.937200
21.312500 1.023300
21.352700 1.134500
21.392900 1.122500
21.433100 1.135400
21.473300 1.078800
21.513500 1.028800
21.553700 1.003600
21.593900 1.009100
21.634100 1.011100
21.674300 1.008800
21.714400 0.991500
21.754600 0.975800
21.794800 0.993100
21.835000 1.046200
21.875200 1.068200
21.915400 1.087200
21.955600 1.097500
21.995800 1.104600
22.036000 1.110200
22.076200 1.118600
22.116400 1.131000
22.156600 1.144300
22.196800 1.150700
22.237000 1.155600
22.277200 1.171300
22.317400 1.186900
22.357600 1.212500
22.397800 1.237200
22.438000 1.251500
22.478200 1.249100
22.518400 1.235300
22.558600 1.191900
22.598800 1.161900
22.639000 1.143800
22.679200 1.142500
22.719400 1.142000
22.759600 1.182000
22.799700 1.254100
22.839900 1.312100
22.880100 1.301900
22.920300 1.237400
22.960500 1.161500
23.000700 1.095500
23.040900 1.041300
23.081100 1.007100
23.121300 0.991100
23.161500 0.986600
23.201700 0.983500
23.241900 0.980100
23.282100 0.991800
23.322300 1.008000
23.362500 1.017300
23.402700 0.973000
23.442900 0.926400
23.483100 0.894200
23.523300 0.874300
23.563500 0.870100
23.603700 0.873300
23.643900 0.877600
23.684100 0.887300
23.724300 0.909200
23.764500 0.921500
23.804700 0.945900
23.844800 0.993100
23.885000 1.056200
23.925200 1.126200
23.965400 1.305300
24.005600 1.411800
24.045800 1.402600
24.086000 1.391600
24.126200 1.380600
24.166400 1.376500
24.206600 1.377600
24.246800 1.344800
24.287000 1.305000
24.327200 1.251400
24.367400 1.218100
24.407600 1.200800
24.447800 1.184300
24.488000 1.194600
24.528200 1.197700
24.568400 1.175700
24.608600 1.142300
24.648800 1.116900
24.689000 1.076900
24.729200 1.011500
24.769400 0.977000
24.809600 0.942400
24.849800 0.908900
24.889900 0.880700
24.930100 0.858900
24.970300 0.854700
25.010500 0.841500
25.050700 0.824600
25.090900 0.810600
25.131100 0.799900
25.171300 0.803000
25.211500 0.813100
25.251700 0.831500
25.291900 0.849900
25.332100 0.875900
25.372300 0.907900
25.412500 0.941200
25.452700 0.974500
25.492900 1.011100
25.533100 1.064300
25.573300 1.050800
25.613500 1.067600
25.653700 1.077800
25.693900 1.106000
25.734100 1.144200
25.774300 1.191800
25.814500 1.248400
25.854700 1.316400
25.894900 1.400400
25.935000 1.499800
25.975200 1.611700
26.015400 1.713000
26.055600 1.821200
26.095800 2.001100
26.136000 2.244300
26.176200 2.659900
26.216400 3.175600
26.256600 4.200300
26.296800 42.363800
26.337000 5.965000
26.377200 5.542100
26.417400 5.543500
26.457600 5.852400
26.497800 6.950900
26.538000 133.372500
26.578200 4.724300
26.618400 3.180400
26.658600 2.761600
26.698800 2.447000
26.739000 2.186700
26.779200 1.979900
26.819400 1.792100
26.859600 1.680000
26.899800 1.533400
26.940000 1.448900
26.980100 1.363200
27.020300 1.295000
27.060500 1.230300
27.100700 1.187000
27.140900 1.167200
27.181100 1.157500
27.221300 1.148400
27.261500 1.150500
27.301700 1.177900
27.341900 1.245100
27.382100 1.243300
27.422300 1.269400
27.462500 1.292300
27.502700 1.324000
27.542900 1.331600
27.583100 1.334600
27.623300 1.330400
27.663500 1.307600
27.703700 1.281400
27.743900 1.271000
27.784100 1.264500
27.824300 1.250900
27.864500 1.262200
27.904700 1.290300
27.944900 1.269500
27.985100 1.245000
28.025200 1.232500
28.065400 1.236200
28.105600 1.229600
28.145800 1.217700
28.186000 1.207700
28.226200 1.195700
28.266400 1.171500
28.306600 1.151700
28.346800 1.140700
28.387000 1.137000
28.427200 1.135700
28.467400 1.142500
28.507600 1.166500
28.547800 1.178700
28.588000 1.180900
28.628200 1.182400
28.668400 1.182500
28.708600 1.212500
28.748800 1.201200
28.789000 1.183100
28.829200 1.163400
28.869400 1.140800
28.909600 1.126700
28.949800 1.119200
28.990000 1.110100
29.030200 1.112400
29.070300 1.124700
29.110500 1.197700
29.150700 1.115900
29.190900 1.096700
29.231100 1.111200
29.271300 1.128900
29.311500 1.115200
29.351700 1.115600
29.391900 1.132600
29.432100 1.186600
29.472300 1.200400
29.512500 1.213500
29.552700 1.237000
29.592900 1.275200
29.633100 1.322400
29.673300 1.361400
29.713500 1.377700
29.753700 1.430000
29.793900 1.396300
29.834100 1.370300
29.874300 1.359600
29.914500 1.346800
29.954700 1.327400
29.994900 1.315300
30.035100 1.301700
30.075300 1.276800
30.115400 1.245900
30.155600 1.214300
30.195800 1.182200
30.236000 1.156400
30.276200 1.137500
30.316400 1.122000
30.356600 1.127400
30.396800 1.135300
30.437000 1.147700
30.477200 1.171900
30.517400 1.139700
30.557600 1.159900
30.597800 1.177100
30.638000 1.191600
30.678200 1.197600
30.718400 1.186400
30.758600 1.195200
30.798800 1.201800
30.839000 1.207000
30.879200 1.211400
30.919400 1.220800
30.959600 1.225100
30.999800 1.230000
31.040000 1.233100
31.080200 1.231100
31.120400 1.229000
31.160600 1.229200
31.200700 1.237700
31.240900 1.246100
31.281100 1.256000
31.321300 1.265800
31.361500 1.276600
31.401700 1.289600
31.441900 1.298800
31.482100 1.298900
31.522300 1.303000
31.562500 1.315700
31.602700 1.333400
31.642900 1.326500
31.683100 1.324600
31.723300 1.320900
31.763500 1.312800
31.803700 1.298500
31.843900 1.295800
31.884100 1.287000
31.924300 1.271400
31.964500 1.264000
32.004700 1.262100
32.044900 1.265400
32.085100 1.270500
32.125300 1.277900
32.165500 1.286000
32.205700 1.297100
32.245800 1.316000
32.286000 1.348900
32.326200 1.371800
32.366400 1.426600
32.406600 1.495700
32.446800 1.523200
32.487000 1.539100
32.527200 1.554000
32.567400 1.559200
32.607600 1.561700
32.647800 1.545400
32.688000 1.509300
32.728200 1.485600
32.768400 1.481600
32.808600 1.503000
32.848800 1.498500
32.889000 1.498200
32.929200 1.511400
32.969400 1.529900
33.009600 1.523400
33.049800 1.505600
33.090000 1.494400
33.130200 1.492700
33.170400 1.503900
33.210600 1.541400
33.250800 1.577500
33.290900 1.590600
33.331100 1.691400
33.371300 1.607900
33.411500 1.604800
33.451700 1.575900
33.491900 1.540500
33.532100 1.504800
33.572300 1.469300
33.612500 1.430800
33.652700 1.394200
33.692900 1.369000
33.733100 1.358200
33.773300 1.359900
33.813500 1.364400
33.853700 1.378000
33.893900 1.392300
33.934100 1.405200
33.974300 1.412100
34.014500 1.420300
34.054700 1.430500
34.094900 1.440400
34.135100 1.449500
34.175300 1.504000
34.215500 1.596600
34.255700 1.589400
34.295900 1.512300
34.336000 1.441000
34.376200 1.403600
34.416400 1.397500
34.456600 1.391200
34.496800 1.383400
34.537000 1.379900
34.577200 1.380200
34.617400 1.339500
34.657600 1.337000
34.697800 1.346800
34.738000 1.364700
34.778200 1.417100
34.818400 1.484000
34.858600 1.482300
34.898800 1.471800
34.939000 1.513300
34.979200 1.551600
35.019400 1.582000
35.059600 1.607800
35.099800 1.608000
35.140000 1.584600
35.180200 1.548700
35.220400 1.505000
35.260600 1.460600
35.300800 1.420600
35.341000 1.416600
35.381100 1.361300
35.421300 1.334900
35.461500 1.323300
35.501700 1.316700
35.541900 1.304700
35.582100 1.291600
35.622300 1.290900
35.662500 1.304300
35.702700 1.323700
35.742900 1.339800
35.783100 1.322000
35.823300 1.310900
35.863500 1.304600
35.903700 1.298800
35.943900 1.293000
35.984100 1.284400
36.024300 1.272500
36.064500 1.258900
36.104700 1.244200
36.144900 1.239300
36.185100 1.244500
36.225300 1.258100
36.265500 1.272500
36.305700 1.278700
36.345900 1.276500
36.386100 1.282800
36.426200 1.290600
36.466400 1.321700
36.506600 1.363100
36.546800 1.392600
36.587000 1.405000
36.627200 1.405300
36.667400 1.407800
36.707600 1.411300
36.747800 1.407900
36.788000 1.412100
36.828200 1.399700
36.868400 1.391500
36.908600 1.369700
36.948800 1.351800
36.989000 1.355700
37.029200 1.366200
37.069400 1.380800
37.109600 1.401400
37.149800 1.435000
37.190000 1.429800
37.230200 1.435900
37.270400 1.442700
37.310600 1.447700
37.350800 1.440500
37.391000 1.414600
37.431200 1.387900
37.471300 1.377700
37.511500 1.380800
37.551700 1.389700
37.591900 1.379900
37.632100 1.363000
37.672300 1.330800
37.712500 1.302500
37.752700 1.300200
37.792900 1.312800
37.833100 1.335300
37.873300 1.365600
37.913500 1.362200
37.953700 1.381800
37.993900 1.402700
38.034100 1.414800
38.074300 1.427900
38.114500 1.429800
38.154700 1.419900
38.194900 1.394700
38.235100 1.360200
38.275300 1.309500
38.315500 1.255800
38.355700 1.203400
38.395900 1.157500
38.436100 1.122700
38.476300 1.098800
38.516400 1.078300
38.556600 1.074400
38.596800 1.102700
38.637000 1.206200
38.677200 1.260300
38.717400 1.313200
38.757600 1.367000
38.797800 1.420400
38.838000 1.531000
38.878200 1.518300
38.918400 1.512400
38.958600 1.472000
38.998800 1.444500
39.039000 1.425000
39.079200 1.412400
39.119400 1.388400
39.159600 1.364200
39.199800 1.353300
39.240000 1.346900
39.280200 1.325100
39.320400 1.332600
39.360600 1.348800
39.400800 1.378900
39.441000 1.422400
39.481200 1.440000
39.521400 1.520700
39.561600 1.471500
39.601700 1.499400
39.641900 1.498100
39.682100 1.491700
39.722300 1.499200
39.762500 1.525200
39.802700 1.572000
39.842900 1.584800
39.883100 1.561800
39.923300 1.548000
39.963500 1.556300
40.003700 1.570900
40.043900 1.581300
40.084100 1.622700
40.124300 1.630100
40.164500 1.646100
40.204700 1.665100
40.244900 1.578600
40.285100 1.515700
40.325300 1.498400
40.365500 1.480800
40.405700 1.462500
40.445900 1.469000
40.486100 1.489300
40.526300 1.509100
40.566500 1.536300
40.606700 1.540400
40.646800 1.547300
40.687000 1.563800
40.727200 1.582100
40.767400 1.584400
40.807600 1.575400
40.847800 1.560400
40.888000 1.566600
40.928200 1.550800
40.968400 1.496300
41.008600 1.447700
41.048800 1.410900
41.089000 1.366000
41.129200 1.338200
41.169400 1.316600
41.209600 1.302900
41.249800 1.299400
41.290000 1.304200
41.330200 1.305400
41.370400 1.288000
41.410600 1.273500
41.450800 1.266400
41.491000 1.269600
41.531200 1.292600
41.571400 1.302400
41.611600 1.317500
41.651800 1.330600
41.691900 1.344300
41.732100 1.363000
41.772300 1.376300
41.812500 1.395500
41.852700 1.406500
41.892900 1.398900
41.933100 1.384700
41.973300 1.377300
42.013500 1.385200
42.053700 1.392800
42.093900 1.379600
42.134100 1.373600
42.174300 1.360300
42.214500 1.344000
42.254700 1.340400
42.294900 1.339600
42.335100 1.346500
42.375300 1.356800
42.415500 1.373200
42.455700 1.389200
42.495900 1.412200
42.536100 1.413700
42.576300 1.378600
42.616500 1.343200
42.656700 1.308700
42.696900 1.279600
42.737000 1.258800
42.777200 1.248500
42.817400 1.249900
42.857600 1.258100
42.897800 1.274200
42.938000 1.294300
42.978200 1.310400
43.018400 1.343800
43.058600 1.387600
43.098800 1.420700
43.139000 1.449100
43.179200 1.461300
43.219400 1.550100
43.259600 1.572500
43.299800 1.576700
43.340000 1.583200
43.380200 1.644200
43.420400 1.667300
43.460600 1.624000
43.500800 1.630000
43.541000 1.632800
43.581200 1.637900
43.621400 1.641200
43.661600 1.694500
43.701800 1.704600
43.742000 1.700900
43.782100 1.698800
43.822300 1.663600
43.862500 1.644000
43.902700 1.651400
43.942900 1.629300
43.983100 1.623900
44.023300 1.625800
44.063500 1.612400
44.103700 1.599400
44.143900 1.592400
44.184100 1.583200
44.224300 1.575400
44.264500 1.548100
44.304700 1.528800
44.344900 1.531200
44.385100 1.471700
44.425300 1.467500
44.465500 1.472400
44.505700 1.479800
44.545900 1.479900
44.586100 1.478700
44.626300 1.488900
44.666500 1.482500
44.706700 1.484000
44.746900 1.481500
44.787100 1.492800
44.827200 1.541400
44.867400 1.584000
44.907600 1.640300
44.947800 1.668100
44.988000 1.670200
45.028200 1.669300
45.068400 1.665700
45.108600 1.674500
45.148800 1.697300
45.189000 1.692900
45.229200 1.668000
45.269400 1.661300
45.309600 1.688700
45.349800 1.716600
45.390000 1.719200
45.430200 1.706200
45.470400 1.699200
45.510600 1.599200
45.550800 1.555500
45.591000 1.556300
45.631200 1.578700
45.671400 1.588900
45.711600 1.620100
45.751800 1.636300
45.792000 1.638600
45.832200 1.674200
45.872300 1.667600
45.912500 1.673800
45.952700 1.681900
45.992900 1.699800
46.033100 1.738800
46.073300 1.672300
46.113500 1.645800
46.153700 1.654700
46.193900 1.670000
46.234100 1.698400
46.274300 1.752800
46.314500 1.850600
46.354700 1.895000
46.394900 1.903100
46.435100 1.916700
46.475300 1.872200
46.515500 1.829200
46.555700 1.783600
46.595900 1.783000
46.636100 2.082900
46.676300 1.661700
46.716500 1.616900
46.756700 1.603900
46.796900 1.550100
46.837100 1.540100
46.877300 1.519700
46.917400 1.544100
46.957600 1.535600
46.997800 1.526800
47.038000 1.547000
47.078200 1.554800
47.118400 1.574200
47.158600 1.583100
47.198800 1.607800
47.239000 1.636400
47.279200 1.663800
47.319400 1.692100
47.359600 1.710800
47.399800 1.701900
47.440000 1.690300
47.480200 1.627800
47.520400 1.565300
47.560600 1.517900
47.600800 1.493000
47.641000 1.503100
47.681200 1.506200
47.721400 1.461800
47.761600 1.420000
47.801800 1.412200
47.842000 1.437500
47.882200 1.497300
47.922400 1.599400
47.962600 1.699800
48.002700 1.829800
48.042900 1.946300
48.083100 1.913600
48.123300 1.850600
48.163500 1.793100
48.203700 1.736100
48.243900 1.698400
48.284100 1.710900
48.324300 1.644600
48.364500 1.609600
48.404700 1.578000
48.444900 1.565800
48.485100 1.573900
48.525300 1.554800
48.565500 1.533600
48.605700 1.535100
48.645900 1.560300
48.686100 1.583400
48.726300 1.618400
48.766500 1.581700
48.806700 1.569000
48.846900 1.568800
48.887100 1.584700
48.927300 1.589300
48.967500 1.576600
49.007700 1.591500
49.047800 1.515900
49.088000 1.444700
49.128200 1.413900
49.168400 1.397800
49.208600 1.391400
49.248800 1.367500
49.289000 1.348200
49.329200 1.360400
49.369400 1.369000
49.409600 1.350400
49.449800 1.347500
49.490000 1.364000
49.530200 1.435600
49.570400 1.460400
49.610600 1.459700
49.650800 1.466600
49.691000 1.459600
49.731200 1.439300
49.771400 1.454500
49.811600 1.477700
49.851800 1.501900
49.892000 1.547200
49.932200 1.566100
49.972400 1.493000
50.012600 1.508600
50.052800 1.559900
50.092900 1.526400
50.133100 1.511500
50.173300 1.512100
50.213500 1.534100
50.253700 1.538600
50.293900 1.541000
50.334100 1.561000
50.374300 1.584100
50.414500 1.743100
50.454700 1.675800
50.494900 1.672600
50.535100 1.666300
50.575300 1.675900
50.615500 1.700300
50.655700 1.735700
50.695900 1.765200
50.736100 1.786600
50.776300 1.799400
50.816500 1.621900
50.856700 1.503100
50.896900 1.420900
50.937100 1.348000
50.977300 1.297700
51.017500 1.265200
51.057700 1.235100
51.097900 1.215400
51.138000 1.211200
51.178200 1.232100
51.218400 1.303200
51.258600 1.375900
51.298800 1.470800
51.339000 1.530900
51.379200 1.561500
51.419400 1.617100
51.459600 1.716900
51.499800 1.735200
51.540000 1.677300
51.580200 1.661700
51.620400 1.600300
51.660600 1.536600
51.700800 1.502000
51.741000 1.486800
51.781200 1.487400
51.821400 1.513500
51.861600 1.515900
51.901800 1.523800
51.942000 1.560800
51.982200 1.619900
52.022400 1.669000
52.062600 1.664500
52.102800 1.667300
52.143000 1.673500
52.183100 1.688800
52.223300 1.657000
52.263500 1.647400
52.303700 1.696400
52.343900 1.729000
52.384100 1.735500
52.424300 1.721100
52.464500 1.724800
52.504700 1.764600
52.544900 1.873700
52.585100 1.792800
52.625300 1.682800
52.665500 1.596000
52.705700 1.598500
52.745900 1.607200
52.786100 1.622500
52.826300 1.677000
52.866500 1.774100
52.906700 1.852400
52.946900 1.850200
52.987100 1.808400
53.027300 1.778700
53.067500 1.749800
53.107700 1.745700
53.147900 1.747000
53.188100 1.746100
53.228200 1.756800
53.268400 1.785100
53.308600 1.801100
53.348800 1.779800
53.389000 1.765500
53.429200 1.742000
53.469400 1.728600
53.509600 1.718200
53.549800 1.708100
53.590000 1.744200
53.630200 1.762400
53.670400 1.786500
53.710600 1.788200
53.750800 1.764600
53.791000 1.769600
53.831200 1.774900
53.871400 1.732300
53.911600 1.722200
53.951800 1.748000
53.992000 1.794900
54.032200 1.849700
54.072400 1.889400
54.112600 1.947500
54.152800 1.991300
54.193000 2.053100
54.233200 2.047100
54.273300 2.003300
54.313500 2.036300
54.353700 2.010400
54.393900 1.952700
54.434100 1.904200
54.474300 1.861700
54.514500 1.833600
54.554700 1.817500
54.594900 1.818100
54.635100 1.796300
54.675300 1.781600
54.715500 1.713500
54.755700 1.724000
54.795900 1.763900
54.836100 1.790500
54.876300 1.799000
54.916500 1.822000
54.956700 1.831800
54.996900 1.867000
55.037100 1.903000
55.077300 1.923700
55.117500 1.890000
55.157700 1.866900
55.197900 1.858500
55.238100 1.845500
55.278300 1.812900
55.318400 1.781900
55.358600 1.782200
55.398800 1.783600
55.439000 1.773700
55.479200 1.766800
55.519400 1.769000
55.559600 1.791800
55.599800 1.828900
55.640000 1.852300
55.680200 1.873800
55.720400 1.917600
55.760600 1.945000
55.800800 1.949200
55.841000 2.008500
55.881200 2.106900
55.921400 2.209800
55.961600 2.279500
56.001800 2.308600
56.042000 2.218700
56.082200 2.191800
56.122400 2.139900
56.162600 2.056700
56.202800 2.025100
56.243000 1.975200
56.283200 1.933200
56.323400 1.882500
56.363600 1.820700
56.403700 1.758800
56.443900 1.731000
56.484100 1.707200
56.524300 1.727600
56.564500 1.736700
56.604700 1.780500
56.644900 1.858600
56.685100 1.931100
56.725300 1.814900
56.765500 1.767500
56.805700 1.706800
56.845900 1.636400
56.886100 1.559400
56.926300 1.520000
56.966500 1.523100
57.006700 1.481700
57.046900 1.493000
57.087100 1.513200
57.127300 1.545800
57.167500 1.572000
57.207700 1.612200
57.247900 1.594300
57.288100 1.657200
57.328300 1.821700
57.368500 1.687800
57.408700 1.536500
57.448800 1.411400
57.489000 1.311700
57.529200 1.237100
57.569400 1.189600
57.609600 1.144900
57.649800 1.103800
57.690000 1.068800
57.730200 1.042700
57.770400 1.031000
57.810600 1.045800
57.850800 0.988500
57.891000 0.974800
57.931200 0.975900
57.971400 0.992200
58.011600 1.006900
58.051800 0.990500
58.092000 0.961500
58.132200 0.931600
58.172400 0.887000
58.212600 0.857900
58.252800 0.820800
58.293000 0.785200
58.333200 0.764300
58.373400 0.751600
58.413600 0.743000
58.453800 0.738100
58.493900 0.744700
58.534100 0.739000
58.574300 0.712400
58.614500 0.675300
58.654700 0.630300
58.694900 0.580100
58.735100 0.539600
58.775300 0.523300
58.815500 0.517600
58.855700 0.510000
58.895900 0.503600
58.936100 0.497200
58.976300 0.488900
59.016500 0.482800
59.056700 0.472300
59.096900 0.460700
59.137100 0.463000
59.177300 0.456000
59.217500 0.439600
59.257700 0.427000
59.297900 0.416500
59.338100 0.411200
59.378300 0.405800
59.418500 0.391500
59.458700 0.368300
59.498900 0.347800
59.539000 0.342500
59.579200 0.345600
59.619400 0.308300
59.659600 0.292300
59.699800 0.279800
59.740000 0.265900
59.780200 0.249800
59.820400 0.234400
59.860600 0.220700
59.900800 0.212000
59.941000 0.205600
59.981200 0.187100
60.021400 0.175500
60.061600 0.169300
60.101800 0.164300
60.142000 0.158900
60.182200 0.153200
60.222400 0.147600
60.262600 0.142500
60.302800 0.137900
60.343000 0.134000
60.383200 0.130600
60.423400 0.126500
60.463600 0.121700
60.503800 0.116800
60.544000 0.111900
60.584100 0.106700
60.624300 0.101200
60.664500 0.095500
60.704700 0.089600
60.744900 0.083400
60.785100 0.079900
60.825300 0.076500
60.865500 0.072900
60.905700 0.068700
60.945900 0.063400
60.986100 0.071600
61.026300 0.059000
61.066500 0.048000
61.106700 0.039400
61.146900 0.032700
61.187100 0.027800
61.227300 0.024700
61.267500 0.022700
61.307700 0.020800
61.347900 0.019200
61.388100 0.017700
61.428300 0.016500
61.468500 0.015400
61.508700 0.014500
61.548900 0.013600
61.589100 0.012700
61.629200 0.011900
61.669400 0.011100
61.709600 0.010300
61.749800 0.009600
61.790000 0.008800
61.830200 0.008200
61.870400 0.007500
61.910600 0.007000
61.950800 0.006500
61.991000 0.006000
62.031200 0.005700
62.071400 0.005300
62.111600 0.005000
62.151800 0.004600
62.192000 0.004300
62.232200 0.004000
62.272400 0.003600
62.312600 0.003300
62.352800 0.003000
62.393000 0.002700
62.433200 0.002400
62.473400 0.002200
62.513600 0.001900
62.553800 0.001600
62.594000 0.001400
62.634200 0.001200
62.674300 0.000900
62.714500 0.000700
62.754700 0.000500
62.794900 0.000300
62.835100 0.000100
62.875300 0.000000
62.915500 0.000000
62.955700 0.000000
62.995900 0.000000
63.036100 0.000000
63.076300 0.000000
63.116500 0.000000
63.156700 0.000000
63.196900 0.000000
63.237100 0.000000
63.277300 0.000000
63.317500 0.000000
63.357700 0.000000
63.397900 0.000000
63.438100 0.000000
63.478300 0.000000
63.518500 0.000000
63.558700 0.000000
63.598900 0.000000
63.639100 0.000000
63.679300 0.000000
63.719400 0.000000
63.759600 0.000000
63.799800 0.000000
63.840000 0.000000
63.880200 0.000000
63.920400 0.000000
63.960600 0.000000
64.000800 0.000000
64.041000 0.000000
64.081200 0.000000
64.121400 0.000000
64.161600 0.000000
64.201800 0.000000
64.242000 0.000000
64.282200 0.000000
64.322400 0.000000
64.362600 0.000000
64.402800 0.000000
64.443000 0.000000
64.483200 0.000000
64.523400 0.000000
64.563600 0.000000
64.603800 0.000000
64.644000 0.000000
64.684200 0.000000
64.724400 0.000000
64.764500 0.000000
64.804700 0.000000
64.844900 0.000000
64.885100 0.000000
64.925300 0.000000
64.965500 0.000000
65.005700 0.000000
65.045900 0.000000
65.086100 0.000000
65.126300 0.000000
65.166500 0.000000
65.206700 0.000000
65.246900 0.000000
65.287100 0.000000
65.327300 0.000000
65.367500 0.000000
65.407700 0.000000
65.447900 0.000000
65.488100 0.000000
65.528300 0.000000
65.568500 0.000000
65.608700 0.000000
65.648900 0.000000
65.689100 0.000000
65.729300 0.000000
65.769500 0.000000
65.809700 0.000000
65.849800 0.000000
65.890000 0.000000
65.930200 0.000000
65.970400 0.000000
66.010600 0.000000
66.050800 0.000000
66.091000 0.000000
66.131200 0.000000
66.171400 0.000000
66.211600 0.000000
66.251800 0.000000
66.292000 0.000000
66.332200 0.000000
66.372400 0.000000
66.412600 0.000000
66.452800 0.000000
66.493000 0.000000
66.533200 0.000000
66.573400 0.000000
e
