set title 'mp-27127 - Density of States'
set xlabel 'Energy (eV)'
set ylabel 'DOS (states/eV)'
set grid
set xrange [-10:10]
set yrange [0:328.535]
set xzeroaxis lt -1
set terminal png size 800,600
set output 'mp-27127_dos_gnuplot.png'
plot '-' using 1:2 with lines title 'DOS'
-18.141300 0.000000
-18.121500 0.000000
-18.101600 0.000000
-18.081800 0.000000
-18.061900 0.000000
-18.042000 0.000000
-18.022200 0.000000
-18.002300 0.000000
-17.982500 0.000000
-17.962600 0.000000
-17.942800 0.000000
-17.922900 0.000000
-17.903100 0.000000
-17.883200 0.000000
-17.863300 0.000000
-17.843500 0.000000
-17.823600 0.000000
-17.803800 0.000000
-17.783900 0.000000
-17.764100 0.000000
-17.744200 0.000000
-17.724400 0.000000
-17.704500 0.000000
-17.684600 0.000000
-17.664800 0.000000
-17.644900 0.000000
-17.625100 0.000000
-17.605200 0.000000
-17.585400 0.000000
-17.565500 0.000000
-17.545700 0.000000
-17.525800 0.000000
-17.505900 0.000000
-17.486100 0.000000
-17.466200 0.000000
-17.446400 0.000000
-17.426500 0.000000
-17.406700 0.000000
-17.386800 0.000000
-17.366900 0.000000
-17.347100 0.000000
-17.327200 0.000000
-17.307400 0.000000
-17.287500 0.000000
-17.267700 0.000000
-17.247800 0.000000
-17.228000 0.000000
-17.208100 0.000000
-17.188200 0.000000
-17.168400 0.000000
-17.148500 0.000000
-17.128700 0.000000
-17.108800 0.000000
-17.089000 0.000000
-17.069100 0.000000
-17.049300 0.000000
-17.029400 0.000000
-17.009500 0.000000
-16.989700 0.000000
-16.969800 0.000000
-16.950000 0.000000
-16.930100 0.000000
-16.910300 0.000000
-16.890400 0.000000
-16.870600 0.000000
-16.850700 0.000000
-16.830800 0.000000
-16.811000 0.000000
-16.791100 0.000000
-16.771300 0.000000
-16.751400 0.000000
-16.731600 0.000000
-16.711700 0.000000
-16.691900 0.000000
-16.672000 0.000000
-16.652100 0.000000
-16.632300 0.000000
-16.612400 0.000000
-16.592600 0.000000
-16.572700 0.000000
-16.552900 0.000000
-16.533000 0.000000
-16.513200 0.000000
-16.493300 0.000000
-16.473400 0.000000
-16.453600 0.000000
-16.433700 0.000000
-16.413900 0.000000
-16.394000 0.000000
-16.374200 0.000000
-16.354300 0.000000
-16.334400 0.002300
-16.314600 0.326200
-16.294700 1.198400
-16.274900 2.800400
-16.255000 4.921000
-16.235200 7.055300
-16.215300 9.203300
-16.195500 11.852100
-16.175600 15.401700
-16.155700 13.751500
-16.135900 11.481500
-16.116000 9.173600
-16.096200 6.827800
-16.076300 4.444300
-16.056500 2.022900
-16.036600 0.000000
-16.016800 0.000000
-15.996900 1.451400
-15.977000 3.432200
-15.957200 5.409000
-15.937300 7.381700
-15.917500 9.350200
-15.897600 11.314700
-15.877800 13.275000
-15.857900 14.743100
-15.838100 7.493700
-15.818200 5.852400
-15.798300 5.146500
-15.778500 4.439900
-15.758600 3.732900
-15.738800 3.025200
-15.718900 2.317000
-15.699100 1.608200
-15.679200 0.898800
-15.659400 0.188900
-15.639500 0.000000
-15.619600 0.000000
-15.599800 0.000000
-15.579900 0.000000
-15.560100 0.000000
-15.540200 0.781100
-15.520400 2.180700
-15.500500 3.579100
-15.480700 4.976400
-15.460800 6.372600
-15.440900 7.767600
-15.421100 9.161400
-15.401200 10.554100
-15.381400 11.945600
-15.361500 12.211900
-15.341700 6.446100
-15.321800 5.719100
-15.302000 4.992100
-15.282100 4.265100
-15.262200 8.207900
-15.242400 17.931200
-15.222500 21.784700
-15.202700 16.593200
-15.182800 11.326700
-15.163000 6.994500
-15.143100 5.927900
-15.123200 5.239500
-15.103400 4.550500
-15.083500 3.861000
-15.063700 3.170800
-15.043800 2.480100
-15.024000 1.788800
-15.004100 1.096800
-14.984300 0.404300
-14.964400 0.000000
-14.944500 0.623200
-14.924700 1.656800
-14.904800 2.689900
-14.885000 3.722500
-14.865100 4.754600
-14.845300 5.786200
-14.825400 7.900600
-14.805600 12.006900
-14.785700 16.448600
-14.765800 20.916300
-14.746000 25.597600
-14.726100 13.931300
-14.706300 5.877600
-14.686400 7.082900
-14.666600 8.289300
-14.646700 12.207400
-14.626900 14.143100
-14.607000 13.595200
-14.587100 13.214800
-14.567300 12.898400
-14.547400 12.581700
-14.527600 12.264700
-14.507700 14.829300
-14.487900 24.842600
-14.468000 22.816500
-14.448200 18.061800
-14.428300 13.911200
-14.408400 10.282300
-14.388600 41.835000
-14.368700 51.585400
-14.348900 0.000000
-14.329000 0.000000
-14.309200 0.000000
-14.289300 0.000000
-14.269500 0.000000
-14.249600 0.000000
-14.229700 0.000000
-14.209900 0.000000
-14.190000 0.000000
-14.170200 0.000000
-14.150300 0.000000
-14.130500 0.000000
-14.110600 0.000000
-14.090700 0.000000
-14.070900 0.000000
-14.051000 0.000000
-14.031200 7.664900
-14.011300 61.019500
-13.991500 30.784700
-13.971600 5.625500
-13.951800 53.938300
-13.931900 8.975000
-13.912000 66.055000
-13.892200 20.780100
-13.872300 13.360700
-13.852500 8.693100
-13.832600 3.991700
-13.812800 0.322700
-13.792900 0.000000
-13.773100 7.591000
-13.753200 49.856000
-13.733300 18.375200
-13.713500 9.854500
-13.693600 11.197600
-13.673800 13.839200
-13.653900 16.541300
-13.634100 19.243900
-13.614200 21.947200
-13.594400 26.257600
-13.574500 27.735500
-13.554600 14.919600
-13.534800 10.766000
-13.514900 12.114700
-13.495100 16.730300
-13.475200 14.352400
-13.455400 8.350700
-13.435500 2.031700
-13.415700 18.378800
-13.395800 20.052700
-13.375900 16.283000
-13.356100 15.390700
-13.336200 11.844600
-13.316400 8.260300
-13.296500 4.637900
-13.276700 57.244000
-13.256800 35.866500
-13.237000 8.512900
-13.217100 6.077500
-13.197200 81.109800
-13.177400 21.047000
-13.157500 8.797700
-13.137700 11.509000
-13.117800 88.323100
-13.098000 0.000000
-13.078100 0.000000
-13.058300 0.000000
-13.038400 0.000000
-13.018500 0.000000
-12.998700 0.000000
-12.978800 0.000000
-12.959000 0.000000
-12.939100 0.000000
-12.919300 0.000000
-12.899400 0.000000
-12.879500 0.000000
-12.859700 0.000000
-12.839800 0.000000
-12.820000 0.000000
-12.800100 0.000000
-12.780300 0.000000
-12.760400 0.000000
-12.740600 0.000000
-12.720700 0.000000
-12.700800 0.000000
-12.681000 0.000000
-12.661100 0.000000
-12.641300 0.000000
-12.621400 0.000000
-12.601600 0.000000
-12.581700 0.000000
-12.561900 0.000000
-12.542000 0.000000
-12.522100 0.000000
-12.502300 0.000000
-12.482400 0.000000
-12.462600 0.000000
-12.442700 0.000000
-12.422900 0.000000
-12.403000 0.000000
-12.383200 0.000000
-12.363300 0.000000
-12.343400 0.000000
-12.323600 0.000000
-12.303700 0.000000
-12.283900 0.000000
-12.264000 0.000000
-12.244200 0.000000
-12.224300 0.000000
-12.204500 0.000000
-12.184600 0.000000
-12.164700 0.000000
-12.144900 0.000000
-12.125000 0.000000
-12.105200 0.000000
-12.085300 0.000000
-12.065500 0.000000
-12.045600 0.000000
-12.025800 0.000000
-12.005900 0.000000
-11.986000 0.000000
-11.966200 0.000000
-11.946300 0.000000
-11.926500 0.000000
-11.906600 0.000000
-11.886800 0.000000
-11.866900 0.000000
-11.847000 0.000000
-11.827200 0.000000
-11.807300 0.000000
-11.787500 0.000000
-11.767600 0.000000
-11.747800 0.000000
-11.727900 0.000000
-11.708100 0.000000
-11.688200 0.000000
-11.668300 0.000000
-11.648500 0.000000
-11.628600 0.000000
-11.608800 0.000000
-11.588900 0.000000
-11.569100 0.000000
-11.549200 0.000000
-11.529400 0.000000
-11.509500 0.000000
-11.489600 0.000000
-11.469800 0.000000
-11.449900 0.000000
-11.430100 0.000000
-11.410200 0.000000
-11.390400 0.000000
-11.370500 0.000000
-11.350700 0.000000
-11.330800 0.000000
-11.310900 0.000000
-11.291100 0.000000
-11.271200 0.000000
-11.251400 0.000000
-11.231500 0.000000
-11.211700 0.000000
-11.191800 0.000000
-11.172000 0.000000
-11.152100 0.000000
-11.132200 0.000000
-11.112400 0.000000
-11.092500 0.000000
-11.072700 0.000000
-11.052800 0.000000
-11.033000 0.000000
-11.013100 0.000000
-10.993300 0.000000
-10.973400 0.000000
-10.953500 0.000000
-10.933700 0.000000
-10.913800 0.000000
-10.894000 0.000000
-10.874100 0.000000
-10.854300 0.000000
-10.834400 0.000000
-10.814600 0.000000
-10.794700 0.000000
-10.774800 0.000000
-10.755000 0.000000
-10.735100 0.000000
-10.715300 0.000000
-10.695400 0.000000
-10.675600 0.000000
-10.655700 0.000000
-10.635800 0.000000
-10.616000 0.000000
-10.596100 0.000000
-10.576300 0.000000
-10.556400 0.000000
-10.536600 0.000000
-10.516700 0.000000
-10.496900 0.000000
-10.477000 0.000000
-10.457100 0.000000
-10.437300 0.000000
-10.417400 0.000000
-10.397600 0.000000
-10.377700 0.000000
-10.357900 0.000000
-10.338000 0.000000
-10.318200 0.000000
-10.298300 0.000000
-10.278400 0.000000
-10.258600 0.000000
-10.238700 0.000000
-10.218900 0.000000
-10.199000 0.000000
-10.179200 0.000000
-10.159300 0.000000
-10.139500 0.000000
-10.119600 0.000000
-10.099700 0.000000
-10.079900 0.000000
-10.060000 0.000000
-10.040200 0.000000
-10.020300 0.000000
-10.000500 0.000000
-9.980600 0.000000
-9.960800 0.000000
-9.940900 0.000000
-9.921000 0.000000
-9.901200 0.000000
-9.881300 0.000000
-9.861500 0.000000
-9.841600 0.000000
-9.821800 0.000000
-9.801900 0.000000
-9.782100 0.000000
-9.762200 0.000000
-9.742300 0.000000
-9.722500 0.000000
-9.702600 0.000000
-9.682800 0.000000
-9.662900 0.000000
-9.643100 0.000000
-9.623200 0.000000
-9.603300 0.000000
-9.583500 0.000000
-9.563600 0.000000
-9.543800 0.000000
-9.523900 0.000000
-9.504100 0.000000
-9.484200 0.000000
-9.464400 0.000000
-9.444500 0.000000
-9.424600 0.000000
-9.404800 0.000000
-9.384900 0.000000
-9.365100 0.000000
-9.345200 0.000000
-9.325400 0.000000
-9.305500 0.000000
-9.285700 0.000000
-9.265800 0.000000
-9.245900 0.000000
-9.226100 0.000000
-9.206200 0.000000
-9.186400 0.000000
-9.166500 0.000000
-9.146700 0.000000
-9.126800 0.000000
-9.107000 0.000000
-9.087100 0.000000
-9.067200 0.000000
-9.047400 0.000000
-9.027500 0.000000
-9.007700 0.000000
-8.987800 0.000000
-8.968000 0.000000
-8.948100 0.000000
-8.928300 0.000000
-8.908400 0.000000
-8.888500 0.000000
-8.868700 0.000000
-8.848800 0.000000
-8.829000 0.000000
-8.809100 0.000000
-8.789300 0.000000
-8.769400 0.000000
-8.749600 0.000000
-8.729700 0.000000
-8.709800 0.000000
-8.690000 0.000000
-8.670100 0.000000
-8.650300 0.000000
-8.630400 0.000000
-8.610600 0.000000
-8.590700 0.000000
-8.570800 0.000000
-8.551000 0.000000
-8.531100 0.000000
-8.511300 0.000000
-8.491400 0.000000
-8.471600 0.000000
-8.451700 0.000000
-8.431900 0.000000
-8.412000 0.000000
-8.392100 0.000000
-8.372300 0.000000
-8.352400 0.000000
-8.332600 0.000000
-8.312700 0.000000
-8.292900 0.000000
-8.273000 0.000000
-8.253200 0.000000
-8.233300 0.000000
-8.213400 0.000000
-8.193600 0.000000
-8.173700 0.000000
-8.153900 0.000000
-8.134000 0.000000
-8.114200 0.000000
-8.094300 0.000000
-8.074500 0.000000
-8.054600 0.000000
-8.034700 0.134300
-8.014900 0.576900
-7.995000 1.483600
-7.975200 2.499300
-7.955300 3.520000
-7.935500 4.545600
-7.915600 5.576100
-7.895800 6.611500
-7.875900 7.750900
-7.856000 11.712200
-7.836200 11.158500
-7.816300 9.937400
-7.796500 8.713400
-7.776600 7.486700
-7.756800 6.257000
-7.736900 5.024500
-7.717100 3.789200
-7.697200 2.551000
-7.677300 1.309900
-7.657500 0.066000
-7.637600 0.708800
-7.617800 1.699800
-7.597900 2.688800
-7.578100 3.675900
-7.558200 4.660900
-7.538400 5.644000
-7.518500 6.625100
-7.498600 7.703200
-7.478800 11.060000
-7.458900 17.801000
-7.439100 24.838900
-7.419200 13.142600
-7.399400 1.518300
-7.379500 0.000000
-7.359600 0.000000
-7.339800 0.000000
-7.319900 0.000000
-7.300100 0.000000
-7.280200 0.000000
-7.260400 0.000000
-7.240500 0.000000
-7.220700 0.000000
-7.200800 0.000000
-7.180900 0.000000
-7.161100 3.046800
-7.141200 9.330700
-7.121400 15.947800
-7.101500 19.653700
-7.081700 15.829500
-7.061800 11.855600
-7.042000 7.731800
-7.022100 3.458200
-7.002200 2.387500
-6.982400 2.152700
-6.962500 1.918200
-6.942700 1.683800
-6.922800 1.449700
-6.903000 1.215700
-6.883100 0.982000
-6.863300 3.819400
-6.843400 24.884400
-6.823500 22.610400
-6.803700 14.281800
-6.783800 8.844800
-6.764000 7.508200
-6.744100 6.169300
-6.724300 4.828000
-6.704400 3.484300
-6.684600 2.138300
-6.664700 0.789900
-6.644800 0.000000
-6.625000 0.018900
-6.605100 0.123500
-6.585300 0.228100
-6.565400 0.332700
-6.545600 0.437300
-6.525700 0.541900
-6.505900 0.646400
-6.486000 0.750900
-6.466100 0.855500
-6.446300 0.960000
-6.426400 1.064500
-6.406600 1.169000
-6.386700 1.273400
-6.366900 1.377900
-6.347000 1.501400
-6.327100 1.666000
-6.307300 1.850200
-6.287400 2.054000
-6.267600 2.277200
-6.247700 2.520000
-6.227900 2.781900
-6.208000 3.051600
-6.188200 3.324000
-6.168300 3.599200
-6.148400 3.877000
-6.128600 4.157600
-6.108700 4.440900
-6.088900 4.726900
-6.069000 5.015600
-6.049200 5.307000
-6.029300 5.601200
-6.009500 5.898000
-5.989600 6.197600
-5.969700 6.499900
-5.949900 6.142900
-5.930000 4.674000
-5.910200 3.238000
-5.890300 0.983200
-5.870500 4.989200
-5.850600 7.774900
-5.830800 8.181000
-5.810900 7.724200
-5.791000 7.267000
-5.771200 6.809400
-5.751300 6.351600
-5.731500 5.893300
-5.711600 5.434800
-5.691800 4.975900
-5.671900 4.516600
-5.652100 4.057000
-5.632200 3.597100
-5.612300 3.136800
-5.592500 2.703000
-5.572600 2.421700
-5.552800 2.333800
-5.532900 2.432800
-5.513100 2.531600
-5.493200 2.630200
-5.473400 2.728500
-5.453500 2.826700
-5.433600 2.924600
-5.413800 3.022300
-5.393900 3.119800
-5.374100 3.217100
-5.354200 3.314200
-5.334400 3.411000
-5.314500 3.610600
-5.294700 4.016500
-5.274800 4.424600
-5.254900 4.725100
-5.235100 4.918000
-5.215200 6.015800
-5.195400 5.726100
-5.175500 5.398700
-5.155700 5.070700
-5.135800 4.742400
-5.115900 4.413600
-5.096100 4.084400
-5.076200 3.754800
-5.056400 3.424800
-5.036500 3.094300
-5.016700 2.763400
-4.996800 2.432100
-4.977000 2.100400
-4.957100 1.768200
-4.937200 1.435600
-4.917400 1.102600
-4.897500 0.769200
-4.877700 0.435300
-4.857800 0.101000
-4.838000 0.000000
-4.818100 0.000000
-4.798300 0.000000
-4.778400 0.000000
-4.758500 0.048800
-4.738700 0.135800
-4.718800 0.222600
-4.699000 0.309300
-4.679100 0.395900
-4.659300 0.482400
-4.639400 0.568700
-4.619600 0.655000
-4.599700 0.741100
-4.579800 0.827100
-4.560000 0.912900
-4.540100 0.998600
-4.520300 1.084300
-4.500400 1.169700
-4.480600 1.255100
-4.460700 1.340300
-4.440900 1.425500
-4.421000 1.510400
-4.401100 1.595300
-4.381300 1.680100
-4.361400 1.764700
-4.341600 1.849200
-4.321700 1.933600
-4.301900 2.017800
-4.282000 2.101900
-4.262200 2.186000
-4.242300 2.269800
-4.222400 2.353600
-4.202600 2.437200
-4.182700 2.520700
-4.162900 2.604100
-4.143000 2.687400
-4.123200 2.770500
-4.103300 2.853600
-4.083400 2.926900
-4.063600 2.912700
-4.043700 2.832500
-4.023900 2.686200
-4.004000 2.473800
-3.984200 2.195400
-3.964300 1.894900
-3.944500 1.724300
-3.924600 1.560800
-3.904700 1.404400
-3.884900 1.255100
-3.865000 1.198400
-3.845200 1.171600
-3.825300 1.144700
-3.805500 1.117800
-3.785600 1.090900
-3.765800 1.064000
-3.745900 1.037100
-3.726000 1.010200
-3.706200 0.983200
-3.686300 0.956300
-3.666500 0.929300
-3.646600 0.902300
-3.626800 0.875300
-3.606900 0.848300
-3.587100 0.821200
-3.567200 0.794200
-3.547300 0.767100
-3.527500 0.740000
-3.507600 0.712900
-3.487800 0.685800
-3.467900 0.658700
-3.448100 0.631500
-3.428200 0.604400
-3.408400 0.577200
-3.388500 0.550000
-3.368600 0.522800
-3.348800 0.495600
-3.328900 0.468300
-3.309100 0.441100
-3.289200 0.413800
-3.269400 0.386500
-3.249500 0.359300
-3.229700 0.331900
-3.209800 0.304600
-3.189900 0.277300
-3.170100 0.249900
-3.150200 0.222500
-3.130400 0.195200
-3.110500 0.167800
-3.090700 0.140300
-3.070800 0.112900
-3.051000 0.085500
-3.031100 0.058000
-3.011200 0.031100
-2.991400 0.014700
-2.971500 0.004400
-2.951700 0.000100
-2.931800 1.031400
-2.912000 21.478700
-2.892100 26.015200
-2.872200 17.000200
-2.852400 12.858800
-2.832500 9.631900
-2.812700 7.130500
-2.792800 4.675600
-2.773000 2.206100
-2.753100 0.000000
-2.733300 0.000000
-2.713400 0.000000
-2.693500 4.160800
-2.673700 67.863800
-2.653800 26.062900
-2.634000 0.365800
-2.614100 0.000000
-2.594300 0.000000
-2.574400 0.000000
-2.554600 0.794000
-2.534700 1.992800
-2.514800 3.300700
-2.495000 4.717700
-2.475100 6.243800
-2.455300 23.967000
-2.435400 29.704200
-2.415600 26.368300
-2.395700 17.984900
-2.375900 5.180400
-2.356000 6.697100
-2.336100 9.637600
-2.316300 19.709800
-2.296400 30.891300
-2.276600 27.380600
-2.256700 11.717500
-2.236900 6.355700
-2.217000 11.593300
-2.197200 14.403300
-2.177300 16.523600
-2.157400 15.708600
-2.137600 11.962700
-2.117700 8.062900
-2.097900 4.009000
-2.078000 1.549400
-2.058200 1.642900
-2.038300 1.736400
-2.018500 3.569500
-1.998600 5.794100
-1.978700 8.010200
-1.958900 10.217800
-1.939000 12.416800
-1.919200 14.607200
-1.899300 16.789200
-1.879500 8.630400
-1.859600 3.292700
-1.839700 0.000000
-1.819900 0.000000
-1.800000 0.000000
-1.780200 0.024700
-1.760300 0.414900
-1.740500 1.279100
-1.720600 2.617500
-1.700800 4.448800
-1.680900 7.113600
-1.661000 10.623800
-1.641200 17.438200
-1.621300 21.150300
-1.601500 16.238400
-1.581600 8.897100
-1.561800 2.467200
-1.541900 3.942000
-1.522100 5.281500
-1.502200 6.485500
-1.482300 7.554100
-1.462500 8.487300
-1.442600 9.760500
-1.422800 11.388400
-1.402900 12.377100
-1.383100 12.726500
-1.363200 12.561000
-1.343400 11.930800
-1.323500 6.638000
-1.303600 16.625600
-1.283800 14.344400
-1.263900 13.771300
-1.244100 12.848300
-1.224200 11.163800
-1.204400 11.012400
-1.184500 22.383400
-1.164700 25.268200
-1.144800 22.176100
-1.124900 17.599600
-1.105100 14.655800
-1.085200 12.818600
-1.065400 1.541400
-1.045500 1.995300
-1.025700 2.460700
-1.005800 2.954700
-0.986000 3.450300
-0.966100 3.944800
-0.946200 4.438200
-0.926400 4.930700
-0.906500 6.390100
-0.886700 8.127500
-0.866800 9.612300
-0.847000 11.490100
-0.827100 10.441300
-0.807300 9.389200
-0.787400 8.334000
-0.767500 7.275500
-0.747700 6.213800
-0.727800 5.148800
-0.708000 4.080700
-0.688100 3.009300
-0.668300 1.934700
-0.648400 1.823000
-0.628500 1.909500
-0.608700 1.995900
-0.588800 16.065300
-0.569000 14.651700
-0.549100 12.206500
-0.529300 10.868400
-0.509400 8.641200
-0.489600 6.244500
-0.469700 5.331600
-0.449800 22.118900
-0.430000 20.139700
-0.410100 15.881300
-0.390300 10.306000
-0.370400 6.057800
-0.350600 3.462600
-0.330700 3.215300
-0.310900 15.794800
-0.291000 58.124800
-0.271100 8.215300
-0.251300 10.068200
-0.231400 11.971000
-0.211600 13.856700
-0.191700 15.725100
-0.171900 17.576300
-0.152000 19.410300
-0.132200 16.071800
-0.112300 12.140700
-0.092400 10.564400
-0.072600 9.526900
-0.052700 9.223600
-0.032900 9.176900
-0.013000 9.362500
0.006800 9.779300
0.026700 10.427300
0.046500 10.996200
0.066400 9.723600
0.086300 9.666800
0.106100 8.344400
0.126000 6.330000
0.145800 4.450300
0.165700 2.406900
0.185500 20.399200
0.205400 122.670000
0.225200 13.866200
0.245100 0.000000
0.265000 0.000000
0.284800 2.176900
0.304700 18.861700
0.324500 39.807500
0.344400 28.555100
0.364200 6.028300
0.384100 4.289200
0.404000 2.651700
0.423800 3.583500
0.443700 5.372200
0.463500 16.916100
0.483400 20.848200
0.503200 21.292100
0.523100 18.247700
0.542900 18.180700
0.562800 12.567700
0.582700 16.636100
0.602500 17.705000
0.622400 14.907400
0.642200 10.705300
0.662100 6.025200
0.681900 4.184300
0.701800 3.476700
0.721600 2.763800
0.741500 33.498700
0.761400 21.457300
0.781200 15.956600
0.801100 6.998000
0.820900 5.316700
0.840800 6.057900
0.860600 7.176300
0.880500 8.473000
0.900300 9.917200
0.920200 11.492200
0.940100 13.198100
0.959900 9.114500
0.979800 7.872000
0.999600 6.682000
1.019500 5.544400
1.039300 4.459300
1.059200 3.426600
1.079000 2.464300
1.098900 3.768600
1.118800 5.720300
1.138600 7.120400
1.158500 10.463300
1.178300 16.107000
1.198200 16.520000
1.218000 15.772000
1.237900 20.263800
1.257700 19.069800
1.277600 9.632000
1.297500 11.533600
1.317300 14.516700
1.337200 17.491100
1.357000 25.356400
1.376900 7.211700
1.396700 7.360300
1.416600 11.769500
1.436500 34.241500
1.456300 31.516000
1.476200 18.173600
1.496000 5.896200
1.515900 6.645700
1.535700 63.238600
1.555600 7.545300
1.575400 6.651300
1.595300 14.622200
1.615200 25.353700
1.635000 104.057000
1.654900 8.255300
1.674700 5.366200
1.694600 4.531700
1.714400 35.968200
1.734300 33.413000
1.754100 20.160600
1.774000 9.566700
1.793900 4.647700
1.813700 12.442000
1.833600 23.438900
1.853400 52.497800
1.873300 58.587800
1.893100 32.266500
1.913000 10.483000
1.932800 45.219100
1.952700 41.257400
1.972600 34.093700
1.992400 11.442400
2.012300 6.208000
2.032100 38.231100
2.052000 49.292200
2.071800 46.780200
2.091700 39.886100
2.111500 28.797900
2.131400 9.369900
2.151300 47.546700
2.171100 46.636100
2.191000 21.088500
2.210800 29.009700
2.230700 26.985600
2.250500 12.942000
2.270400 0.000000
2.290200 0.000000
2.310100 58.315700
2.330000 36.204800
2.349800 18.277000
2.369700 54.610300
2.389500 31.511400
2.409400 25.408000
2.429200 18.246100
2.449100 17.671300
2.468900 16.705600
2.488800 51.257200
2.508700 47.384000
2.528500 21.939700
2.548400 18.359000
2.568200 85.396300
2.588100 35.278500
2.607900 10.740000
2.627800 71.587100
2.647700 6.565200
2.667500 96.137600
2.687400 17.529100
2.707200 37.822500
2.727100 298.668100
2.746900 14.213700
2.766800 66.191900
2.786600 7.064600
2.806500 65.096400
2.826400 21.602100
2.846200 29.879400
2.866100 50.645100
2.885900 19.099700
2.905800 28.063100
2.925600 34.146600
2.945500 18.115800
2.965300 7.500700
2.985200 67.702500
3.005100 35.292000
3.024900 6.864400
3.044800 4.561900
3.064600 3.691600
3.084500 7.306700
3.104300 25.799200
3.124200 59.956300
3.144000 24.369200
3.163900 21.641900
3.183800 38.444900
3.203600 34.606000
3.223500 27.678100
3.243300 23.312100
3.263200 31.606500
3.283000 53.666800
3.302900 19.967800
3.322700 28.744500
3.342600 0.000000
3.362500 0.000000
3.382300 0.000000
3.402200 0.000000
3.422000 0.000000
3.441900 0.000000
3.461700 0.000000
3.481600 0.000000
3.501400 0.000000
3.521300 0.000000
3.541200 0.000000
3.561000 0.000000
3.580900 0.000000
3.600700 0.000000
3.620600 0.000000
3.640400 0.000000
3.660300 0.000000
3.680200 0.000000
3.700000 0.000000
3.719900 0.000000
3.739700 0.000000
3.759600 0.000000
3.779400 0.000000
3.799300 0.000000
3.819100 0.000000
3.839000 0.000000
3.858900 0.000000
3.878700 0.000000
3.898600 0.000000
3.918400 0.000000
3.938300 0.000000
3.958100 0.000000
3.978000 0.000000
3.997800 0.000000
4.017700 0.000000
4.037600 0.000000
4.057400 0.000000
4.077300 0.000000
4.097100 0.000000
4.117000 0.000000
4.136800 0.000000
4.156700 0.000000
4.176500 0.000000
4.196400 0.000000
4.216300 0.000000
4.236100 0.000000
4.256000 0.000000
4.275800 0.000000
4.295700 0.000000
4.315500 0.000000
4.335400 0.000000
4.355200 0.000000
4.375100 0.000000
4.395000 0.000000
4.414800 0.000000
4.434700 0.000000
4.454500 0.000000
4.474400 0.000000
4.494200 0.000000
4.514100 0.000000
4.533900 0.000000
4.553800 0.000000
4.573700 0.000000
4.593500 0.000000
4.613400 0.000000
4.633200 0.000000
4.653100 0.000000
4.672900 0.000000
4.692800 0.000000
4.712600 0.000000
4.732500 0.000000
4.752400 0.000000
4.772200 0.000000
4.792100 0.000000
4.811900 0.000000
4.831800 0.000000
4.851600 0.000000
4.871500 0.000000
4.891400 0.000000
4.911200 0.000000
4.931100 0.000000
4.950900 0.000000
4.970800 0.000000
4.990600 0.000000
5.010500 0.000000
5.030300 0.000000
5.050200 0.000000
5.070100 0.000000
5.089900 0.000000
5.109800 0.000000
5.129600 0.000000
5.149500 0.000000
5.169300 0.000000
5.189200 0.000000
5.209000 0.000000
5.228900 0.000000
5.248800 0.000000
5.268600 0.000000
5.288500 0.000000
5.308300 0.000000
5.328200 0.000000
5.348000 0.000000
5.367900 0.000000
5.387700 0.000000
5.407600 0.000000
5.427500 0.000000
5.447300 0.000000
5.467200 0.000000
5.487000 0.000000
5.506900 0.000000
5.526700 0.000000
5.546600 0.000000
5.566400 0.000000
5.586300 0.000000
5.606200 0.000000
5.626000 0.000000
5.645900 0.000000
5.665700 0.000000
5.685600 0.000000
5.705400 0.077600
5.725300 0.517700
5.745100 0.974500
5.765000 1.448000
5.784900 1.938200
5.804700 2.445000
5.824600 2.968600
5.844400 3.508800
5.864300 5.087600
5.884100 7.415800
5.904000 10.461000
5.923900 10.747100
5.943700 10.979700
5.963600 11.275800
5.983400 11.635500
6.003300 12.765700
6.023100 5.294900
6.043000 1.255500
6.062800 0.170800
6.082700 0.000000
6.102600 6.452800
6.122400 9.424200
6.142300 10.641700
6.162100 11.058000
6.182000 10.673200
6.201800 9.487200
6.221700 7.882400
6.241500 7.103000
6.261400 6.229300
6.281300 5.261000
6.301100 4.198300
6.321000 3.041100
6.340800 2.303000
6.360700 1.913800
6.380500 1.560500
6.400400 1.243300
6.420200 0.962100
6.440100 0.716800
6.460000 0.507600
6.479800 0.334400
6.499700 0.197200
6.519500 0.096100
6.539400 0.030900
6.559200 0.001700
6.579100 0.000000
6.598900 0.000000
6.618800 0.000000
6.638700 0.000000
6.658500 0.000000
6.678400 0.000000
6.698200 0.000000
6.718100 0.000000
6.737900 0.000000
6.757800 0.000000
6.777600 0.000000
6.797500 0.000000
6.817400 0.000000
6.837200 0.000000
6.857100 0.000000
6.876900 0.000000
6.896800 0.000000
6.916600 0.000000
6.936500 0.001000
6.956300 0.005900
6.976200 0.014700
6.996100 0.027500
7.015900 0.044400
7.035800 0.065200
7.055600 0.089900
7.075500 0.118700
7.095300 0.151500
7.115200 0.188200
7.135100 0.228900
7.154900 0.273600
7.174800 0.322300
7.194600 0.375000
7.214500 0.431700
7.234300 0.492300
7.254200 0.557000
7.274000 0.625600
7.293900 0.698200
7.313800 0.774800
7.333600 0.855400
7.353500 0.940000
7.373300 1.028500
7.393200 1.121100
7.413000 1.217600
7.432900 1.318100
7.452700 18.449000
7.472600 18.802800
7.492500 19.974200
7.512300 17.862600
7.532200 10.686400
7.552000 8.992000
7.571900 8.849800
7.591700 10.596600
7.611600 12.016100
7.631400 22.857900
7.651300 19.048000
7.671200 12.250800
7.691000 4.996200
7.710900 1.974700
7.730700 4.909300
7.750600 12.332500
7.770400 16.795100
7.790300 18.289700
7.810100 19.438300
7.830000 14.536500
7.849900 9.982800
7.869700 5.777100
7.889600 1.919600
7.909400 0.000000
7.929300 0.019200
7.949100 7.484000
7.969000 23.182300
7.988800 38.814300
8.008700 37.376300
8.028600 5.439700
8.048400 7.690700
8.068300 16.505700
8.088100 24.485500
8.108000 27.803100
8.127800 21.833500
8.147700 13.900000
8.167600 15.320700
8.187400 19.134300
8.207300 14.390700
8.227100 11.544600
8.247000 8.596000
8.266800 5.544900
8.286700 2.391300
8.306500 0.000000
8.326400 0.000000
8.346300 0.000000
8.366100 0.769400
8.386000 5.345100
8.405800 11.367900
8.425700 34.423000
8.445500 26.667300
8.465400 16.921000
8.485200 11.941800
8.505100 10.416300
8.525000 11.486300
8.544800 11.971600
8.564700 11.794200
8.584500 10.954100
8.604400 9.715100
8.624200 8.957100
8.644100 16.584200
8.663900 30.810200
8.683800 37.642100
8.703700 41.268300
8.723500 3.552900
8.743400 2.215900
8.763200 2.668700
8.783100 20.099800
8.802900 19.165400
8.822800 15.095300
8.842600 12.522300
8.862500 9.715100
8.882400 7.210200
8.902200 5.110200
8.922100 3.415200
8.941900 2.125200
8.961800 1.240200
8.981600 0.778300
9.001500 1.037700
9.021300 1.334400
9.041200 1.668300
9.061100 2.039500
9.080900 2.447900
9.100800 42.959900
9.120600 47.234600
9.140500 3.724600
9.160300 5.117300
9.180200 6.330300
9.200100 17.378300
9.219900 29.208000
9.239800 32.448700
9.259600 0.000000
9.279500 0.000000
9.299300 0.000000
9.319200 0.000000
9.339000 0.000000
9.358900 0.000000
9.378800 0.000000
9.398600 0.000000
9.418500 0.000000
9.438300 0.000000
9.458200 0.000000
9.478000 0.000000
9.497900 0.000000
9.517700 0.000000
9.537600 0.000000
9.557500 0.000000
9.577300 0.000000
9.597200 0.000000
9.617000 0.000000
9.636900 0.000000
9.656700 0.000000
9.676600 0.000000
9.696400 0.000000
9.716300 0.000000
9.736200 0.000000
9.756000 0.000000
9.775900 0.000000
9.795700 0.000000
9.815600 0.000000
9.835400 0.000000
9.855300 0.000000
9.875100 3.239000
9.895000 10.179100
9.914900 18.941500
9.934700 22.581500
9.954600 19.190600
9.974400 11.200400
9.994300 3.467900
10.014100 8.082200
10.034000 29.461600
10.053800 48.381700
10.073700 38.493400
10.093600 38.416800
10.113400 29.273900
10.133300 11.053200
10.153100 8.675300
10.173000 6.050700
10.192800 6.615700
10.212700 7.623800
10.232500 8.663300
10.252400 9.734100
10.272300 10.836300
10.292100 11.969800
10.312000 10.887400
10.331800 6.776400
10.351700 5.976100
10.371500 13.199000
10.391400 13.606800
10.411300 15.310500
10.431100 15.836500
10.451000 15.184600
10.470800 13.355000
10.490700 10.347600
10.510500 15.332700
10.530400 0.000000
10.550200 0.000000
10.570100 0.000000
10.590000 0.000000
10.609800 0.000000
10.629700 0.000000
10.649500 0.000000
10.669400 0.000000
10.689200 0.000000
10.709100 0.000000
10.728900 0.000000
10.748800 0.000000
10.768700 0.000000
10.788500 0.000000
10.808400 22.648200
10.828200 20.179200
10.848100 17.350300
10.867900 11.932100
10.887800 8.185300
10.907600 4.669200
10.927500 3.068900
10.947400 2.193600
10.967200 1.465000
10.987100 0.882900
11.006900 0.447400
11.026800 0.158500
11.046600 0.016200
11.066500 0.000000
11.086300 0.000000
11.106200 0.000000
11.126100 0.000000
11.145900 0.000000
11.165800 0.000000
11.185600 0.000000
11.205500 0.000000
11.225300 0.000000
11.245200 0.000000
11.265000 0.000000
11.284900 0.000000
11.304800 0.000000
11.324600 0.000000
11.344500 0.000000
11.364300 0.000000
11.384200 0.000000
11.404000 0.000000
11.423900 0.000000
11.443800 0.000000
11.463600 11.012300
11.483500 21.170300
11.503300 14.923500
11.523200 11.856400
11.543000 9.194000
11.562900 6.936200
11.582700 5.083100
11.602600 3.634600
11.622500 3.165800
11.642300 2.870300
11.662200 2.570900
11.682000 2.267600
11.701900 1.960500
11.721700 1.649500
11.741600 1.334700
11.761400 7.321400
11.781300 19.466900
11.801200 25.331400
11.821000 74.180500
11.840900 0.000000
11.860700 0.000000
11.880600 0.000000
11.900400 0.000000
11.920300 11.175100
11.940100 31.277800
11.960000 30.357100
11.979900 11.306900
11.999700 8.022800
12.019600 73.737800
12.039400 9.264400
12.059300 5.119000
12.079100 2.275000
12.099000 0.718900
12.118800 0.061500
12.138700 0.000700
12.158600 0.004800
12.178400 0.012900
12.198300 0.024800
12.218100 0.040500
12.238000 0.060100
12.257800 0.083500
12.277700 0.110800
12.297500 0.142000
12.317400 0.177000
12.337300 0.215800
12.357100 0.258500
12.377000 0.305000
12.396800 0.355400
12.416700 0.409700
12.436500 0.467800
12.456400 0.529700
12.476200 0.621700
12.496100 0.749700
12.516000 0.880300
12.535800 1.013700
12.555700 1.149700
12.575500 1.288400
12.595400 1.429800
12.615200 1.573900
12.635100 1.720600
12.655000 1.870600
12.674800 2.040800
12.694700 2.243500
12.714500 2.485000
12.734400 3.334800
12.754200 4.168200
12.774100 4.977500
12.793900 5.762500
12.813800 6.538800
12.833700 7.317000
12.853500 10.817000
12.873400 10.355400
12.893200 9.891600
12.913100 9.425700
12.932900 8.957500
12.952800 8.487100
12.972600 8.014600
12.992500 7.539800
13.012400 8.701000
13.032200 9.625500
13.052100 10.246400
13.071900 11.603300
13.091800 15.597100
13.111600 18.559500
13.131500 21.134300
13.151300 22.455100
13.171200 22.193300
13.191100 25.178000
13.210900 13.344000
13.230800 11.110100
13.250600 3.687900
13.270500 4.083200
13.290300 4.411600
13.310200 4.673200
13.330000 4.868000
13.349900 4.995900
13.369800 5.058200
13.389600 5.220300
13.409500 5.573800
13.429300 6.118700
13.449200 5.779200
13.469000 5.232300
13.488900 4.723600
13.508700 4.253200
13.528600 3.821100
13.548500 3.427300
13.568300 3.071700
13.588200 2.754500
13.608000 2.475500
13.627900 2.234700
13.647700 0.000000
13.667600 0.000000
13.687500 0.000000
13.707300 0.000000
13.727200 0.000000
13.747000 0.000000
13.766900 0.000000
13.786700 2.177900
13.806600 4.549800
13.826400 6.755000
13.846300 8.793600
13.866200 12.471200
13.886000 16.249300
13.905900 9.035300
13.925700 7.526100
13.945600 6.198700
13.965400 5.053000
13.985300 4.089000
14.005100 3.306700
14.025000 2.706100
14.044900 5.675300
14.064700 10.635100
14.084600 13.281100
14.104400 13.560500
14.124300 12.633900
14.144100 12.758300
14.164000 10.815200
14.183800 8.271100
14.203700 7.034700
14.223600 7.500200
14.243400 8.053400
14.263300 9.413900
14.283100 10.464100
14.303000 11.204000
14.322800 11.633700
14.342700 14.419300
14.362500 12.343000
14.382400 10.196000
14.402300 8.074100
14.422100 7.004400
14.442000 7.265200
14.461800 5.318400
14.481700 13.647800
14.501500 18.314800
14.521400 14.285400
14.541200 12.106700
14.561100 10.112800
14.581000 8.691900
14.600800 7.701900
14.620700 5.127400
14.640500 11.622200
14.660400 38.984700
14.680200 59.881400
14.700100 2.023100
14.719900 6.861800
14.739800 43.491700
14.759700 32.231300
14.779500 21.735900
14.799400 17.542600
14.819200 19.515800
14.839100 23.286800
14.858900 42.586000
14.878800 12.694000
14.898700 15.874200
14.918500 19.084800
14.938400 15.195200
14.958200 13.050000
14.978100 13.383500
14.997900 13.620500
15.017800 28.490100
15.037600 26.692100
15.057500 20.492300
15.077400 16.502000
15.097200 12.746400
15.117100 8.571900
15.136900 11.015000
15.156800 18.363500
15.176600 27.135600
15.196500 23.117800
15.216300 1.661100
15.236200 2.027500
15.256100 4.487000
15.275900 7.054800
15.295800 9.730900
15.315600 12.515300
15.335500 16.656300
15.355300 22.046300
15.375200 31.189300
15.395000 13.076100
15.414900 13.929100
15.434800 14.634700
15.454600 15.652400
15.474500 21.638000
15.494300 19.809400
15.514200 14.404500
15.534000 10.133200
15.553900 12.439600
15.573700 15.952600
15.593600 24.174200
15.613500 20.675200
15.633300 5.780600
15.653200 48.666300
15.673000 21.731800
15.692900 13.632800
15.712700 12.336200
15.732600 13.954300
15.752400 15.173000
15.772300 14.794700
15.792200 15.213800
15.812000 21.079900
15.831900 31.775900
15.851700 28.597300
15.871600 26.901400
15.891400 18.870600
15.911300 15.322700
15.931200 11.611900
15.951000 5.635400
15.970900 1.763500
15.990700 8.948700
16.010600 30.260400
16.030400 25.876800
16.050300 11.252300
16.070100 6.158600
16.090000 8.548800
16.109900 11.810100
16.129700 14.577200
16.149600 16.850000
16.169400 18.628600
16.189300 20.930500
16.209100 15.159100
16.229000 4.730400
16.248800 40.115000
16.268700 24.103700
16.288600 18.752000
16.308400 13.816500
16.328300 9.296900
16.348100 5.193400
16.368000 1.478400
16.387800 0.056100
16.407700 5.415300
16.427500 18.346600
16.447400 25.783500
16.467300 17.454700
16.487100 15.084900
16.507000 10.814300
16.526800 8.656600
16.546700 12.563700
16.566500 14.552900
16.586400 14.907800
16.606200 14.636800
16.626100 13.740100
16.646000 12.217700
16.665800 9.935000
16.685700 7.074000
16.705500 5.370800
16.725400 11.590600
16.745200 25.077200
16.765100 29.842400
16.784900 23.915300
16.804800 6.781900
16.824700 6.217700
16.844500 15.575300
16.864400 57.523500
16.884200 22.183600
16.904100 1.755600
16.923900 3.037500
16.943800 4.632100
16.963600 12.557900
16.983500 23.355300
17.003400 17.364100
17.023200 10.840600
17.043100 9.365000
17.062900 7.424600
17.082800 23.202100
17.102600 20.753400
17.122500 17.404300
17.142400 15.116400
17.162200 13.369100
17.182100 8.832900
17.201900 3.384900
17.221800 2.420500
17.241600 5.064100
17.261500 8.730300
17.281300 12.731900
17.301200 15.231100
17.321100 15.170300
17.340900 13.824300
17.360800 11.442300
17.380600 8.757600
17.400500 8.761700
17.420300 8.677700
17.440200 8.389500
17.460000 10.186600
17.479900 10.538900
17.499800 11.384800
17.519600 14.426400
17.539500 16.992600
17.559300 18.937900
17.579200 20.683000
17.599000 20.465300
17.618900 13.319900
17.638700 13.007300
17.658600 13.287000
17.678500 16.272900
17.698300 15.454400
17.718200 5.416200
17.738000 6.048300
17.757900 7.560400
17.777700 8.590300
17.797600 9.137900
17.817400 9.533200
17.837300 10.224600
17.857200 11.082400
17.877000 11.462300
17.896900 11.537500
17.916700 11.787200
17.936600 12.141500
17.956400 12.600400
17.976300 12.474600
17.996100 9.707500
18.016000 10.326700
18.035900 10.883300
18.055700 11.254800
18.075600 11.441100
18.095400 11.442200
18.115300 11.784900
18.135100 12.241800
18.155000 14.293700
18.174900 15.761000
18.194700 13.811600
18.214600 14.541300
18.234400 19.306600
18.254300 15.527500
18.274100 13.257500
18.294000 12.477500
18.313800 30.691100
18.333700 16.947600
18.353600 13.694000
18.373400 11.262000
18.393300 9.651600
18.413100 8.862800
18.433000 8.895700
18.452800 9.916500
18.472700 11.062700
18.492500 10.626400
18.512400 12.111300
18.532300 9.930800
18.552100 5.255700
18.572000 9.435800
18.591800 27.358100
18.611700 22.437500
18.631500 12.712400
18.651400 11.133900
18.671200 8.411400
18.691100 4.545000
18.711000 2.091500
18.730800 1.577800
18.750700 1.136400
18.770500 0.767300
18.790400 0.470400
18.810200 0.245800
18.830100 10.232900
18.849900 17.258000
18.869800 19.878700
18.889700 17.208400
18.909500 14.630500
18.929400 13.178300
18.949200 10.558500
18.969100 6.694300
18.988900 7.869900
19.008800 12.244400
19.028600 14.452900
19.048500 14.482100
19.068400 13.045000
19.088200 11.713700
19.108100 10.545200
19.127900 9.539300
19.147800 9.495500
19.167600 9.337800
19.187500 8.921700
19.207400 8.563200
19.227200 9.879300
19.247100 11.385800
19.266900 11.054900
19.286800 9.256700
19.306600 7.436500
19.326500 5.594200
19.346300 6.529700
19.366200 8.083800
19.386100 9.536100
19.405900 11.592700
19.425800 11.911600
19.445600 10.665400
19.465500 8.405900
19.485300 7.670900
19.505200 6.875300
19.525000 6.018900
19.544900 5.121300
19.564800 4.309600
19.584600 3.380500
19.604500 2.430500
19.624300 1.866900
19.644200 1.377400
19.664000 0.962300
19.683900 0.621400
19.703700 0.354700
19.723600 0.162300
19.743500 0.044200
19.763300 0.000300
19.783200 0.000000
19.803000 0.000000
19.822900 0.000000
19.842700 0.000000
19.862600 0.000000
19.882400 0.000000
19.902300 0.000000
19.922200 0.000000
19.942000 0.000000
19.961900 0.000000
19.981700 0.000000
20.001600 0.000000
20.021400 0.000000
20.041300 0.000000
20.061100 0.000000
20.081000 0.000000
20.100900 0.000000
20.120700 0.000000
20.140600 0.000000
20.160400 0.000000
20.180300 0.000000
20.200100 0.000000
20.220000 0.000000
20.239800 0.000000
20.259700 0.000000
20.279600 0.000000
20.299400 0.000000
20.319300 0.000000
20.339100 0.000000
20.359000 0.000000
20.378800 0.000000
20.398700 0.000000
20.418600 0.000000
20.438400 0.000000
20.458300 0.000000
20.478100 0.000000
20.498000 0.000000
20.517800 0.000000
20.537700 0.000000
20.557500 0.000000
20.577400 0.000000
20.597300 0.000000
20.617100 0.000000
20.637000 0.000000
20.656800 0.000000
20.676700 0.000000
20.696500 0.000000
20.716400 0.000000
20.736200 0.000000
20.756100 0.000000
20.776000 0.000000
20.795800 0.000000
20.815700 0.000000
20.835500 0.000000
20.855400 0.000000
20.875200 0.000000
20.895100 0.000000
20.914900 0.000000
20.934800 0.000000
20.954700 0.000000
20.974500 0.000000
20.994400 0.000000
21.014200 0.000000
21.034100 0.000000
21.053900 0.000000
21.073800 0.000000
21.093600 0.000000
21.113500 0.000000
21.133400 0.000000
21.153200 0.000000
21.173100 0.000000
21.192900 0.000000
21.212800 0.000000
21.232600 0.000000
21.252500 0.000000
21.272300 0.000000
21.292200 0.000000
21.312100 0.000000
21.331900 0.000000
21.351800 0.000000
21.371600 0.000000
21.391500 0.000000
21.411300 0.000000
21.431200 0.000000
21.451100 0.000000
21.470900 0.000000
21.490800 0.000000
21.510600 0.000000
21.530500 0.000000
21.550300 0.000000
21.570200 0.000000
e
