set title 'mp-1184257 - Density of States'
set xlabel 'Energy (eV)'
set ylabel 'DOS (states/eV)'
set grid
set xrange [-10:10]
set yrange [0:24.429]
set xzeroaxis lt -1
set terminal png size 800,600
set output 'mp-1184257_dos_gnuplot.png'
plot '-' using 1:2 with lines title 'DOS'
-13.559200 0.000000
-13.536900 0.000000
-13.514500 0.000000
-13.492100 0.000000
-13.469800 0.000000
-13.447400 0.000000
-13.425000 0.000000
-13.402700 0.000000
-13.380300 0.000000
-13.357900 0.000000
-13.335600 0.000000
-13.313200 0.000000
-13.290800 0.000000
-13.268500 0.000000
-13.246100 0.000000
-13.223700 0.000000
-13.201400 0.000000
-13.179000 0.000000
-13.156600 0.000000
-13.134300 0.000000
-13.111900 0.000000
-13.089500 0.000000
-13.067200 0.000000
-13.044800 0.000000
-13.022400 0.000000
-13.000100 0.000000
-12.977700 0.000000
-12.955300 0.000000
-12.933000 0.000000
-12.910600 0.000000
-12.888200 0.000000
-12.865900 0.000000
-12.843500 0.000000
-12.821100 0.000000
-12.798800 0.000000
-12.776400 0.000000
-12.754000 0.000000
-12.731700 0.000000
-12.709300 0.000000
-12.686900 0.000000
-12.664600 0.000000
-12.642200 0.000000
-12.619800 0.000000
-12.597500 0.000000
-12.575100 0.000000
-12.552700 0.000000
-12.530400 0.000000
-12.508000 0.000000
-12.485600 0.000000
-12.463300 0.000000
-12.440900 0.000000
-12.418500 0.000000
-12.396200 0.000000
-12.373800 0.000000
-12.351400 0.000000
-12.329100 0.000000
-12.306700 0.000000
-12.284300 0.000000
-12.262000 0.000000
-12.239600 0.000000
-12.217200 0.000000
-12.194900 0.000000
-12.172500 0.000000
-12.150100 0.000000
-12.127700 0.000000
-12.105400 0.000000
-12.083000 0.000000
-12.060600 0.000000
-12.038300 0.000000
-12.015900 0.000000
-11.993500 0.000000
-11.971200 0.000000
-11.948800 0.000000
-11.926400 0.000000
-11.904100 0.000000
-11.881700 0.000000
-11.859300 0.000000
-11.837000 0.000000
-11.814600 0.000000
-11.792200 0.000000
-11.769900 0.000000
-11.747500 0.000000
-11.725100 0.000000
-11.702800 0.000000
-11.680400 0.000000
-11.658000 0.000000
-11.635700 0.000000
-11.613300 0.000000
-11.590900 0.000000
-11.568600 0.000000
-11.546200 0.000000
-11.523800 0.436700
-11.501500 20.898200
-11.479100 46.060400
-11.456700 111.524800
-11.434400 92.310400
-11.412000 114.666400
-11.389600 105.426100
-11.367300 72.327700
-11.344900 92.299600
-11.322500 92.075800
-11.300200 137.217800
-11.277800 125.013200
-11.255400 72.272800
-11.233100 94.272200
-11.210700 83.172800
-11.188300 22.480300
-11.166000 10.504000
-11.143600 0.000000
-11.121200 0.000000
-11.098900 0.000000
-11.076500 0.000000
-11.054100 0.000000
-11.031800 0.000000
-11.009400 0.000000
-10.987000 0.000000
-10.964700 0.000000
-10.942300 0.000000
-10.919900 0.000000
-10.897600 0.000000
-10.875200 0.000000
-10.852800 0.000000
-10.830500 0.000000
-10.808100 0.000000
-10.785700 0.000000
-10.763400 0.000000
-10.741000 0.000000
-10.718600 0.000000
-10.696300 0.000000
-10.673900 0.000000
-10.651500 0.000000
-10.629200 0.000000
-10.606800 0.000000
-10.584400 0.000000
-10.562100 0.000000
-10.539700 0.000000
-10.517300 0.000000
-10.495000 0.000000
-10.472600 0.000000
-10.450200 0.000000
-10.427900 0.000000
-10.405500 0.000000
-10.383100 0.000000
-10.360800 0.000000
-10.338400 0.000000
-10.316000 0.000000
-10.293700 0.000000
-10.271300 0.000000
-10.248900 0.000000
-10.226600 0.000000
-10.204200 0.000000
-10.181800 0.000000
-10.159500 0.000000
-10.137100 0.000000
-10.114700 0.000000
-10.092400 0.000000
-10.070000 0.000000
-10.047600 0.000000
-10.025300 0.000000
-10.002900 0.000000
-9.980500 0.000000
-9.958200 0.000000
-9.935800 0.000000
-9.913400 0.000000
-9.891100 0.000000
-9.868700 0.000000
-9.846300 0.000000
-9.824000 0.000000
-9.801600 0.000000
-9.779200 0.000000
-9.756900 0.000000
-9.734500 0.000000
-9.712100 0.000000
-9.689800 0.000000
-9.667400 0.000000
-9.645000 0.000000
-9.622700 0.000000
-9.600300 0.000000
-9.577900 0.000000
-9.555600 0.000000
-9.533200 0.000000
-9.510800 0.000000
-9.488500 0.000000
-9.466100 0.000000
-9.443700 0.000000
-9.421400 0.000000
-9.399000 0.000000
-9.376600 0.000000
-9.354300 0.000000
-9.331900 0.000000
-9.309500 0.000000
-9.287200 0.000000
-9.264800 0.000000
-9.242400 0.000000
-9.220100 0.000000
-9.197700 0.000000
-9.175300 0.000000
-9.153000 0.000000
-9.130600 0.000000
-9.108200 0.000000
-9.085900 0.000000
-9.063500 0.000000
-9.041100 0.000000
-9.018800 0.000000
-8.996400 0.000000
-8.974000 0.000000
-8.951700 0.000000
-8.929300 0.000000
-8.906900 0.000000
-8.884600 0.000000
-8.862200 0.000000
-8.839800 0.000000
-8.817500 0.000000
-8.795100 0.000000
-8.772700 0.000000
-8.750400 0.000000
-8.728000 0.000000
-8.705600 0.000000
-8.683300 0.000000
-8.660900 0.000000
-8.638500 0.000000
-8.616200 0.000000
-8.593800 0.000000
-8.571400 0.000000
-8.549100 0.000000
-8.526700 0.000000
-8.504300 0.000000
-8.482000 0.000000
-8.459600 0.000000
-8.437200 0.000000
-8.414900 0.000000
-8.392500 0.000000
-8.370100 0.000000
-8.347800 0.000000
-8.325400 0.000000
-8.303000 0.000000
-8.280700 0.000000
-8.258300 0.000000
-8.235900 0.000000
-8.213600 0.000000
-8.191200 0.000000
-8.168800 0.000000
-8.146500 0.000000
-8.124100 0.000000
-8.101700 0.000000
-8.079400 0.000000
-8.057000 0.000000
-8.034600 0.000000
-8.012300 0.000000
-7.989900 0.000000
-7.967500 0.000000
-7.945200 0.000000
-7.922800 0.000000
-7.900400 0.000000
-7.878100 0.000000
-7.855700 0.000000
-7.833300 0.000000
-7.811000 0.000000
-7.788600 0.000000
-7.766200 0.000000
-7.743900 0.000000
-7.721500 0.000000
-7.699100 0.000000
-7.676800 0.000000
-7.654400 0.000000
-7.632000 0.000000
-7.609700 0.000000
-7.587300 0.000000
-7.564900 0.000000
-7.542600 0.000000
-7.520200 0.000000
-7.497800 0.000000
-7.475500 0.000000
-7.453100 0.000000
-7.430700 0.000000
-7.408400 0.000000
-7.386000 0.000000
-7.363600 0.000000
-7.341300 0.000000
-7.318900 0.000000
-7.296500 0.000000
-7.274200 0.000000
-7.251800 0.000000
-7.229400 0.000000
-7.207100 0.000000
-7.184700 0.000000
-7.162300 0.000000
-7.140000 0.000000
-7.117600 0.000000
-7.095200 0.000000
-7.072900 0.000000
-7.050500 0.000000
-7.028100 0.000000
-7.005800 0.000000
-6.983400 0.000000
-6.961000 0.000400
-6.938600 0.013700
-6.916300 0.045900
-6.893900 0.096900
-6.871500 0.145600
-6.849200 0.149800
-6.826800 0.159000
-6.804400 0.172100
-6.782100 0.187400
-6.759700 0.204800
-6.737300 0.216800
-6.715000 0.231000
-6.692600 0.246800
-6.670200 0.263100
-6.647900 0.275500
-6.625500 0.283000
-6.603100 0.286000
-6.580800 0.295200
-6.558400 0.305500
-6.536000 0.316000
-6.513700 0.325700
-6.491300 0.334200
-6.468900 0.341600
-6.446600 0.348400
-6.424200 0.355800
-6.401800 0.364200
-6.379500 0.373400
-6.357100 0.383100
-6.334700 0.393500
-6.312400 0.404400
-6.290000 0.412700
-6.267600 0.419600
-6.245300 0.426500
-6.222900 0.433300
-6.200500 0.440000
-6.178200 0.445200
-6.155800 0.450600
-6.133400 0.456400
-6.111100 0.462600
-6.088700 0.468700
-6.066300 0.474800
-6.044000 0.480900
-6.021600 0.488300
-5.999200 0.495300
-5.976900 0.502500
-5.954500 0.509800
-5.932100 0.517400
-5.909800 0.525300
-5.887400 0.533500
-5.865000 0.541700
-5.842700 0.549900
-5.820300 0.558200
-5.797900 0.565600
-5.775600 0.571500
-5.753200 0.575600
-5.730800 0.581000
-5.708500 0.586800
-5.686100 0.592400
-5.663700 0.598200
-5.641400 0.604100
-5.619000 0.610400
-5.596600 0.616800
-5.574300 0.623600
-5.551900 0.630500
-5.529500 0.637600
-5.507200 0.645400
-5.484800 0.653400
-5.462400 0.661600
-5.440100 0.669900
-5.417700 0.678400
-5.395300 0.687000
-5.373000 0.695800
-5.350600 0.704600
-5.328200 0.713600
-5.305900 0.727800
-5.283500 0.741800
-5.261100 0.754700
-5.238800 0.767400
-5.216400 0.778400
-5.194000 0.792100
-5.171700 0.812900
-5.149300 0.822600
-5.126900 0.821400
-5.104600 0.816800
-5.082200 0.814700
-5.059800 0.813200
-5.037500 0.815100
-5.015100 0.817600
-4.992700 0.820600
-4.970400 0.824200
-4.948000 0.828800
-4.925600 0.834100
-4.903300 0.840100
-4.880900 0.849000
-4.858500 0.876700
-4.836200 0.902200
-4.813800 0.917800
-4.791400 0.933100
-4.769100 0.947500
-4.746700 0.960200
-4.724300 0.970300
-4.702000 0.977500
-4.679600 0.982200
-4.657200 0.987200
-4.634900 0.992700
-4.612500 0.986200
-4.590100 0.981200
-4.567800 0.974500
-4.545400 0.968900
-4.523000 0.970200
-4.500700 1.014600
-4.478300 1.059400
-4.455900 1.073300
-4.433600 1.039700
-4.411200 0.990300
-4.388800 0.943900
-4.366500 0.912100
-4.344100 0.885200
-4.321700 0.856100
-4.299400 0.825600
-4.277000 0.798900
-4.254600 0.781200
-4.232300 0.771100
-4.209900 0.757400
-4.187500 0.779600
-4.165200 0.741800
-4.142800 0.704600
-4.120400 0.689000
-4.098100 0.693300
-4.075700 0.710200
-4.053300 0.743900
-4.031000 0.783400
-4.008600 0.823200
-3.986200 0.867300
-3.963900 0.923300
-3.941500 0.968300
-3.919100 1.007500
-3.896800 1.055200
-3.874400 1.116300
-3.852000 1.198800
-3.829700 1.388000
-3.807300 1.473000
-3.784900 1.525200
-3.762600 1.471200
-3.740200 1.472100
-3.717800 1.494800
-3.695500 1.513800
-3.673100 1.562400
-3.650700 1.513800
-3.628400 1.474300
-3.606000 1.441000
-3.583600 1.403700
-3.561300 1.365600
-3.538900 1.332200
-3.516500 1.237700
-3.494200 1.186000
-3.471800 1.177000
-3.449400 1.187200
-3.427100 1.199000
-3.404700 1.203500
-3.382300 1.197100
-3.360000 1.186500
-3.337600 1.175800
-3.315200 1.164400
-3.292900 1.162500
-3.270500 1.172700
-3.248100 1.183200
-3.225800 1.193800
-3.203400 1.204400
-3.181000 1.214700
-3.158700 1.269400
-3.136300 1.302700
-3.113900 1.293600
-3.091600 1.284000
-3.069200 1.275600
-3.046800 1.269600
-3.024500 1.269900
-3.002100 1.272400
-2.979700 1.274200
-2.957400 1.274700
-2.935000 1.274000
-2.912600 1.272000
-2.890300 1.281100
-2.867900 1.420700
-2.845500 1.459900
-2.823200 1.557400
-2.800800 1.542500
-2.778400 1.325500
-2.756100 1.510000
-2.733700 1.435000
-2.711300 1.490200
-2.689000 1.543600
-2.666600 1.592100
-2.644200 1.656600
-2.621900 1.693900
-2.599500 1.961700
-2.577100 2.179800
-2.554800 2.169300
-2.532400 2.254800
-2.510000 2.308200
-2.487700 2.343100
-2.465300 2.331500
-2.442900 2.308600
-2.420600 2.311400
-2.398200 2.338400
-2.375800 2.367500
-2.353500 2.489700
-2.331100 2.448400
-2.308700 2.441500
-2.286400 2.404100
-2.264000 2.417900
-2.241600 2.397600
-2.219300 2.377600
-2.196900 2.338700
-2.174500 2.348100
-2.152200 2.348700
-2.129800 2.350400
-2.107400 2.352900
-2.085100 2.423200
-2.062700 2.560000
-2.040300 2.629900
-2.018000 2.676100
-1.995600 2.688900
-1.973200 2.718700
-1.950900 2.776100
-1.928500 2.993700
-1.906100 3.268800
-1.883800 3.145000
-1.861400 3.221800
-1.839000 2.645200
-1.816700 2.318100
-1.794300 2.151400
-1.771900 2.092700
-1.749600 1.931300
-1.727200 1.950900
-1.704800 1.737800
-1.682400 2.329600
-1.660100 2.514500
-1.637700 2.158300
-1.615300 3.859700
-1.593000 8.184700
-1.570600 11.143900
-1.548200 14.015100
-1.525900 15.196800
-1.503500 11.846500
-1.481100 10.825900
-1.458800 10.264300
-1.436400 8.587500
-1.414000 9.589900
-1.391700 14.598800
-1.369300 22.208300
-1.346900 20.568400
-1.324600 18.811200
-1.302200 17.357200
-1.279800 15.340600
-1.257500 12.668000
-1.235100 10.515800
-1.212700 12.225500
-1.190400 6.046000
-1.168000 2.079800
-1.145600 1.832500
-1.123300 2.533000
-1.100900 2.769600
-1.078500 2.534000
-1.056200 2.342300
-1.033800 1.997000
-1.011400 1.217600
-0.989100 1.162100
-0.966700 1.241700
-0.944300 1.325600
-0.922000 1.600400
-0.899600 2.198000
-0.877200 3.543800
-0.854900 6.581500
-0.832500 6.016700
-0.810100 4.420500
-0.787800 3.899300
-0.765400 3.417200
-0.743000 3.154500
-0.720700 3.005500
-0.698300 2.870100
-0.675900 2.737100
-0.653600 2.627300
-0.631200 2.549800
-0.608800 2.490800
-0.586500 2.401300
-0.564100 2.305500
-0.541700 2.212800
-0.519400 2.124200
-0.497000 2.038300
-0.474600 2.002900
-0.452300 1.969800
-0.429900 1.938000
-0.407500 1.907700
-0.385200 1.886600
-0.362800 1.861600
-0.340400 1.842500
-0.318100 1.825100
-0.295700 1.809300
-0.273300 1.794900
-0.251000 1.781000
-0.228600 1.766700
-0.206200 1.773500
-0.183900 1.765000
-0.161500 1.759200
-0.139100 1.752600
-0.116800 1.795500
-0.094400 2.333400
-0.072000 2.142200
-0.049700 2.083100
-0.027300 2.084200
-0.004900 2.089900
0.017400 2.013100
0.039800 2.013900
0.062200 2.032500
0.084500 2.074900
0.106900 2.126800
0.129300 2.176200
0.151600 2.223800
0.174000 2.219000
0.196400 2.205600
0.218700 2.161600
0.241100 2.090000
0.263500 2.034800
0.285800 2.021900
0.308200 2.000800
0.330600 1.956500
0.352900 1.918200
0.375300 1.878800
0.397700 1.838100
0.420000 1.795800
0.442400 1.760000
0.464800 1.732100
0.487100 1.716300
0.509500 1.705900
0.531900 1.708000
0.554200 1.720900
0.576600 1.687400
0.599000 1.662800
0.621300 1.631900
0.643700 1.576300
0.666100 1.531700
0.688400 1.491200
0.710800 1.457200
0.733200 1.454700
0.755500 1.413100
0.777900 1.398700
0.800300 1.374400
0.822600 1.304300
0.845000 1.283100
0.867400 1.280000
0.889700 1.270000
0.912100 1.236200
0.934500 1.220200
0.956800 1.214800
0.979200 1.215200
1.001600 1.203700
1.023900 1.199200
1.046300 1.198100
1.068700 1.201700
1.091000 1.210800
1.113400 1.189400
1.135800 1.172500
1.158100 1.170000
1.180500 1.225400
1.202900 1.199900
1.225200 1.183000
1.247600 1.176700
1.270000 1.162400
1.292300 1.198000
1.314700 1.221100
1.337100 1.182300
1.359400 1.180100
1.381800 1.174000
1.404200 1.160800
1.426500 1.154600
1.448900 1.139900
1.471300 1.137100
1.493600 1.136500
1.516000 1.137700
1.538400 1.140700
1.560700 1.146000
1.583100 1.154900
1.605500 1.167200
1.627800 1.181900
1.650200 1.198000
1.672600 1.216200
1.694900 1.270300
1.717300 1.321000
1.739700 1.340900
1.762000 1.358000
1.784400 1.369500
1.806800 1.561200
1.829100 1.389400
1.851500 1.420300
1.873900 1.450700
1.896200 1.519800
1.918600 1.610400
1.941000 1.841400
1.963300 2.035700
1.985700 1.936100
2.008100 1.849200
2.030400 1.819000
2.052800 1.812500
2.075200 1.783300
2.097500 1.771800
2.119900 1.779800
2.142300 1.831500
2.164600 1.851500
2.187000 1.870300
2.209400 1.873500
2.231700 1.852900
2.254100 1.731300
2.276500 1.650000
2.298800 1.596600
2.321200 1.550800
2.343600 1.514000
2.365900 1.482000
2.388300 1.454300
2.410700 1.430800
2.433000 1.407000
2.455400 1.385100
2.477800 1.369800
2.500100 1.372100
2.522500 1.386800
2.544900 1.436600
2.567200 1.458500
2.589600 1.499600
2.612000 1.494700
2.634300 1.471800
2.656700 1.433500
2.679100 1.411400
2.701400 1.396800
2.723800 1.382100
2.746200 1.365400
2.768500 1.349300
2.790900 1.335400
2.813300 1.324300
2.835600 1.317400
2.858000 1.322000
2.880400 1.335300
2.902700 1.356800
2.925100 1.356200
2.947500 1.361400
2.969800 1.377700
2.992200 1.397500
3.014600 1.407700
3.036900 1.423300
3.059300 1.444700
3.081700 1.458000
3.104000 1.458400
3.126400 1.486200
3.148800 1.502800
3.171100 1.518000
3.193500 1.534400
3.215900 1.549200
3.238200 1.564100
3.260600 1.578100
3.283000 1.596800
3.305300 1.619300
3.327700 1.640500
3.350100 1.652200
3.372400 1.667900
3.394800 1.664100
3.417200 1.660000
3.439500 1.654700
3.461900 1.652400
3.484300 1.758200
3.506700 1.728600
3.529000 1.695300
3.551400 1.712500
3.573800 1.742200
3.596100 1.770700
3.618500 1.797000
3.640900 1.806900
3.663200 1.800100
3.685600 1.720400
3.708000 1.680500
3.730300 1.674300
3.752700 1.690100
3.775100 1.640800
3.797400 1.620900
3.819800 1.613200
3.842200 1.605400
3.864500 1.596700
3.886900 1.590200
3.909300 1.590200
3.931600 1.594400
3.954000 1.601700
3.976400 1.614100
3.998700 1.625400
4.021100 1.634500
4.043500 1.663600
4.065800 1.728700
4.088200 1.621300
4.110600 1.492900
4.132900 1.431100
4.155300 1.405000
4.177700 1.378200
4.200000 1.359900
4.222400 1.342300
4.244800 1.329700
4.267100 1.328700
4.289500 1.324100
4.311900 1.324800
4.334200 1.328800
4.356600 1.333700
4.379000 1.375100
4.401300 1.382300
4.423700 1.400100
4.446100 1.432600
4.468400 1.477400
4.490800 1.501300
4.513200 1.526900
4.535500 1.552900
4.557900 1.563300
4.580300 1.587800
4.602600 1.611100
4.625000 1.634700
4.647400 1.672200
4.669700 1.680900
4.692100 1.702000
4.714500 1.730200
4.736800 1.701500
4.759200 1.653200
4.781600 1.607200
4.803900 1.576200
4.826300 1.595000
4.848700 1.575500
4.871000 1.556900
4.893400 1.538200
4.915800 1.496300
4.938100 1.451900
4.960500 1.430600
4.982900 1.418500
5.005200 1.445400
5.027600 1.439100
5.050000 1.425500
5.072300 1.420700
5.094700 1.420400
5.117100 1.423200
5.139400 1.426300
5.161800 1.430100
5.184200 1.434700
5.206500 1.438700
5.228900 1.441100
5.251300 1.448300
5.273600 1.464400
5.296000 1.484000
5.318400 1.507700
5.340700 1.532600
5.363100 1.507900
5.385500 1.528500
5.407800 1.543900
5.430200 1.550200
5.452600 1.555800
5.474900 1.556600
5.497300 1.554200
5.519700 1.551600
5.542000 1.554500
5.564400 1.563500
5.586800 1.578600
5.609100 1.611700
5.631500 1.688900
5.653900 1.799800
5.676200 1.832500
5.698600 1.858400
5.721000 1.891700
5.743300 1.921700
5.765700 1.942100
5.788100 1.946600
5.810400 1.945100
5.832800 1.943800
5.855200 1.950200
5.877500 1.936500
5.899900 1.918000
5.922300 1.893100
5.944600 1.861600
5.967000 1.824500
5.989400 1.787300
6.011700 1.749800
6.034100 1.748100
6.056500 1.779100
6.078800 1.728900
6.101200 1.680800
6.123600 1.652500
6.145900 1.668600
6.168300 1.688500
6.190700 1.709200
6.213000 1.645300
6.235400 1.601100
6.257800 1.544800
6.280100 1.516000
6.302500 1.518100
6.324900 1.528300
6.347200 1.536600
6.369600 1.543400
6.392000 1.533700
6.414300 1.533200
6.436700 1.529600
6.459100 1.514300
6.481400 1.493100
6.503800 1.510100
6.526200 1.524100
6.548500 1.536800
6.570900 1.556500
6.593300 1.582000
6.615600 1.613400
6.638000 1.649700
6.660400 1.686300
6.682700 1.717400
6.705100 1.792500
6.727500 1.901900
6.749800 1.903900
6.772200 1.886300
6.794600 1.832500
6.816900 1.842700
6.839300 1.868200
6.861700 1.910700
6.884000 2.139900
6.906400 2.156300
6.928800 2.111900
6.951100 2.058300
6.973500 2.020900
6.995900 2.006000
7.018200 2.003600
7.040600 2.002400
7.063000 2.007100
7.085300 2.009800
7.107700 1.999200
7.130100 2.009800
7.152400 1.929800
7.174800 1.895000
7.197200 1.862300
7.219500 1.827100
7.241900 1.786300
7.264300 1.741500
7.286600 1.689900
7.309000 1.568200
7.331400 1.498300
7.353700 1.447100
7.376100 1.402800
7.398500 1.369900
7.420800 1.381600
7.443200 1.382200
7.465600 1.381500
7.487900 1.392100
7.510300 1.451600
7.532700 1.366300
7.555000 1.362900
7.577400 1.379800
7.599800 1.416100
7.622100 1.462100
7.644500 1.514200
7.666900 1.571100
7.689200 1.652500
7.711600 1.722400
7.734000 1.780300
7.756300 1.841300
7.778700 1.897700
7.801100 1.948200
7.823400 1.998600
7.845800 2.052800
7.868200 2.116600
7.890500 2.183600
7.912900 2.250300
7.935300 2.296100
7.957600 2.323000
7.980000 2.345000
8.002400 2.348200
8.024700 2.364100
8.047100 2.365100
8.069500 2.305600
8.091800 2.291600
8.114200 2.276800
8.136600 2.264800
8.158900 2.255200
8.181300 2.235900
8.203700 2.220800
8.226000 2.078700
8.248400 2.029900
8.270800 2.014300
8.293100 1.972300
8.315500 1.916700
8.337900 1.859800
8.360200 1.838900
8.382600 1.809200
8.405000 1.786400
8.427300 1.781200
8.449700 1.790500
8.472100 1.807200
8.494400 1.836500
8.516800 1.916300
8.539200 1.876600
8.561500 1.932500
8.583900 1.959000
8.606300 2.020900
8.628600 2.000900
8.651000 2.066800
8.673400 2.146900
8.695700 2.259700
8.718100 2.426900
8.740500 2.561400
8.762900 2.663000
8.785200 2.731600
8.807600 2.776300
8.830000 2.888000
8.852300 2.682200
8.874700 2.595300
8.897100 2.466800
8.919400 2.444800
8.941800 2.387400
8.964200 2.312600
8.986500 2.228100
9.008900 2.132100
9.031300 2.139900
9.053600 2.138100
9.076000 2.027600
9.098400 2.002300
9.120700 1.994300
9.143100 1.994300
9.165500 2.003100
9.187800 2.108700
9.210200 1.968500
9.232600 2.046500
9.254900 2.126800
9.277300 2.205900
9.299700 2.274500
9.322000 2.340100
9.344400 2.444100
9.366800 2.631700
9.389100 2.868800
9.411500 2.880400
9.433900 2.812400
9.456200 2.717800
9.478600 2.621100
9.501000 2.398400
9.523300 2.199200
9.545700 2.111500
9.568100 2.061900
9.590400 1.995200
9.612800 1.942200
9.635200 1.902200
9.657500 1.868000
9.679900 1.848300
9.702300 1.829300
9.724600 1.805100
9.747000 1.782400
9.769400 1.736400
9.791700 1.683400
9.814100 1.654300
9.836500 1.639700
9.858800 1.666600
9.881200 1.801600
9.903600 2.040500
9.925900 2.022000
9.948300 2.028000
9.970700 2.056800
9.993000 2.147900
10.015400 2.174400
10.037800 2.210800
10.060100 2.229700
10.082500 2.199000
10.104900 2.172300
10.127200 2.151000
10.149600 2.134500
10.172000 2.124000
10.194300 2.115500
10.216700 2.103200
10.239100 2.082600
10.261400 2.089600
10.283800 2.105000
10.306200 2.151100
10.328500 2.186900
10.350900 2.115900
10.373300 2.117500
10.395600 2.123500
10.418000 2.137000
10.440400 2.161300
10.462700 2.175000
10.485100 2.193000
10.507500 2.254400
10.529800 2.278100
10.552200 2.288400
10.574600 2.316000
10.596900 2.315500
10.619300 2.299000
10.641700 2.289400
10.664000 2.233500
10.686400 2.190400
10.708800 2.147900
10.731100 2.106800
10.753500 2.077200
10.775900 2.073600
10.798200 2.099700
10.820600 2.125900
10.843000 2.146400
10.865300 2.192400
10.887700 2.168600
10.910100 2.141900
10.932400 2.112400
10.954800 2.072300
10.977200 2.012300
10.999500 1.983900
11.021900 2.014200
11.044300 2.031600
11.066600 2.040800
11.089000 2.042300
11.111400 2.046200
11.133700 2.048200
11.156100 2.084000
11.178500 2.030400
11.200800 1.978000
11.223200 1.928200
11.245600 1.895600
11.267900 1.826400
11.290300 1.764100
11.312700 1.714100
11.335000 1.672400
11.357400 1.645900
11.379800 1.662900
11.402100 1.695900
11.424500 1.750400
11.446900 1.784400
11.469200 1.706900
11.491600 1.627700
11.514000 1.637200
11.536300 1.661600
11.558700 1.683100
11.581100 1.693100
11.603400 1.695000
11.625800 1.696600
11.648200 1.693500
11.670500 1.711200
11.692900 1.755900
11.715300 1.778000
11.737600 1.774900
11.760000 1.790800
11.782400 1.795200
11.804700 1.827500
11.827100 1.870400
11.849500 1.893700
11.871800 1.889600
11.894200 1.879700
11.916600 1.865400
11.938900 1.848000
11.961300 1.842600
11.983700 1.849100
12.006000 1.862000
12.028400 1.871800
12.050800 1.873000
12.073100 1.869100
12.095500 1.865200
12.117900 1.862500
12.140200 1.859900
12.162600 1.832300
12.185000 1.820300
12.207300 1.801700
12.229700 1.768600
12.252100 1.755400
12.274400 1.744700
12.296800 1.737400
12.319200 1.740000
12.341500 1.754900
12.363900 1.784100
12.386300 1.818600
12.408600 1.859000
12.431000 1.886600
12.453400 1.898700
12.475700 1.884700
12.498100 1.821400
12.520500 1.731600
12.542800 1.765700
12.565200 1.793300
12.587600 1.772800
12.609900 1.753800
12.632300 1.721000
12.654700 1.715900
12.677000 1.712100
12.699400 1.712200
12.721800 1.806200
12.744100 1.685900
12.766500 1.719600
12.788900 1.771500
12.811200 1.734800
12.833600 1.665700
12.856000 1.643500
12.878300 1.625200
12.900700 1.608900
12.923100 1.601600
12.945400 1.583500
12.967800 1.574100
12.990200 1.566000
13.012500 1.563000
13.034900 1.584000
13.057300 1.591100
13.079600 1.582600
13.102000 1.565600
13.124400 1.554400
13.146700 1.548000
13.169100 1.553700
13.191500 1.549200
13.213800 1.512800
13.236200 1.531400
13.258600 1.546100
13.280900 1.585600
13.303300 1.629100
13.325700 1.668700
13.348000 1.704100
13.370400 1.731300
13.392800 1.745900
13.415100 1.802000
13.437500 1.818900
13.459900 1.781300
13.482200 1.864600
13.504600 1.856700
13.527000 1.770100
13.549300 1.710700
13.571700 1.701200
13.594100 1.701100
13.616400 1.704700
13.638800 1.697600
13.661200 1.689900
13.683500 1.680100
13.705900 1.670100
13.728300 1.697100
13.750600 1.738600
13.773000 1.763400
13.795400 1.785700
13.817700 1.706400
13.840100 1.615200
13.862500 1.583900
13.884800 1.550700
13.907200 1.524100
13.929600 1.517000
13.952000 1.511000
13.974300 1.493900
13.996700 1.487900
14.019100 1.483900
14.041400 1.496400
14.063800 1.526300
14.086200 1.523200
14.108500 1.530900
14.130900 1.532900
14.153300 1.547200
14.175600 1.556200
14.198000 1.566700
14.220400 1.594300
14.242700 1.631600
14.265100 1.669300
14.287500 1.700100
14.309800 1.731200
14.332200 1.775100
14.354600 1.819500
14.376900 1.850600
14.399300 1.875300
14.421700 1.892200
14.444000 1.931900
14.466400 1.968000
14.488800 2.009100
14.511100 2.057100
14.533500 2.273400
14.555900 2.028800
14.578200 2.028600
14.600600 2.018000
14.623000 2.018400
14.645300 2.043500
14.667700 2.092700
14.690100 2.149800
14.712400 2.221800
14.734800 2.245700
14.757200 2.243800
14.779500 2.240100
14.801900 2.238200
14.824300 2.248500
14.846600 2.268900
14.869000 2.279000
14.891400 2.327700
14.913700 2.376800
14.936100 2.438700
14.958500 2.468200
14.980800 2.544700
15.003200 2.541700
15.025600 2.546100
15.047900 2.564300
15.070300 2.599000
15.092700 2.613000
15.115000 2.575300
15.137400 2.684200
15.159800 2.555400
15.182100 2.465600
15.204500 2.456700
15.226900 2.652100
15.249200 2.404000
15.271600 2.405700
15.294000 2.413500
15.316300 2.439100
15.338700 2.493200
15.361100 2.439300
15.383400 2.508800
15.405800 2.567300
15.428200 2.504300
15.450500 2.430000
15.472900 2.402200
15.495300 2.410800
15.517600 2.450100
15.540000 2.462000
15.562400 2.432100
15.584700 2.530800
15.607100 2.530500
15.629500 2.564900
15.651800 2.632000
15.674200 2.681100
15.696600 2.794500
15.718900 2.651600
15.741300 2.540900
15.763700 2.329700
15.786000 2.221900
15.808400 2.204500
15.830800 2.197700
15.853100 2.186500
15.875500 2.180500
15.897900 2.181500
15.920200 2.176300
15.942600 2.158800
15.965000 2.159700
15.987300 2.161900
16.009700 2.159800
16.032100 2.159700
16.054400 2.167400
16.076800 2.181700
16.099200 2.196300
16.121500 2.230100
16.143900 2.276500
16.166300 2.319100
16.188600 2.338700
16.211000 2.358500
16.233400 2.383900
16.255700 2.451300
16.278100 2.493600
16.300500 2.530200
16.322800 2.506000
16.345200 2.464000
16.367600 2.491600
16.389900 2.480200
16.412300 2.396600
16.434700 2.393900
16.457000 2.391000
16.479400 2.388400
16.501800 2.388200
16.524100 2.395900
16.546500 2.444900
16.568900 2.490200
16.591200 2.497800
16.613600 2.464700
16.636000 2.446000
16.658300 2.434200
16.680700 2.436100
16.703100 2.401000
16.725400 2.388200
16.747800 2.395900
16.770200 2.447400
16.792500 2.467000
16.814900 2.485800
16.837300 2.503300
16.859600 2.521700
16.882000 2.536800
16.904400 2.510200
16.926700 2.497400
16.949100 2.487700
16.971500 2.498100
16.993800 2.539400
17.016200 2.578700
17.038600 2.598300
17.060900 2.635600
17.083300 2.692400
17.105700 2.749500
17.128000 2.778600
17.150400 2.770000
17.172800 2.735600
17.195100 2.683800
17.217500 2.648400
17.239900 2.613000
17.262200 2.608000
17.284600 2.567600
17.307000 2.540300
17.329300 2.544800
17.351700 2.549100
17.374100 2.570300
17.396400 2.583900
17.418800 2.625100
17.441200 2.665900
17.463500 2.706300
17.485900 2.957200
17.508300 3.124500
17.530600 3.160100
17.553000 3.073400
17.575400 3.026500
17.597700 3.033800
17.620100 2.949200
17.642500 2.894400
17.664800 2.840400
17.687200 2.800100
17.709600 2.762500
17.731900 2.727100
17.754300 2.708100
17.776700 2.555800
17.799000 2.487500
17.821400 2.445500
17.843800 2.383000
17.866100 2.326700
17.888500 2.277600
17.910900 2.232700
17.933200 2.173900
17.955600 2.105800
17.978000 2.046500
18.000300 1.985600
18.022700 1.921800
18.045100 1.860800
18.067400 1.815000
18.089800 1.792600
18.112200 1.779300
18.134500 1.803900
18.156900 1.804400
18.179300 1.855500
18.201600 1.926600
18.224000 2.001300
18.246400 2.079800
18.268700 2.145800
18.291100 2.225000
18.313500 2.302200
18.335800 2.371900
18.358200 2.413000
18.380600 2.444200
18.402900 2.476600
18.425300 2.504600
18.447700 2.538700
18.470000 2.583300
18.492400 2.611500
18.514800 2.584100
18.537100 2.577400
18.559500 2.567100
18.581900 2.547900
18.604200 2.576200
18.626600 2.492900
18.649000 2.439700
18.671300 2.406100
18.693700 2.369600
18.716100 2.330400
18.738400 2.288500
18.760800 2.243400
18.783200 2.195100
18.805500 2.145000
18.827900 2.097600
18.850300 2.286800
18.872600 1.962100
18.895000 1.905000
18.917400 2.043800
18.939700 1.822800
18.962100 1.700400
18.984500 1.661700
19.006800 1.733700
19.029200 1.745800
19.051600 1.786900
19.073900 1.840700
19.096300 1.883000
19.118700 1.930800
19.141000 1.955300
19.163400 1.965300
19.185800 1.924600
19.208200 1.911000
19.230500 1.910700
19.252900 1.889600
19.275300 1.894900
19.297600 1.909300
19.320000 1.997400
19.342400 2.037000
19.364700 1.978900
19.387100 1.988600
19.409500 2.018400
19.431800 2.051300
19.454200 2.083100
19.476600 2.107900
19.498900 2.127500
19.521300 2.143200
19.543700 2.160000
19.566000 2.252900
19.588400 2.239900
19.610800 2.139200
19.633100 2.085900
19.655500 2.057900
19.677900 2.019800
19.700200 2.004900
19.722600 2.006700
19.745000 2.017700
19.767300 2.048100
19.789700 2.072900
19.812100 2.120200
19.834400 2.167500
19.856800 2.221100
19.879200 2.291100
19.901500 2.381900
19.923900 2.452000
19.946300 2.501900
19.968600 2.528700
19.991000 2.565600
20.013400 2.503100
20.035700 2.292700
20.058100 2.291000
20.080500 2.294500
20.102800 2.300300
20.125200 2.332700
20.147600 2.316600
20.169900 2.317900
20.192300 2.290400
20.214700 2.277500
20.237000 2.285300
20.259400 2.322700
20.281800 2.383500
20.304100 2.460800
20.326500 2.522900
20.348900 2.582900
20.371200 2.643800
20.393600 2.546000
20.416000 2.452000
20.438300 2.493700
20.460700 2.524700
20.483100 2.538300
20.505400 2.570800
20.527800 2.604800
20.550200 2.689400
20.572500 2.730500
20.594900 2.768400
20.617300 2.872100
20.639600 2.915200
20.662000 2.868900
20.684400 2.696500
20.706700 2.503500
20.729100 2.401000
20.751500 2.395200
20.773800 2.350100
20.796200 2.317500
20.818600 2.290500
20.840900 2.288800
20.863300 2.297000
20.885700 2.301100
20.908000 2.309100
20.930400 2.329900
20.952800 2.369200
20.975100 2.376200
20.997500 2.327000
21.019900 2.327400
21.042200 2.332400
21.064600 2.337100
21.087000 2.332800
21.109300 2.328800
21.131700 2.250200
21.154100 2.223500
21.176400 2.247500
21.198800 2.263400
21.221200 2.237000
21.243500 2.216600
21.265900 2.205000
21.288300 2.226200
21.310600 2.176200
21.333000 2.124300
21.355400 2.083200
21.377700 2.035200
21.400100 1.997300
21.422500 2.002400
21.444800 2.066700
21.467200 2.062700
21.489600 2.063300
21.511900 2.074000
21.534300 2.150400
21.556700 2.211000
21.579000 2.185300
21.601400 2.242900
21.623800 2.305800
21.646100 2.326700
21.668500 2.446300
21.690900 2.584400
21.713200 2.629500
21.735600 2.521600
21.758000 2.417100
21.780300 2.409000
21.802700 2.442700
21.825100 2.436300
21.847400 2.465100
21.869800 2.511100
21.892200 2.588600
21.914500 2.679100
21.936900 2.773200
21.959300 2.866100
21.981600 2.959700
22.004000 3.056000
22.026400 3.170000
22.048700 3.268500
22.071100 3.223400
22.093500 3.260300
22.115800 3.298700
22.138200 3.345000
22.160600 3.365400
22.182900 3.199500
22.205300 3.064900
22.227700 2.942400
22.250000 2.842100
22.272400 2.867900
22.294800 2.727300
22.317100 2.650800
22.339500 2.490800
22.361900 2.339500
22.384200 2.219600
22.406600 2.145000
22.429000 2.106900
22.451300 2.099400
22.473700 2.106800
22.496100 2.112100
22.518400 2.122200
22.540800 2.125100
22.563200 2.134500
22.585500 2.154100
22.607900 2.192000
22.630300 2.260600
22.652600 2.358300
22.675000 2.354800
22.697400 2.422100
22.719700 2.373000
22.742100 2.333400
22.764500 2.328000
22.786800 2.320400
22.809200 2.324600
22.831600 2.286400
22.853900 2.276900
22.876300 2.261300
22.898700 2.266100
22.921000 2.274000
22.943400 2.282000
22.965800 2.296300
22.988100 2.315400
23.010500 2.333000
23.032900 2.530700
23.055200 2.623000
23.077600 2.584900
23.100000 2.542500
23.122300 2.517700
23.144700 2.512300
23.167100 2.647900
23.189400 2.830600
23.211800 2.990100
23.234200 3.124000
23.256500 3.136100
23.278900 3.147000
23.301300 3.129000
23.323600 3.115800
23.346000 3.108400
23.368400 3.049300
23.390700 3.035000
23.413100 3.004300
23.435500 2.956400
23.457800 2.913500
23.480200 2.901500
23.502600 2.891900
23.524900 2.929800
23.547300 2.971600
23.569700 2.997800
23.592000 3.104000
23.614400 3.132400
23.636800 3.025100
23.659100 2.903900
23.681500 2.872500
23.703900 2.878400
23.726200 2.895400
23.748600 2.931100
23.771000 2.977000
23.793300 3.024600
23.815700 3.081200
23.838100 3.119000
23.860400 3.266900
23.882800 3.248200
23.905200 3.245900
23.927500 3.199900
23.949900 2.970600
23.972300 2.779600
23.994600 2.638300
24.017000 2.543700
24.039400 2.482400
24.061700 2.432500
24.084100 2.395300
24.106500 2.365500
24.128800 2.347500
24.151200 2.338200
24.173600 2.331900
24.195900 2.329000
24.218300 2.346500
24.240700 2.348200
24.263000 2.339600
24.285400 2.325100
24.307800 2.287200
24.330100 2.244100
24.352500 2.219300
24.374900 2.217300
24.397300 2.173100
24.419600 2.306900
24.442000 1.956000
24.464400 1.951000
24.486700 1.947200
24.509100 1.918900
24.531500 1.884900
24.553800 1.864400
24.576200 1.861200
24.598600 1.906000
24.620900 1.838500
24.643300 1.901300
24.665700 1.964600
24.688000 2.014800
24.710400 2.031000
24.732800 2.006700
24.755100 1.921000
24.777500 1.828900
24.799900 1.760300
24.822200 1.714100
24.844600 1.603400
24.867000 1.566400
24.889300 1.524100
24.911700 1.474800
24.934100 1.426500
24.956400 1.379300
24.978800 1.333500
25.001200 1.291200
25.023500 1.250400
25.045900 1.209400
25.068300 1.168300
25.090600 1.128800
25.113000 1.092700
25.135400 1.058100
25.157700 1.022200
25.180100 0.984800
25.202500 0.946300
25.224800 0.909700
25.247200 0.882500
25.269600 0.859400
25.291900 0.838600
25.314300 0.818800
25.336700 0.799200
25.359000 0.779200
25.381400 0.758100
25.403800 0.735600
25.426100 0.711500
25.448500 0.685900
25.470900 0.659400
25.493200 0.632100
25.515600 0.604000
25.538000 0.575600
25.560300 0.548400
25.582700 0.525300
25.605100 0.505700
25.627400 0.487200
25.649800 0.468800
25.672200 0.450800
25.694500 0.433800
25.716900 0.417700
25.739300 0.402200
25.761600 0.386500
25.784000 0.372100
25.806400 0.359400
25.828700 0.347600
25.851100 0.336800
25.873500 0.326900
25.895800 0.317900
25.918200 0.309800
25.940600 0.302800
25.962900 0.297300
25.985300 0.293100
26.007700 0.288500
26.030000 0.284100
26.052400 0.280200
26.074800 0.276500
26.097100 0.272500
26.119500 0.265200
26.141900 0.262500
26.164200 0.259900
26.186600 0.257300
26.209000 0.254800
26.231300 0.252300
26.253700 0.249800
26.276100 0.248400
26.298400 0.247100
26.320800 0.245600
26.343200 0.243700
26.365500 0.241600
26.387900 0.240900
26.410300 0.239500
26.432600 0.237300
26.455000 0.234500
26.477400 0.231600
26.499700 0.228800
26.522100 0.225900
26.544500 0.222100
26.566800 0.217200
26.589200 0.212400
26.611600 0.207900
26.633900 0.203300
26.656300 0.198800
26.678700 0.194100
26.701000 0.189200
26.723400 0.183600
26.745800 0.178100
26.768100 0.172700
26.790500 0.167400
26.812900 0.162100
26.835200 0.156900
26.857600 0.151800
26.880000 0.146700
26.902300 0.142000
26.924700 0.138000
26.947100 0.134000
26.969400 0.130100
26.991800 0.125800
27.014200 0.121200
27.036500 0.116700
27.058900 0.112600
27.081300 0.108700
27.103600 0.105200
27.126000 0.101900
27.148400 0.098900
27.170700 0.096300
27.193100 0.094300
27.215500 0.092400
27.237800 0.089900
27.260200 0.087400
27.282600 0.085200
27.304900 0.083300
27.327300 0.081600
27.349700 0.079900
27.372000 0.078400
27.394400 0.077200
27.416800 0.075900
27.439100 0.074700
27.461500 0.073500
27.483900 0.072300
27.506200 0.071100
27.528600 0.069900
27.551000 0.068800
27.573300 0.067600
27.595700 0.066400
27.618100 0.065300
27.640400 0.064100
27.662800 0.063000
27.685200 0.061800
27.707500 0.060700
27.729900 0.059600
27.752300 0.058400
27.774600 0.057300
27.797000 0.056200
27.819400 0.055100
27.841700 0.054000
27.864100 0.053000
27.886500 0.051900
27.908800 0.050800
27.931200 0.049800
27.953600 0.048700
27.975900 0.047700
27.998300 0.046600
28.020700 0.045700
28.043000 0.044800
28.065400 0.044000
28.087800 0.043100
28.110100 0.042500
28.132500 0.041800
28.154900 0.041100
28.177200 0.040500
28.199600 0.039800
28.222000 0.039100
28.244300 0.038800
28.266700 0.038400
28.289100 0.038000
28.311400 0.037500
28.333800 0.037100
28.356200 0.036700
28.378500 0.036200
28.400900 0.035700
28.423300 0.035300
28.445600 0.035500
28.468000 0.035000
28.490400 0.032100
28.512700 0.028900
28.535100 0.026700
28.557500 0.024600
28.579800 0.022500
28.602200 0.020500
28.624600 0.018400
28.646900 0.016800
28.669300 0.015100
28.691700 0.014100
28.714000 0.013000
28.736400 0.012100
28.758800 0.011100
28.781100 0.010200
28.803500 0.009300
28.825900 0.008400
28.848200 0.007600
28.870600 0.006800
28.893000 0.006100
28.915300 0.005400
28.937700 0.004700
28.960100 0.004000
28.982400 0.003400
29.004800 0.002800
29.027200 0.002300
29.049500 0.001800
29.071900 0.001300
29.094300 0.000800
29.116600 0.000400
29.139000 0.000000
29.161400 0.000000
29.183700 0.000000
29.206100 0.000000
29.228500 0.000000
29.250800 0.000000
29.273200 0.000000
29.295600 0.000000
29.317900 0.000000
29.340300 0.000000
29.362700 0.000000
29.385000 0.000000
29.407400 0.000000
29.429800 0.000000
29.452100 0.000000
29.474500 0.000000
29.496900 0.000000
29.519200 0.000000
29.541600 0.000000
29.564000 0.000000
29.586300 0.000000
29.608700 0.000000
29.631100 0.000000
29.653500 0.000000
29.675800 0.000000
29.698200 0.000000
29.720600 0.000000
29.742900 0.000000
29.765300 0.000000
29.787700 0.000000
29.810000 0.000000
29.832400 0.000000
29.854800 0.000000
29.877100 0.000000
29.899500 0.000000
29.921900 0.000000
29.944200 0.000000
29.966600 0.000000
29.989000 0.000000
30.011300 0.000000
30.033700 0.000000
30.056100 0.000000
30.078400 0.000000
30.100800 0.000000
30.123200 0.000000
30.145500 0.000000
30.167900 0.000000
30.190300 0.000000
30.212600 0.000000
30.235000 0.000000
30.257400 0.000000
30.279700 0.000000
30.302100 0.000000
30.324500 0.000000
30.346800 0.000000
30.369200 0.000000
30.391600 0.000000
30.413900 0.000000
30.436300 0.000000
30.458700 0.000000
30.481000 0.000000
30.503400 0.000000
30.525800 0.000000
30.548100 0.000000
30.570500 0.000000
30.592900 0.000000
30.615200 0.000000
30.637600 0.000000
30.660000 0.000000
30.682300 0.000000
30.704700 0.000000
30.727100 0.000000
30.749400 0.000000
30.771800 0.000000
30.794200 0.000000
30.816500 0.000000
30.838900 0.000000
30.861300 0.000000
30.883600 0.000000
30.906000 0.000000
30.928400 0.000000
30.950700 0.000000
30.973100 0.000000
30.995500 0.000000
31.017800 0.000000
31.040200 0.000000
31.062600 0.000000
31.084900 0.000000
31.107300 0.000000
31.129700 0.000000
31.152000 0.000000
31.174400 0.000000
e
