set title 'mp-11714 - Density of States'
set xlabel 'Energy (eV)'
set ylabel 'DOS (states/eV)'
set grid
set xrange [-10:10]
set yrange [0:7.571]
set xzeroaxis lt -1
set terminal png size 800,600
set output 'mp-11714_dos_gnuplot.png'
plot '-' using 1:2 with lines title 'DOS'
-9.271000 0.000000
-9.249800 0.000000
-9.228700 0.000000
-9.207500 0.000000
-9.186300 0.000000
-9.165100 0.000000
-9.144000 0.000000
-9.122800 0.000000
-9.101600 0.000000
-9.080400 0.000000
-9.059300 0.000000
-9.038100 0.000000
-9.016900 0.000000
-8.995700 0.000000
-8.974500 0.000000
-8.953400 0.000000
-8.932200 0.000000
-8.911000 0.000000
-8.889800 0.000000
-8.868700 0.000000
-8.847500 0.000000
-8.826300 0.000000
-8.805100 0.000000
-8.784000 0.000000
-8.762800 0.000000
-8.741600 0.000000
-8.720400 0.000000
-8.699300 0.000000
-8.678100 0.000000
-8.656900 0.000000
-8.635700 0.000000
-8.614600 0.000000
-8.593400 0.000000
-8.572200 0.000000
-8.551000 0.000000
-8.529900 0.000000
-8.508700 0.000000
-8.487500 0.000000
-8.466300 0.000000
-8.445100 0.000000
-8.424000 0.000000
-8.402800 0.000000
-8.381600 0.000000
-8.360400 0.000000
-8.339300 0.000000
-8.318100 0.000000
-8.296900 0.000000
-8.275700 0.000000
-8.254600 0.000000
-8.233400 0.000000
-8.212200 0.000000
-8.191000 0.000000
-8.169900 0.000000
-8.148700 0.000000
-8.127500 0.000000
-8.106300 0.000000
-8.085200 0.000000
-8.064000 0.000000
-8.042800 0.000000
-8.021600 0.000000
-8.000500 0.000000
-7.979300 0.000000
-7.958100 0.000000
-7.936900 0.000000
-7.915700 0.000000
-7.894600 0.000000
-7.873400 0.000000
-7.852200 0.000000
-7.831000 0.000000
-7.809900 0.000000
-7.788700 0.000000
-7.767500 0.000000
-7.746300 0.000000
-7.725200 0.000000
-7.704000 0.000000
-7.682800 0.000000
-7.661600 0.000000
-7.640500 0.000000
-7.619300 0.000000
-7.598100 0.000000
-7.576900 0.000000
-7.555800 0.000000
-7.534600 0.000000
-7.513400 0.000000
-7.492200 0.000000
-7.471100 0.000000
-7.449900 0.000000
-7.428700 0.000000
-7.407500 0.000000
-7.386300 0.000000
-7.365200 0.000000
-7.344000 0.000000
-7.322800 0.004400
-7.301600 0.016100
-7.280500 0.035300
-7.259300 0.061800
-7.238100 0.095600
-7.216900 0.136900
-7.195800 0.201100
-7.174600 0.271500
-7.153400 0.342000
-7.132200 0.408800
-7.111100 0.438500
-7.089900 0.461500
-7.068700 0.477600
-7.047500 0.486900
-7.026400 0.489400
-7.005200 0.485100
-6.984000 0.372500
-6.962800 0.378700
-6.941700 0.384800
-6.920500 0.390900
-6.899300 0.397000
-6.878100 0.403200
-6.856900 0.409300
-6.835800 0.415400
-6.814600 0.421500
-6.793400 0.450600
-6.772200 0.483000
-6.751100 0.517000
-6.729900 0.552700
-6.708700 0.589900
-6.687500 0.627600
-6.666400 0.665700
-6.645200 0.704000
-6.624000 0.742500
-6.602800 0.662800
-6.581700 0.670900
-6.560500 0.674800
-6.539300 0.678900
-6.518100 0.683100
-6.497000 0.687600
-6.475800 0.693200
-6.454600 0.699900
-6.433400 0.707700
-6.412300 0.716600
-6.391100 0.726600
-6.369900 0.738900
-6.348700 0.753300
-6.327500 0.767800
-6.306400 0.782500
-6.285200 0.797300
-6.264000 0.812300
-6.242800 0.827400
-6.221700 0.842700
-6.200500 0.858100
-6.179300 0.871000
-6.158100 0.881000
-6.137000 0.889200
-6.115800 0.896600
-6.094600 0.903500
-6.073400 0.909800
-6.052300 0.915600
-6.031100 0.920800
-6.009900 0.925600
-5.988700 0.929800
-5.967600 0.941200
-5.946400 0.956900
-5.925200 0.969600
-5.904000 0.980500
-5.882900 0.988300
-5.861700 0.995900
-5.840500 1.003200
-5.819300 1.010300
-5.798100 1.017200
-5.777000 1.024000
-5.755800 1.023600
-5.734600 1.032700
-5.713400 1.041900
-5.692300 1.051000
-5.671100 1.060200
-5.649900 1.069400
-5.628700 1.078600
-5.607600 1.087900
-5.586400 1.097100
-5.565200 1.106500
-5.544000 1.116200
-5.522900 1.126300
-5.501700 1.136600
-5.480500 1.147300
-5.459300 1.158300
-5.438200 1.169700
-5.417000 1.181500
-5.395800 1.193600
-5.374600 1.196200
-5.353500 1.207400
-5.332300 1.218600
-5.311100 1.229700
-5.289900 1.259700
-5.268700 1.295800
-5.247600 1.330500
-5.226400 1.363900
-5.205200 1.396000
-5.184000 1.426700
-5.162900 1.456100
-5.141700 1.484200
-5.120500 1.510900
-5.099300 1.408100
-5.078200 1.415100
-5.057000 1.421900
-5.035800 1.428700
-5.014600 1.435400
-4.993500 1.442500
-4.972300 1.449500
-4.951100 1.456500
-4.929900 1.463300
-4.908800 1.470100
-4.887600 1.476700
-4.866400 1.483300
-4.845200 1.489700
-4.824100 1.496000
-4.802900 1.502300
-4.781700 1.509200
-4.760500 1.516200
-4.739300 1.524600
-4.718200 1.533100
-4.697000 1.537800
-4.675800 1.543300
-4.654600 1.550000
-4.633500 1.558700
-4.612300 1.567600
-4.591100 1.576700
-4.569900 1.586000
-4.548800 1.595400
-4.527600 1.605500
-4.506400 1.618400
-4.485200 1.631400
-4.464100 1.644500
-4.442900 1.658100
-4.421700 1.671800
-4.400500 1.685600
-4.379400 1.699500
-4.358200 1.719600
-4.337000 1.765100
-4.315800 1.823200
-4.294700 1.915600
-4.273500 2.006400
-4.252300 2.095800
-4.231100 2.183700
-4.209900 2.360700
-4.188800 2.394600
-4.167600 2.291000
-4.146400 2.291500
-4.125200 2.292600
-4.104100 2.294300
-4.082900 2.296600
-4.061700 2.299400
-4.040500 2.302900
-4.019400 2.306800
-3.998200 2.311400
-3.977000 2.313100
-3.955800 2.320400
-3.934700 2.328200
-3.913500 2.467400
-3.892300 2.474400
-3.871100 2.480600
-3.850000 2.486000
-3.828800 2.529900
-3.807600 2.770000
-3.786400 2.986900
-3.765300 2.958600
-3.744100 3.102600
-3.722900 3.190000
-3.701700 3.160400
-3.680500 2.405700
-3.659400 2.390800
-3.638200 2.380100
-3.617000 2.373200
-3.595800 2.364400
-3.574700 2.353800
-3.553500 2.341400
-3.532300 2.392400
-3.511100 2.413700
-3.490000 2.449900
-3.468800 2.501100
-3.447600 2.567300
-3.426400 2.272400
-3.405300 2.234700
-3.384100 2.221500
-3.362900 2.214100
-3.341700 2.212500
-3.320600 2.216300
-3.299400 2.219100
-3.278200 2.219200
-3.257000 2.216700
-3.235900 2.211600
-3.214700 2.204000
-3.193500 2.208900
-3.172300 2.214700
-3.151100 2.224600
-3.130000 2.228700
-3.108800 2.254600
-3.087600 2.312500
-3.066400 2.380100
-3.045300 2.445000
-3.024100 2.507200
-3.002900 2.566000
-2.981700 2.592500
-2.960600 3.015000
-2.939400 2.747800
-2.918200 2.499400
-2.897000 2.270100
-2.875900 2.066400
-2.854700 1.977400
-2.833500 1.959900
-2.812300 1.937700
-2.791200 1.910700
-2.770000 1.879000
-2.748800 1.842500
-2.727600 2.060300
-2.706500 2.483000
-2.685300 2.746400
-2.664100 2.850300
-2.642900 1.282100
-2.621700 1.375900
-2.600600 1.471000
-2.579400 1.567400
-2.558200 6.882800
-2.537000 4.022000
-2.515900 4.029100
-2.494700 4.195100
-2.473500 4.315700
-2.452300 4.396100
-2.431200 4.436300
-2.410000 4.346800
-2.388800 2.931900
-2.367600 2.465600
-2.346500 1.965600
-2.325300 1.431700
-2.304100 0.931700
-2.282900 0.504000
-2.261800 0.127900
-2.240600 0.000000
-2.219400 0.000000
-2.198200 0.000000
-2.177100 0.000000
-2.155900 0.000000
-2.134700 0.000000
-2.113500 0.000000
-2.092300 0.000000
-2.071200 0.000000
-2.050000 0.000000
-2.028800 0.000000
-2.007600 0.000000
-1.986500 0.000000
-1.965300 0.000000
-1.944100 0.000000
-1.922900 0.000000
-1.901800 0.000000
-1.880600 0.000000
-1.859400 0.000000
-1.838200 0.000000
-1.817100 0.000000
-1.795900 0.000000
-1.774700 0.000000
-1.753500 0.000000
-1.732400 0.000000
-1.711200 0.000000
-1.690000 0.000000
-1.668800 0.000000
-1.647700 0.000000
-1.626500 0.000000
-1.605300 0.000000
-1.584100 0.000000
-1.562900 0.000000
-1.541800 0.000000
-1.520600 0.000000
-1.499400 0.000000
-1.478200 0.000000
-1.457100 0.000000
-1.435900 0.000000
-1.414700 0.000000
-1.393500 0.000000
-1.372400 0.000000
-1.351200 0.000000
-1.330000 0.000000
-1.308800 0.000000
-1.287700 0.000000
-1.266500 0.000000
-1.245300 0.000000
-1.224100 0.000000
-1.203000 0.000000
-1.181800 0.000000
-1.160600 0.000000
-1.139400 0.000000
-1.118300 0.000000
-1.097100 0.000000
-1.075900 0.000000
-1.054700 0.000000
-1.033500 0.000000
-1.012400 0.000000
-0.991200 0.000000
-0.970000 0.000000
-0.948800 0.000000
-0.927700 0.000000
-0.906500 0.000000
-0.885300 0.000000
-0.864100 0.000000
-0.843000 0.000000
-0.821800 0.000000
-0.800600 0.000000
-0.779400 0.000000
-0.758300 0.000000
-0.737100 0.000000
-0.715900 0.000000
-0.694700 0.000000
-0.673600 0.000000
-0.652400 0.000000
-0.631200 0.000000
-0.610000 0.000000
-0.588900 0.000000
-0.567700 0.000000
-0.546500 0.000000
-0.525300 0.000000
-0.504100 0.000000
-0.483000 0.001100
-0.461800 0.003800
-0.440600 0.008100
-0.419400 0.014000
-0.398300 0.021500
-0.377100 0.030700
-0.355900 0.041500
-0.334700 0.053900
-0.313600 0.067500
-0.292400 0.082900
-0.271200 0.136400
-0.250000 0.231300
-0.228900 0.367600
-0.207700 0.545300
-0.186500 0.670600
-0.165300 0.743600
-0.144200 0.846500
-0.123000 1.376400
-0.101800 1.081500
-0.080600 0.862500
-0.059500 0.806500
-0.038300 0.846400
-0.017100 0.886800
0.004100 0.942100
0.025300 1.024600
0.046400 1.134500
0.067600 1.271600
0.088800 1.436100
0.110000 1.627900
0.131100 1.750500
0.152300 1.877400
0.173500 2.010500
0.194700 3.008900
0.215800 2.029000
0.237000 2.100200
0.258200 2.199700
0.279400 2.500100
0.300500 2.825800
0.321700 3.076000
0.342900 3.250500
0.364100 3.349900
0.385200 3.202900
0.406400 3.146800
0.427600 2.997100
0.448800 2.992000
0.469900 2.995500
0.491100 3.001500
0.512300 3.010000
0.533500 3.021000
0.554700 3.034500
0.575800 3.302300
0.597000 3.566200
0.618200 3.807700
0.639400 4.837200
0.660500 4.424800
0.681700 4.015300
0.702900 3.593000
0.724100 3.166600
0.745200 2.959700
0.766400 2.858300
0.787600 2.808100
0.808800 3.374400
0.829900 3.404700
0.851100 3.431500
0.872300 3.791300
0.893500 3.702400
0.914600 3.622200
0.935800 3.547600
0.957000 3.520100
0.978200 3.508100
0.999300 3.503600
1.020500 3.506400
1.041700 2.964000
1.062900 2.824600
1.084100 2.702400
1.105200 2.604900
1.126400 2.174000
1.147600 2.206100
1.168800 1.970100
1.189900 1.770200
1.211100 1.747700
1.232300 1.739500
1.253500 1.738400
1.274600 1.743400
1.295800 1.754600
1.317000 1.772000
1.338200 1.795400
1.359300 1.824100
1.380500 2.010800
1.401700 2.444900
1.422900 2.924300
1.444000 3.449000
1.465200 2.054300
1.486400 2.063900
1.507600 2.071800
1.528700 2.076700
1.549900 2.078600
1.571100 2.077400
1.592300 2.073200
1.613500 2.066000
1.634600 2.055800
1.655800 2.042500
1.677000 2.026200
1.698200 2.006900
1.719300 1.984900
1.740500 1.960100
1.761700 1.932500
1.782900 1.852600
1.804000 1.744600
1.825200 1.670400
1.846400 1.673900
1.867600 1.704400
1.888700 1.875600
1.909900 1.935500
1.931100 2.007100
1.952300 2.081800
1.973400 2.012600
1.994600 2.057100
2.015800 2.105400
2.037000 2.155900
2.058100 2.208600
2.079300 2.263500
2.100500 2.320600
2.121700 2.379700
2.142900 2.441000
2.164000 1.606000
2.185200 1.594300
2.206400 1.584700
2.227600 1.585200
2.248700 1.586600
2.269900 1.588900
2.291100 1.592100
2.312300 1.596200
2.333400 1.604000
2.354600 1.617200
2.375800 1.630000
2.397000 1.642500
2.418100 1.654600
2.439300 1.667900
2.460500 1.688300
2.481700 1.715700
2.502800 1.741700
2.524000 1.759500
2.545200 1.777000
2.566400 1.794400
2.587500 1.811600
2.608700 1.828700
2.629900 1.846300
2.651100 2.032000
2.672300 2.194900
2.693400 2.319700
2.714600 2.408300
2.735800 2.461000
2.757000 2.477700
2.778100 2.445500
2.799300 2.426000
2.820500 2.435800
2.841700 2.420100
2.862800 2.445400
2.884000 2.468000
2.905200 2.488000
2.926400 2.505300
2.947500 2.520200
2.968700 2.534000
2.989900 2.543900
3.011100 2.551700
3.032200 2.557400
3.053400 2.565000
3.074600 2.564200
3.095800 2.573500
3.116900 2.648300
3.138100 2.722300
3.159300 2.795400
3.180500 2.867600
3.201700 2.930800
3.222800 2.892000
3.244000 2.850500
3.265200 2.820500
3.286400 2.796700
3.307500 2.775000
3.328700 2.755300
3.349900 2.737700
3.371100 2.722000
3.392200 2.708400
3.413400 2.696900
3.434600 2.676800
3.455800 2.671400
3.476900 2.669100
3.498100 2.670100
3.519300 2.867500
3.540500 2.835800
3.561600 2.841600
3.582800 3.129100
3.604000 3.278100
3.625200 3.092000
3.646300 2.751300
3.667500 2.515900
3.688700 2.371500
3.709900 2.282900
3.731100 2.285400
3.752200 2.327200
3.773400 2.377200
3.794600 2.406600
3.815800 2.438800
3.836900 2.475700
3.858100 2.517600
3.879300 2.560600
3.900500 2.586900
3.921600 2.616800
3.942800 2.649900
3.964000 2.686300
3.985200 2.726000
4.006300 2.768800
4.027500 2.814900
4.048700 2.864300
4.069900 2.916800
4.091000 3.004200
4.112200 3.136000
4.133400 3.914200
4.154600 5.144500
4.175700 5.123900
4.196900 4.703500
4.218100 4.257300
4.239300 4.164700
4.260500 4.070500
4.281600 3.977100
4.302800 3.883900
4.324000 4.213700
4.345200 4.108100
4.366300 4.009200
4.387500 3.915800
4.408700 3.826400
4.429900 3.601600
4.451000 3.603900
4.472200 3.605000
4.493400 3.605100
4.514600 3.604200
4.535700 3.602600
4.556900 3.593700
4.578100 3.581100
4.599300 3.567200
4.620400 3.552000
4.641600 3.535600
4.662800 3.518700
4.684000 3.502300
4.705100 3.493700
4.726300 3.490800
4.747500 3.493400
4.768700 3.488500
4.789900 3.468900
4.811000 3.435500
4.832200 3.453800
4.853400 3.460100
4.874600 3.451500
4.895700 3.439900
4.916900 3.424800
4.938100 3.406300
4.959300 3.323700
4.980400 3.320900
5.001600 3.317400
5.022800 3.335500
5.044000 3.334300
5.065100 3.330100
5.086300 3.326200
5.107500 3.324000
5.128700 3.365100
5.149800 5.077300
5.171000 5.500300
5.192200 4.885100
5.213400 4.805400
5.234500 4.737200
5.255700 4.854400
5.276900 4.876200
5.298100 4.826600
5.319300 4.772600
5.340400 4.710400
5.361600 4.645200
5.382800 4.559700
5.404000 4.469600
5.425100 4.390400
5.446300 4.325500
5.467500 4.550700
5.488700 4.236100
5.509800 4.115100
5.531000 4.022700
5.552200 3.932200
5.573400 3.830800
5.594500 3.739100
5.615700 3.693900
5.636900 3.673400
5.658100 3.661700
5.679200 3.658200
5.700400 3.664000
5.721600 3.677500
5.742800 3.713000
5.763900 3.756600
5.785100 3.804600
5.806300 3.863600
5.827500 3.939500
5.848700 4.554900
5.869800 4.763600
5.891000 4.923900
5.912200 5.699700
5.933400 5.180800
5.954500 4.982400
5.975700 4.994100
5.996900 4.998700
6.018100 4.994700
6.039200 4.983800
6.060400 4.987600
6.081600 4.981400
6.102800 4.961400
6.123900 4.849700
6.145100 4.908700
6.166300 5.229800
6.187500 5.681800
6.208600 6.233400
6.229800 6.324200
6.251000 6.200400
6.272200 5.812400
6.293300 5.637400
6.314500 5.489300
6.335700 5.367300
6.356900 5.196900
6.378100 5.082500
6.399200 4.987000
6.420400 4.886300
6.441600 4.783600
6.462800 4.720400
6.483900 4.670400
6.505100 4.625800
6.526300 4.587000
6.547500 4.595600
6.568600 4.543500
6.589800 4.489600
6.611000 4.434000
6.632200 4.405700
6.653300 4.382500
6.674500 4.328800
6.695700 4.112600
6.716900 4.016100
6.738000 3.825700
6.759200 3.741200
6.780400 3.751800
6.801600 3.656900
6.822700 3.559800
6.843900 3.468600
6.865100 3.370100
6.886300 3.271100
6.907500 3.171400
6.928600 3.069100
6.949800 2.971300
6.971000 2.881000
6.992200 2.743400
7.013300 2.669500
7.034500 2.604500
7.055700 2.561200
7.076900 2.519900
7.098000 2.522500
7.119200 2.468600
7.140400 2.411400
7.161600 2.349900
7.182700 2.303600
7.203900 2.261800
7.225100 2.227300
7.246300 2.197900
7.267400 2.149100
7.288600 2.102600
7.309800 2.058600
7.331000 2.016300
7.352100 1.975600
7.373300 1.921900
7.394500 1.848600
7.415700 1.779200
7.436900 1.686100
7.458000 1.631500
7.479200 1.580900
7.500400 1.623900
7.521600 1.549200
7.542700 1.477100
7.563900 1.407600
7.585100 1.340200
7.606300 1.262400
7.627400 1.180200
7.648600 1.099300
7.669800 1.019700
7.691000 0.952800
7.712100 0.905200
7.733300 0.858300
7.754500 0.812000
7.775700 0.766300
7.796800 0.721200
7.818000 0.950500
7.839200 0.913800
7.860400 0.855200
7.881500 0.769700
7.902700 0.657300
7.923900 0.528000
7.945100 0.334700
7.966300 0.177600
7.987400 0.070100
8.008600 0.011700
8.029800 0.000000
8.051000 0.000000
8.072100 0.000000
8.093300 0.000000
8.114500 0.000000
8.135700 0.000000
8.156800 0.000000
8.178000 0.000000
8.199200 0.000000
8.220400 0.000000
8.241500 0.000000
8.262700 0.000000
8.283900 0.000000
8.305100 0.000000
8.326200 0.000000
8.347400 0.000000
8.368600 0.000000
8.389800 0.000000
8.410900 0.000000
8.432100 0.000000
8.453300 0.000000
8.474500 0.000000
8.495700 0.000000
8.516800 0.000000
8.538000 0.000000
8.559200 0.000000
8.580400 0.000000
8.601500 0.000000
8.622700 0.000000
8.643900 0.000000
8.665100 0.000000
8.686200 0.000000
8.707400 0.000000
8.728600 0.000000
8.749800 0.000000
8.770900 0.000000
8.792100 0.000000
8.813300 0.000000
8.834500 0.000000
8.855600 0.000000
8.876800 0.000000
8.898000 0.000000
8.919200 0.000000
8.940300 0.000000
8.961500 0.000000
8.982700 0.000000
9.003900 0.000000
9.025100 0.000000
9.046200 0.000000
9.067400 0.000000
9.088600 0.000000
9.109800 0.000000
9.130900 0.000000
9.152100 0.000000
9.173300 0.000000
9.194500 0.000000
9.215600 0.000000
9.236800 0.000000
9.258000 0.000000
9.279200 0.000000
9.300300 0.000000
9.321500 0.000000
9.342700 0.000000
9.363900 0.000000
9.385000 0.000000
9.406200 0.000000
9.427400 0.000000
9.448600 0.000000
9.469700 0.000000
9.490900 0.000000
9.512100 0.000000
9.533300 0.000000
9.554500 0.000000
9.575600 0.000000
9.596800 0.000000
9.618000 0.000000
9.639200 0.000000
9.660300 0.000000
9.681500 0.000000
9.702700 0.000000
9.723900 0.000000
9.745000 0.000000
9.766200 0.000000
9.787400 0.000000
9.808600 0.000000
9.829700 0.000000
9.850900 0.000000
9.872100 0.000000
9.893300 0.000000
9.914400 0.000000
9.935600 0.000000
9.956800 0.000000
9.978000 0.000000
9.999100 0.000000
10.020300 0.000000
10.041500 0.000000
10.062700 0.000000
10.083900 0.000000
10.105000 0.000000
10.126200 0.000000
10.147400 0.000000
10.168600 0.000000
10.189700 0.000000
10.210900 0.000000
10.232100 0.000000
10.253300 0.000000
10.274400 0.000000
10.295600 0.000000
10.316800 0.000000
10.338000 0.000000
10.359100 0.006000
10.380300 0.027000
10.401500 0.048700
10.422700 0.071000
10.443800 0.094000
10.465000 0.127200
10.486200 0.163900
10.507400 0.202100
10.528500 0.241600
10.549700 0.282500
10.570900 0.324700
10.592100 0.457100
10.613300 0.487400
10.634400 0.518900
10.655600 0.551600
10.676800 0.658300
10.698000 0.685200
10.719100 0.712600
10.740300 0.740500
10.761500 0.768700
10.782700 0.797500
10.803800 0.826700
10.825000 0.856300
10.846200 0.886400
10.867400 0.916900
10.888500 0.947900
10.909700 0.979300
10.930900 1.011200
10.952100 1.043400
10.973200 1.076200
10.994400 1.109400
11.015600 1.141700
11.036800 1.171000
11.057900 1.197200
11.079100 1.220400
11.100300 1.239000
11.121500 1.254100
11.142700 1.275500
11.163800 1.310000
11.185000 1.347000
11.206200 1.383900
11.227400 1.420800
11.248500 1.457600
11.269700 1.492800
11.290900 1.522800
11.312100 1.553700
11.333200 1.590500
11.354400 1.636800
11.375600 1.701300
11.396800 1.765300
11.417900 1.900900
11.439100 2.092800
11.460300 2.316500
11.481500 2.576600
11.502600 2.873000
11.523800 3.205800
11.545000 3.441900
11.566200 3.335500
11.587300 2.688000
11.608500 2.692300
11.629700 2.683400
11.650900 2.635000
11.672100 2.571000
11.693200 2.519500
11.714400 2.480300
11.735600 2.052800
11.756800 2.009800
11.777900 1.969300
11.799100 1.931400
11.820300 1.896000
11.841500 1.863100
11.862600 1.832800
11.883800 1.805200
11.905000 1.780200
11.926200 1.758000
11.947300 1.738400
11.968500 1.721500
11.989700 1.707300
12.010900 1.694200
12.032000 1.680300
12.053200 1.665600
12.074400 1.738100
12.095600 1.748500
12.116700 1.760400
12.137900 1.773800
12.159100 1.789000
12.180300 1.818900
12.201500 1.899000
12.222600 1.984300
12.243800 2.086000
12.265000 2.169000
12.286200 2.060400
12.307300 1.590000
12.328500 1.596800
12.349700 1.603100
12.370900 1.608800
12.392000 1.781100
12.413200 2.162900
12.434400 2.660900
12.455600 2.206700
12.476700 1.823100
12.497900 1.679200
12.519100 1.643100
12.540300 1.609900
12.561400 1.579300
12.582600 1.551500
12.603800 1.526300
12.625000 1.503900
12.646100 1.484100
12.667300 1.468100
12.688500 1.456000
12.709700 1.858700
12.730900 1.996700
12.752000 2.176600
12.773200 2.355300
12.794400 2.531300
12.815600 2.702200
12.836700 2.852600
12.857900 2.950000
12.879100 3.064300
12.900300 3.158800
12.921400 3.233500
12.942600 3.674500
12.963800 3.656800
12.985000 3.551000
13.006100 3.453600
13.027300 3.394700
13.048500 3.340900
13.069700 3.292400
13.090800 3.256200
13.112000 3.224900
13.133200 3.194100
13.154400 3.164300
13.175500 3.135700
13.196700 3.108400
13.217900 3.082200
13.239100 3.066000
13.260300 3.182400
13.281400 3.475500
13.302600 3.803500
13.323800 3.663700
13.345000 3.461400
13.366100 3.199400
13.387300 2.465300
13.408500 2.550100
13.429700 2.651400
13.450800 2.796300
13.472000 2.957300
13.493200 3.047900
13.514400 3.197100
13.535500 3.306100
13.556700 3.488900
13.577900 3.638100
13.599100 3.108100
13.620200 3.065500
13.641400 3.034300
13.662600 3.014300
13.683800 2.999100
13.704900 2.984600
13.726100 2.970600
13.747300 2.957300
13.768500 2.949800
13.789700 2.896100
13.810800 2.840700
13.832000 2.792800
13.853200 2.752400
13.874400 3.040800
13.895500 4.761700
13.916700 4.409100
13.937900 4.213300
13.959100 4.080600
13.980200 3.990200
14.001400 3.913400
14.022600 3.836900
14.043800 3.751500
14.064900 3.657300
14.086100 3.626600
14.107300 3.594100
14.128500 3.665300
14.149600 3.623400
14.170800 3.602400
14.192000 3.732300
14.213200 3.912800
14.234300 4.005800
14.255500 3.736500
14.276700 3.596100
14.297900 3.469000
14.319100 3.355200
14.340200 3.254800
14.361400 3.167600
14.382600 3.091900
14.403800 3.282700
14.424900 3.258400
14.446100 5.966100
14.467300 3.743700
14.488500 3.575800
14.509600 4.258000
14.530800 3.509700
14.552000 2.511200
14.573200 2.498300
14.594300 2.493400
14.615500 2.797800
14.636700 3.441100
14.657900 3.451500
14.679000 3.274700
14.700200 3.090300
14.721400 3.463000
14.742600 3.621100
14.763700 3.872500
14.784900 4.441500
14.806100 5.160400
14.827300 5.145600
14.848500 4.767000
14.869600 4.058500
14.890800 3.244700
14.912000 2.583100
14.933200 2.173200
14.954300 2.049200
14.975500 2.217600
14.996700 2.904900
15.017900 3.545200
15.039000 3.998900
15.060200 4.372800
15.081400 4.655200
15.102600 4.849200
15.123700 4.735200
15.144900 4.010300
15.166100 3.955500
15.187300 3.991900
15.208400 4.173900
15.229600 4.244400
15.250800 4.236000
15.272000 4.154200
15.293100 4.005400
15.314300 3.783500
15.335500 3.457100
15.356700 3.414500
15.377900 3.382600
15.399000 3.357900
15.420200 3.344300
15.441400 3.327600
15.462600 3.283900
15.483700 3.357800
15.504900 3.469600
15.526100 3.601900
15.547300 3.747400
15.568400 3.796500
15.589600 3.961000
15.610800 4.146400
15.632000 4.280900
15.653100 4.761100
15.674300 5.000000
15.695500 5.425800
15.716700 6.013900
15.737800 6.873700
15.759000 7.130500
15.780200 7.373900
15.801400 7.424300
15.822500 7.953100
15.843700 7.215500
15.864900 6.587200
15.886100 5.984800
15.907300 5.408300
15.928400 4.991000
15.949600 9.393000
15.970800 4.888500
15.992000 4.581500
16.013100 4.275900
16.034300 3.975300
16.055500 3.899500
16.076700 3.921600
16.097800 3.844500
16.119000 3.806100
16.140200 3.799800
16.161400 3.843500
16.182500 3.915900
16.203700 4.005900
16.224900 4.135300
16.246100 4.283100
16.267200 4.435900
16.288400 4.593300
16.309600 4.754300
16.330800 4.918900
16.351900 5.087200
16.373100 5.175400
16.394300 5.254700
16.415500 5.328600
16.436700 5.386400
16.457800 5.766400
16.479000 6.935000
16.500200 4.986600
16.521400 4.721700
16.542500 4.496600
16.563700 4.295900
16.584900 4.119000
16.606100 3.965900
16.627200 3.839000
16.648400 3.726700
16.669600 3.617500
16.690800 3.648800
16.711900 3.729800
16.733100 3.878700
16.754300 4.110100
16.775500 4.104300
16.796600 4.219300
16.817800 4.334000
16.839000 4.476500
16.860200 4.597000
16.881300 4.611500
16.902500 4.568000
16.923700 4.277900
16.944900 4.178700
16.966100 4.106200
16.987200 4.084700
17.008400 4.055500
17.029600 3.994300
17.050800 3.901200
17.071900 3.647600
17.093100 3.498300
17.114300 3.439200
17.135500 3.373700
17.156600 3.301500
17.177800 3.230100
17.199000 3.161600
17.220200 3.096000
17.241300 3.033300
17.262500 2.969300
17.283700 2.892100
17.304900 2.818200
17.326000 2.747500
17.347200 2.681500
17.368400 2.625600
17.389600 2.581700
17.410700 2.549600
17.431900 2.529300
17.453100 2.521100
17.474300 2.588200
17.495500 2.716600
17.516600 2.782400
17.537800 2.842600
17.559000 2.909100
17.580200 2.979900
17.601300 3.059200
17.622500 3.159200
17.643700 3.322000
17.664900 3.501000
17.686000 3.696200
17.707200 3.907700
17.728400 4.883800
17.749600 4.283900
17.770700 4.414600
17.791900 4.330200
17.813100 4.305800
17.834300 4.286100
17.855400 4.271100
17.876600 4.260900
17.897800 4.255400
17.919000 4.380900
17.940100 4.644100
17.961300 5.119000
17.982500 4.152900
18.003700 4.103300
18.024800 4.064400
18.046000 4.048300
18.067200 4.030400
18.088400 4.119800
18.109600 4.717700
18.130700 5.475000
18.151900 4.301500
18.173100 4.091900
18.194300 3.880800
18.215400 3.672500
18.236600 3.503700
18.257800 3.401200
18.279000 3.430000
18.300100 3.475000
18.321300 3.528300
18.342500 3.550000
18.363700 3.647500
18.384800 3.768500
18.406000 4.376600
18.427200 4.974400
18.448400 5.490100
18.469500 8.327900
18.490700 8.335700
18.511900 7.674800
18.533100 7.545800
18.554200 5.652800
18.575400 4.835700
18.596600 4.318700
18.617800 3.983300
18.639000 3.337700
18.660100 3.243100
18.681300 3.198500
18.702500 3.190200
18.723700 2.853900
18.744800 2.462400
18.766000 2.534900
18.787200 2.612900
18.808400 3.610200
18.829500 3.601400
18.850700 3.507000
18.871900 3.362500
18.893100 3.190000
18.914200 2.999400
18.935400 2.958500
18.956600 2.964000
18.977800 2.973200
18.998900 3.033500
19.020100 3.128200
19.041300 3.242300
19.062500 3.375800
19.083600 3.528700
19.104800 3.700900
19.126000 3.861700
19.147200 3.988100
19.168400 3.611200
19.189500 3.637300
19.210700 3.645600
19.231900 3.636000
19.253100 3.608600
19.274200 3.480500
19.295400 3.428600
19.316600 3.367800
19.337800 3.330200
19.358900 3.320600
19.380100 3.338700
19.401300 3.385000
19.422500 2.909100
19.443600 2.821200
19.464800 3.120400
19.486000 3.426900
19.507200 3.581000
19.528300 3.736300
19.549500 3.888800
19.570700 3.799600
19.591900 3.866800
19.613000 3.928200
19.634200 3.984000
19.655400 3.927700
19.676600 3.943700
19.697800 3.953300
19.718900 3.962800
19.740100 4.188300
19.761300 4.146200
19.782500 4.110000
19.803600 4.103000
19.824800 4.130500
19.846000 4.161500
19.867200 4.722400
19.888300 5.194200
19.909500 4.098600
19.930700 3.684500
19.951900 3.344200
19.973000 4.716800
19.994200 3.448200
20.015400 3.986200
20.036600 4.467500
20.057700 3.281900
20.078900 3.256900
20.100100 3.221000
20.121300 3.185600
20.142400 3.151600
20.163600 3.120900
20.184800 3.093300
20.206000 3.064400
20.227200 3.026900
20.248300 2.980500
20.269500 2.925500
20.290700 2.862800
20.311900 2.792600
20.333000 2.715100
20.354200 2.568900
20.375400 3.183500
20.396600 3.871000
20.417700 2.682100
20.438900 2.778900
20.460100 2.770200
20.481300 2.760700
20.502400 2.759600
20.523600 2.763700
20.544800 2.773900
20.566000 2.790100
20.587100 2.828200
20.608300 2.881400
20.629500 2.941600
20.650700 3.008600
20.671800 3.093700
20.693000 3.226300
20.714200 3.366600
20.735400 3.514500
20.756600 3.670100
20.777700 3.833400
20.798900 3.991700
20.820100 4.141800
20.841300 4.300700
20.862400 4.468600
20.883600 4.448700
20.904800 4.451400
20.926000 4.396800
20.947100 4.302700
20.968300 4.187000
20.989500 4.050200
21.010700 4.160400
21.031800 4.088800
21.053000 4.029300
21.074200 3.978500
21.095400 3.981700
21.116500 4.014200
21.137700 4.063000
21.158900 4.127900
21.180100 4.218900
21.201200 4.282300
21.222400 3.913500
21.243600 3.973200
21.264800 4.040700
21.286000 4.243700
21.307100 4.625800
21.328300 4.652300
21.349500 4.562200
21.370700 4.489600
21.391800 4.417900
21.413000 4.439100
21.434200 4.520300
21.455400 4.546500
21.476500 4.516000
21.497700 4.517500
21.518900 4.508400
21.540100 4.484000
21.561200 4.444200
21.582400 4.388300
21.603600 4.319700
21.624800 4.620600
21.645900 6.545800
21.667100 2.632800
21.688300 2.537900
21.709500 2.470600
21.730600 2.413000
21.751800 2.361300
21.773000 2.315400
21.794200 2.275400
21.815400 2.241300
21.836500 2.213000
21.857700 2.190600
21.878900 2.174100
21.900100 2.167500
21.921200 2.178600
21.942400 2.204300
21.963600 2.039900
21.984800 2.077000
22.005900 3.240100
22.027100 4.588300
22.048300 4.101000
22.069500 3.475400
22.090600 2.961900
22.111800 2.807400
22.133000 2.629300
22.154200 2.380200
22.175300 2.219400
22.196500 2.113000
22.217700 2.048300
22.238900 1.995100
22.260000 1.978200
22.281200 2.022400
22.302400 2.070100
22.323600 2.120500
22.344800 2.166100
22.365900 1.971500
22.387100 1.955100
22.408300 1.941800
22.429500 1.931600
22.450600 1.925800
22.471800 1.928800
22.493000 1.943100
22.514200 1.963100
22.535300 1.986800
22.556500 2.012600
22.577700 2.040400
22.598900 2.070500
22.620000 2.102900
22.641200 2.137600
22.662400 2.185500
22.683600 2.238000
22.704700 2.292600
22.725900 2.349500
22.747100 2.408500
22.768300 2.495000
22.789400 2.640700
22.810600 2.790400
22.831800 2.944200
22.853000 3.057200
22.874200 3.148500
22.895300 2.667200
22.916500 2.512000
22.937700 2.561800
22.958900 2.702600
22.980000 2.659800
23.001200 2.589200
23.022400 2.491100
23.043600 2.378300
23.064700 2.283500
23.085900 2.208100
23.107100 2.152100
23.128300 2.115600
23.149400 2.124600
23.170600 2.144200
23.191800 2.178200
23.213000 2.212400
23.234100 2.247400
23.255300 2.280800
23.276500 2.312800
23.297700 2.343200
23.318800 2.372100
23.340000 2.399400
23.361200 2.460400
23.382400 2.485400
23.403600 2.326600
23.424700 2.358800
23.445900 2.392500
23.467100 2.427700
23.488300 2.464400
23.509400 2.502600
23.530600 2.542300
23.551800 2.583600
23.573000 2.626300
23.594100 2.541900
23.615300 2.564200
23.636500 2.576500
23.657700 2.590000
23.678800 2.605300
23.700000 2.670700
23.721200 2.706700
23.742400 2.731800
23.763500 2.756800
23.784700 2.781800
23.805900 2.811800
23.827100 2.932900
23.848200 3.076300
23.869400 3.149000
23.890600 3.213300
23.911800 3.281300
23.933000 3.292500
23.954100 3.252100
23.975300 3.394000
23.996500 3.530300
24.017700 3.676100
24.038800 4.100600
24.060000 4.137800
24.081200 3.371900
24.102400 3.686200
24.123500 4.344000
24.144700 2.739500
24.165900 2.793800
24.187100 2.852400
24.208200 2.915100
24.229400 2.982100
24.250600 3.053400
24.271800 3.129200
24.292900 3.209900
24.314100 3.295100
24.335300 3.388600
24.356500 3.456800
24.377600 3.526400
24.398800 3.678600
24.420000 3.842100
24.441200 4.006000
24.462400 4.247600
24.483500 4.502600
24.504700 5.305500
24.525900 4.430900
24.547100 3.829800
24.568200 3.218200
24.589400 3.191300
24.610600 3.295100
24.631800 3.431400
24.652900 3.600500
24.674100 3.769600
24.695300 3.853100
24.716500 3.894700
24.737600 3.894400
24.758800 3.841300
24.780000 3.781800
24.801200 3.856500
24.822300 3.837400
24.843500 3.833300
24.864700 3.820800
24.885900 3.792100
24.907000 3.617600
24.928200 3.542100
24.949400 3.450300
24.970600 3.376800
24.991800 3.168800
25.012900 3.013800
25.034100 2.879300
25.055300 2.752700
25.076500 2.763800
25.097600 2.722100
25.118800 2.734600
25.140000 2.747300
25.161200 2.756900
25.182300 2.767700
25.203500 2.786800
25.224700 2.787800
25.245900 2.793300
25.267000 2.802200
25.288200 2.814600
25.309400 2.821400
25.330600 2.829800
25.351700 2.823000
25.372900 2.823200
25.394100 2.804600
25.415300 2.791200
25.436400 2.782900
25.457600 2.570300
25.478800 2.460000
25.500000 2.355400
25.521200 2.257300
25.542300 2.166000
25.563500 2.099200
25.584700 2.039600
25.605900 1.991300
25.627000 1.946900
25.648200 1.926400
25.669400 1.919800
25.690600 1.925500
25.711700 1.960900
25.732900 2.001000
25.754100 2.045200
25.775300 2.093400
25.796400 2.135100
25.817600 2.075600
25.838800 2.143200
25.860000 2.212700
25.881100 2.284100
25.902300 2.355000
25.923500 2.415600
25.944700 2.466900
25.965800 2.517700
25.987000 2.576700
26.008200 3.031400
26.029400 3.055700
26.050600 3.044600
26.071700 3.032100
26.092900 3.019700
26.114100 2.997500
26.135300 2.979500
26.156400 2.956100
26.177600 2.927500
26.198800 2.824600
26.220000 2.798000
26.241100 2.772600
26.262300 2.749300
26.283500 2.727800
26.304700 2.735600
26.325800 2.757900
26.347000 2.792400
26.368200 2.839000
26.389400 2.897900
26.410500 2.969000
26.431700 3.245500
26.452900 3.371500
26.474100 3.146700
26.495200 2.989600
26.516400 2.892600
26.537600 2.798400
26.558800 2.707000
26.580000 2.618300
26.601100 2.561500
26.622300 2.915900
26.643500 3.002400
26.664700 2.953500
26.685800 2.926200
26.707000 2.890000
26.728200 2.835200
26.749400 2.815600
26.770500 2.790900
26.791700 2.759700
26.812900 2.705500
26.834100 2.273300
26.855200 2.281600
26.876400 2.285700
26.897600 2.283600
26.918800 2.275000
26.939900 2.264700
26.961100 2.253900
26.982300 2.242800
27.003500 2.231700
27.024600 2.220300
27.045800 2.208800
27.067000 2.197100
27.088200 2.185300
27.109400 2.173300
27.130500 2.161100
27.151700 2.148300
27.172900 2.134700
27.194100 2.120200
27.215200 2.104800
27.236400 2.088500
27.257600 2.071200
27.278800 2.057100
27.299900 2.045700
27.321100 1.983100
27.342300 1.962900
27.363500 1.944900
27.384600 2.055900
27.405800 2.059800
27.427000 2.063200
27.448200 2.065100
27.469300 2.065600
27.490500 2.064600
27.511700 2.063200
27.532900 2.061700
27.554000 2.059500
27.575200 2.040200
27.596400 2.016200
27.617600 1.994900
27.638800 1.973400
27.659900 1.964000
27.681100 1.956500
27.702300 1.954000
27.723500 1.954200
27.744600 1.954200
27.765800 1.953900
27.787000 1.953200
27.808200 1.952300
27.829300 1.951100
27.850500 1.949600
27.871700 1.948000
27.892900 1.946500
27.914000 1.944900
27.935200 1.943400
27.956400 1.942100
27.977600 1.941200
27.998700 1.940300
28.019900 1.940000
28.041100 1.939500
28.062300 1.939100
28.083400 1.938600
28.104600 2.234100
28.125800 2.287100
28.147000 2.606200
28.168200 2.216300
28.189300 2.102400
28.210500 2.081800
28.231700 2.073100
28.252900 2.076300
28.274000 2.094900
28.295200 2.147300
28.316400 2.218700
28.337600 2.296000
28.358700 2.379500
28.379900 2.468900
28.401100 2.564400
28.422300 2.665700
28.443400 2.770900
28.464600 2.879400
28.485800 2.991200
28.507000 3.300000
28.528100 3.633800
28.549300 3.850100
28.570500 3.795400
28.591700 3.748300
28.612800 3.709600
28.634000 3.686800
28.655200 3.672800
28.676400 3.678500
28.697600 3.715500
28.718700 3.783800
28.739900 4.386400
28.761100 3.993000
28.782300 3.597700
28.803400 3.493700
28.824600 3.634400
28.845800 3.946000
28.867000 4.301500
28.888100 4.700700
28.909300 4.845000
28.930500 4.854300
28.951700 4.933500
28.972800 4.952300
28.994000 4.654700
29.015200 4.340500
29.036400 4.047700
29.057500 3.904800
29.078700 3.491500
29.099900 3.338300
29.121100 3.422000
29.142200 3.378800
29.163400 3.355300
29.184600 3.351500
29.205800 5.381000
29.227000 11.625900
29.248100 9.078700
29.269300 8.009000
29.290500 7.642700
29.311700 7.371600
29.332800 7.194600
29.354000 6.578600
29.375200 5.772500
29.396400 5.697700
29.417500 5.672000
29.438700 5.619500
29.459900 5.586000
29.481100 5.461100
29.502200 4.180000
29.523400 3.566200
29.544600 3.119500
29.565800 2.794300
29.586900 3.229600
29.608100 3.275200
29.629300 3.349700
29.650500 3.622200
29.671600 4.669100
29.692800 5.516800
29.714000 5.645900
29.735200 4.834600
29.756400 4.133400
29.777500 3.984000
29.798700 3.830400
29.819900 3.656100
29.841100 3.461300
29.862200 3.245500
29.883400 3.007500
29.904600 2.738700
29.925800 2.304000
29.946900 2.213600
29.968100 2.297600
29.989300 2.272500
30.010500 2.245400
30.031600 2.228700
30.052800 2.210900
30.074000 2.191900
30.095200 2.171800
30.116300 2.150600
30.137500 2.128300
30.158700 2.104800
30.179900 2.087400
30.201000 2.073200
30.222200 2.060500
30.243400 2.050000
30.264600 2.042500
30.285800 2.037300
30.306900 2.070700
30.328100 2.104700
30.349300 2.124000
30.370500 2.127900
30.391600 2.116300
30.412800 2.089300
30.434000 2.079200
30.455200 1.912800
30.476300 1.756900
30.497500 1.613400
30.518700 1.481300
30.539900 1.352700
30.561000 1.227700
30.582200 1.106700
30.603400 0.998500
30.624600 0.946000
30.645700 0.905500
30.666900 0.871100
30.688100 0.842800
30.709300 0.820500
30.730400 0.804200
30.751600 0.794000
30.772800 0.789900
30.794000 0.807000
30.815200 0.827900
30.836300 0.839200
30.857500 0.810400
30.878700 0.780000
30.899900 0.772400
30.921000 0.764500
30.942200 0.753700
30.963400 0.740000
30.984600 0.723500
31.005700 0.704100
31.026900 0.681800
31.048100 0.656600
31.069300 0.628500
31.090400 0.597600
31.111600 0.563700
31.132800 0.527000
31.154000 0.487500
31.175100 0.000000
31.196300 0.000000
31.217500 0.000000
31.238700 0.000000
31.259800 0.000000
31.281000 0.000000
31.302200 0.000000
31.323400 0.000000
31.344600 0.000000
31.365700 0.000000
31.386900 0.000000
31.408100 0.000000
31.429300 0.000000
31.450400 0.000000
31.471600 0.000000
31.492800 0.000000
31.514000 0.000000
31.535100 0.000000
31.556300 0.000000
31.577500 0.000000
31.598700 0.000000
31.619800 0.000000
31.641000 0.000000
31.662200 0.000000
31.683400 0.000000
31.704500 0.000000
31.725700 0.000000
31.746900 0.000000
31.768100 0.000000
31.789200 0.000000
31.810400 0.000000
31.831600 0.000000
31.852800 0.000000
31.874000 0.000000
31.895100 0.000000
31.916300 0.000000
31.937500 0.000000
31.958700 0.000000
31.979800 0.000000
32.001000 0.000000
32.022200 0.000000
32.043400 0.000000
32.064500 0.000000
32.085700 0.000000
32.106900 0.000000
32.128100 0.000000
32.149200 0.000000
32.170400 0.000000
32.191600 0.000000
32.212800 0.000000
32.233900 0.000000
32.255100 0.000000
32.276300 0.000000
32.297500 0.000000
32.318600 0.000000
32.339800 0.000000
32.361000 0.000000
32.382200 0.000000
32.403400 0.000000
32.424500 0.000000
32.445700 0.000000
32.466900 0.000000
32.488100 0.000000
32.509200 0.000000
32.530400 0.000000
32.551600 0.000000
32.572800 0.000000
32.593900 0.000000
32.615100 0.000000
32.636300 0.000000
32.657500 0.000000
32.678600 0.000000
32.699800 0.000000
32.721000 0.000000
32.742200 0.000000
32.763300 0.000000
32.784500 0.000000
32.805700 0.000000
32.826900 0.000000
32.848000 0.000000
32.869200 0.000000
32.890400 0.000000
32.911600 0.000000
32.932800 0.000000
32.953900 0.000000
32.975100 0.000000
32.996300 0.000000
33.017500 0.000000
33.038600 0.000000
33.059800 0.000000
33.081000 0.000000
e
