set title 'mp-1187004 - Density of States'
set xlabel 'Energy (eV)'
set ylabel 'DOS (states/eV)'
set grid
set xrange [-10:10]
set yrange [0:2.844]
set xzeroaxis lt -1
set terminal png size 800,600
set output 'mp-1187004_dos_gnuplot.png'
plot '-' using 1:2 with lines title 'DOS'
-19.475800 0.000000
-19.449700 0.000000
-19.423600 0.000000
-19.397600 0.000000
-19.371500 0.000000
-19.345500 0.000000
-19.319400 0.000000
-19.293400 0.000000
-19.267300 0.000000
-19.241300 0.000000
-19.215200 0.000000
-19.189100 0.000000
-19.163100 0.000000
-19.137000 0.000000
-19.111000 0.000000
-19.084900 0.000000
-19.058900 0.000000
-19.032800 0.000000
-19.006700 0.000000
-18.980700 0.000000
-18.954600 0.000000
-18.928600 0.000000
-18.902500 0.000000
-18.876500 0.000000
-18.850400 0.000000
-18.824300 0.000000
-18.798300 0.000000
-18.772200 0.000000
-18.746200 0.000000
-18.720100 0.000000
-18.694100 0.000000
-18.668000 0.000000
-18.642000 0.000000
-18.615900 0.000000
-18.589800 0.000000
-18.563800 0.000000
-18.537700 0.000000
-18.511700 0.000000
-18.485600 0.000000
-18.459600 0.000000
-18.433500 0.000000
-18.407400 0.000000
-18.381400 0.000000
-18.355300 0.000000
-18.329300 0.000000
-18.303200 0.000000
-18.277200 0.000000
-18.251100 0.000000
-18.225000 0.000000
-18.199000 0.000000
-18.172900 0.000000
-18.146900 0.000000
-18.120800 0.000000
-18.094800 0.000000
-18.068700 0.000000
-18.042700 0.000000
-18.016600 0.000000
-17.990500 0.000000
-17.964500 0.000000
-17.938400 0.000000
-17.912400 0.000000
-17.886300 0.000000
-17.860300 0.000000
-17.834200 0.000000
-17.808100 0.000000
-17.782100 0.000000
-17.756000 0.000000
-17.730000 0.000000
-17.703900 0.000000
-17.677900 0.000000
-17.651800 0.000000
-17.625700 0.000000
-17.599700 0.000000
-17.573600 0.000000
-17.547600 0.000000
-17.521500 0.000000
-17.495500 0.000000
-17.469400 0.000000
-17.443400 0.000000
-17.417300 0.000000
-17.391200 0.000000
-17.365200 0.000000
-17.339100 0.000000
-17.313100 0.000000
-17.287000 0.000000
-17.261000 0.000000
-17.234900 0.000000
-17.208800 0.000000
-17.182800 0.000000
-17.156700 0.000000
-17.130700 0.000000
-17.104600 4.927700
-17.078600 19.197800
-17.052500 291.286400
-17.026400 101.272900
-17.000400 242.963100
-16.974300 204.467200
-16.948300 104.852700
-16.922200 98.000600
-16.896200 15.048800
-16.870100 10.000900
-16.844100 0.000000
-16.818000 0.000000
-16.791900 0.000000
-16.765900 0.000000
-16.739800 0.000000
-16.713800 0.000000
-16.687700 0.000000
-16.661700 0.000000
-16.635600 0.000000
-16.609500 0.000000
-16.583500 0.000000
-16.557400 0.000000
-16.531400 0.000000
-16.505300 0.000000
-16.479300 0.000000
-16.453200 0.000000
-16.427100 0.000000
-16.401100 0.000000
-16.375000 0.000000
-16.349000 0.000000
-16.322900 0.000000
-16.296900 0.000000
-16.270800 0.000000
-16.244800 0.000000
-16.218700 0.000000
-16.192600 0.000000
-16.166600 0.000000
-16.140500 0.000000
-16.114500 0.000000
-16.088400 0.000000
-16.062400 0.000000
-16.036300 0.000000
-16.010200 0.000000
-15.984200 0.000000
-15.958100 0.000000
-15.932100 0.000000
-15.906000 0.000000
-15.880000 0.000000
-15.853900 0.000000
-15.827800 0.000000
-15.801800 0.000000
-15.775700 0.000000
-15.749700 0.000000
-15.723600 0.000000
-15.697600 0.000000
-15.671500 0.000000
-15.645500 0.000000
-15.619400 0.000000
-15.593300 0.000000
-15.567300 0.000000
-15.541200 0.000000
-15.515200 0.000000
-15.489100 0.000000
-15.463100 0.000000
-15.437000 0.000000
-15.410900 0.000000
-15.384900 0.000000
-15.358800 0.000000
-15.332800 0.000000
-15.306700 0.000000
-15.280700 0.000000
-15.254600 0.000000
-15.228500 0.000000
-15.202500 0.000000
-15.176400 0.000000
-15.150400 0.000000
-15.124300 0.000000
-15.098300 0.000000
-15.072200 0.000000
-15.046200 0.000000
-15.020100 0.000000
-14.994000 0.000000
-14.968000 0.000000
-14.941900 0.000000
-14.915900 0.000000
-14.889800 0.000000
-14.863800 0.000000
-14.837700 0.000000
-14.811600 0.000000
-14.785600 0.000000
-14.759500 0.000000
-14.733500 0.000000
-14.707400 0.000000
-14.681400 0.000000
-14.655300 0.000000
-14.629200 0.000000
-14.603200 0.000000
-14.577100 0.000000
-14.551100 0.000000
-14.525000 0.000000
-14.499000 0.000000
-14.472900 0.000000
-14.446900 0.000000
-14.420800 0.000000
-14.394700 0.000000
-14.368700 0.000000
-14.342600 0.000000
-14.316600 0.000000
-14.290500 0.000000
-14.264500 0.000000
-14.238400 0.000000
-14.212300 0.000000
-14.186300 0.000000
-14.160200 0.000000
-14.134200 0.000000
-14.108100 0.000000
-14.082100 0.000000
-14.056000 0.000000
-14.029900 0.000000
-14.003900 0.000000
-13.977800 0.000000
-13.951800 0.000000
-13.925700 0.000000
-13.899700 0.000000
-13.873600 0.000000
-13.847600 0.000000
-13.821500 0.000000
-13.795400 0.000000
-13.769400 0.000000
-13.743300 0.000000
-13.717300 0.000000
-13.691200 0.000000
-13.665200 0.000000
-13.639100 0.000000
-13.613000 0.000000
-13.587000 0.000000
-13.560900 0.000000
-13.534900 0.000000
-13.508800 0.000000
-13.482800 0.000000
-13.456700 0.000000
-13.430600 0.000000
-13.404600 0.000000
-13.378500 0.000000
-13.352500 0.000000
-13.326400 0.000000
-13.300400 0.000000
-13.274300 0.000000
-13.248300 0.000000
-13.222200 0.000000
-13.196100 0.000000
-13.170100 0.000000
-13.144000 0.000000
-13.118000 0.000000
-13.091900 0.000000
-13.065900 0.000000
-13.039800 0.000000
-13.013700 0.000000
-12.987700 0.000000
-12.961600 0.000000
-12.935600 0.000000
-12.909500 0.000000
-12.883500 0.000000
-12.857400 0.000000
-12.831300 0.000000
-12.805300 0.000000
-12.779200 0.000000
-12.753200 0.000000
-12.727100 0.000000
-12.701100 0.000000
-12.675000 0.000000
-12.649000 0.000000
-12.622900 0.000000
-12.596800 0.000000
-12.570800 0.000000
-12.544700 0.000000
-12.518700 0.000000
-12.492600 0.000000
-12.466600 0.000000
-12.440500 0.000000
-12.414400 0.000000
-12.388400 0.000000
-12.362300 0.000000
-12.336300 0.000000
-12.310200 0.000000
-12.284200 0.000000
-12.258100 0.000000
-12.232000 0.000000
-12.206000 0.000000
-12.179900 0.000000
-12.153900 0.000000
-12.127800 0.000000
-12.101800 0.000000
-12.075700 0.000000
-12.049700 0.000000
-12.023600 0.000000
-11.997500 0.000000
-11.971500 0.000000
-11.945400 0.000000
-11.919400 0.000000
-11.893300 0.000000
-11.867300 0.000000
-11.841200 0.000000
-11.815100 0.000000
-11.789100 0.000000
-11.763000 0.000000
-11.737000 0.000000
-11.710900 0.000000
-11.684900 0.000000
-11.658800 0.000000
-11.632700 0.000000
-11.606700 0.000000
-11.580600 0.000000
-11.554600 0.000000
-11.528500 0.000000
-11.502500 0.000000
-11.476400 0.000000
-11.450400 0.000000
-11.424300 0.000000
-11.398200 0.000000
-11.372200 0.000000
-11.346100 0.000000
-11.320100 0.000000
-11.294000 0.000000
-11.268000 0.000000
-11.241900 0.000000
-11.215800 0.000000
-11.189800 0.000000
-11.163700 0.000000
-11.137700 0.000000
-11.111600 0.000000
-11.085600 0.000000
-11.059500 0.000000
-11.033400 0.000000
-11.007400 0.000000
-10.981300 0.000000
-10.955300 0.000000
-10.929200 0.000000
-10.903200 0.000000
-10.877100 0.000000
-10.851100 0.000000
-10.825000 0.000000
-10.798900 0.000000
-10.772900 0.000000
-10.746800 0.000000
-10.720800 0.000000
-10.694700 0.000000
-10.668700 0.000000
-10.642600 0.000000
-10.616500 0.000000
-10.590500 0.000000
-10.564400 0.000000
-10.538400 0.000000
-10.512300 0.000000
-10.486300 0.000000
-10.460200 0.000000
-10.434100 0.000000
-10.408100 0.000000
-10.382000 0.000000
-10.356000 0.000000
-10.329900 0.000000
-10.303900 0.000000
-10.277800 0.000000
-10.251800 0.000000
-10.225700 0.000000
-10.199600 0.000000
-10.173600 0.000000
-10.147500 0.000000
-10.121500 0.000000
-10.095400 0.000000
-10.069400 0.000000
-10.043300 0.000000
-10.017200 0.000000
-9.991200 0.000000
-9.965100 0.000000
-9.939100 0.000000
-9.913000 0.000000
-9.887000 0.000000
-9.860900 0.000000
-9.834800 0.000000
-9.808800 0.000000
-9.782700 0.000000
-9.756700 0.000000
-9.730600 0.000000
-9.704600 0.000000
-9.678500 0.000000
-9.652500 0.000000
-9.626400 0.000000
-9.600300 0.000000
-9.574300 0.000000
-9.548200 0.000000
-9.522200 0.000000
-9.496100 0.000000
-9.470100 0.000000
-9.444000 0.000000
-9.417900 0.000000
-9.391900 0.000000
-9.365800 0.000000
-9.339800 0.000000
-9.313700 0.000000
-9.287700 0.000000
-9.261600 0.000000
-9.235500 0.000000
-9.209500 0.000000
-9.183400 0.000000
-9.157400 0.000000
-9.131300 0.000000
-9.105300 0.000000
-9.079200 0.000000
-9.053200 0.000000
-9.027100 0.000000
-9.001000 0.000000
-8.975000 0.000000
-8.948900 0.000000
-8.922900 0.000000
-8.896800 0.000000
-8.870800 0.000000
-8.844700 0.000000
-8.818600 0.000000
-8.792600 0.000000
-8.766500 0.000000
-8.740500 0.000000
-8.714400 0.000000
-8.688400 0.000000
-8.662300 0.000000
-8.636200 0.000000
-8.610200 0.000000
-8.584100 0.000000
-8.558100 0.000000
-8.532000 0.000000
-8.506000 0.000000
-8.479900 0.000000
-8.453900 0.000000
-8.427800 0.000000
-8.401700 0.000000
-8.375700 0.000000
-8.349600 0.000000
-8.323600 0.000000
-8.297500 0.000000
-8.271500 0.000000
-8.245400 0.000000
-8.219300 0.000000
-8.193300 0.000000
-8.167200 0.000000
-8.141200 0.000000
-8.115100 0.000000
-8.089100 0.000000
-8.063000 0.000000
-8.036900 0.000000
-8.010900 0.000000
-7.984800 0.000000
-7.958800 0.000000
-7.932700 0.000000
-7.906700 0.000000
-7.880600 0.000000
-7.854600 0.000000
-7.828500 0.000000
-7.802400 0.000000
-7.776400 0.000000
-7.750300 0.000000
-7.724300 0.000000
-7.698200 0.000000
-7.672200 0.000000
-7.646100 0.000000
-7.620000 0.000000
-7.594000 0.000000
-7.567900 0.000000
-7.541900 0.000000
-7.515800 0.000000
-7.489800 0.000000
-7.463700 0.000000
-7.437600 0.000000
-7.411600 0.000000
-7.385500 0.000000
-7.359500 0.000000
-7.333400 0.000000
-7.307400 0.000000
-7.281300 0.000000
-7.255300 0.000000
-7.229200 0.000000
-7.203100 0.000000
-7.177100 0.000000
-7.151000 0.000000
-7.125000 0.000000
-7.098900 0.000000
-7.072900 0.000000
-7.046800 0.000000
-7.020700 0.000000
-6.994700 0.000000
-6.968600 0.000000
-6.942600 0.000000
-6.916500 0.000000
-6.890500 0.000000
-6.864400 0.000000
-6.838300 0.000000
-6.812300 0.000000
-6.786200 0.000000
-6.760200 0.000000
-6.734100 0.000000
-6.708100 0.000000
-6.682000 0.000000
-6.656000 0.000000
-6.629900 0.000000
-6.603800 0.000000
-6.577800 0.000000
-6.551700 0.000000
-6.525700 0.000000
-6.499600 0.000000
-6.473600 0.000000
-6.447500 0.000000
-6.421400 0.000000
-6.395400 0.000000
-6.369300 0.000000
-6.343300 0.000000
-6.317200 0.000000
-6.291200 0.000000
-6.265100 0.000000
-6.239000 0.000000
-6.213000 0.000000
-6.186900 0.000000
-6.160900 0.000000
-6.134800 0.000000
-6.108800 0.000000
-6.082700 0.000000
-6.056700 0.013800
-6.030600 0.055900
-6.004500 0.109300
-5.978500 0.152400
-5.952400 0.168000
-5.926400 0.183200
-5.900300 0.200100
-5.874300 0.208200
-5.848200 0.225400
-5.822100 0.244500
-5.796100 0.264300
-5.770000 0.284700
-5.744000 0.300700
-5.717900 0.309600
-5.691900 0.315500
-5.665800 0.324300
-5.639700 0.333100
-5.613700 0.342100
-5.587600 0.351000
-5.561600 0.360000
-5.535500 0.370600
-5.509500 0.381500
-5.483400 0.392500
-5.457400 0.403700
-5.431300 0.415500
-5.405200 0.427400
-5.379200 0.438700
-5.353100 0.445700
-5.327100 0.451100
-5.301000 0.456500
-5.275000 0.462300
-5.248900 0.469000
-5.222800 0.476500
-5.196800 0.483900
-5.170700 0.491300
-5.144700 0.498600
-5.118600 0.505800
-5.092600 0.513000
-5.066500 0.520900
-5.040400 0.528900
-5.014400 0.535800
-4.988300 0.543300
-4.962300 0.551300
-4.936200 0.559200
-4.910200 0.567200
-4.884100 0.576100
-4.858100 0.585100
-4.832000 0.593800
-4.805900 0.601000
-4.779900 0.607000
-4.753800 0.613500
-4.727800 0.624000
-4.701700 0.635200
-4.675700 0.644900
-4.649600 0.653300
-4.623500 0.660600
-4.597500 0.666600
-4.571400 0.683200
-4.545400 0.692200
-4.519300 0.688600
-4.493300 0.681700
-4.467200 0.680700
-4.441100 0.677000
-4.415100 0.675900
-4.389000 0.675700
-4.363000 0.675900
-4.336900 0.676300
-4.310900 0.677000
-4.284800 0.677900
-4.258800 0.679000
-4.232700 0.680400
-4.206600 0.681900
-4.180600 0.691300
-4.154500 0.701400
-4.128500 0.710500
-4.102400 0.720500
-4.076400 0.729800
-4.050300 0.738400
-4.024200 0.745000
-3.998200 0.752400
-3.972100 0.758900
-3.946100 0.765100
-3.920000 0.772800
-3.894000 0.798900
-3.867900 0.824000
-3.841800 0.844300
-3.815800 0.869900
-3.789700 0.885100
-3.763700 0.896300
-3.737600 0.906500
-3.711600 0.917500
-3.685500 0.926000
-3.659500 0.933400
-3.633400 0.939400
-3.607300 0.935000
-3.581300 0.922300
-3.555200 0.920300
-3.529200 0.927500
-3.503100 0.936300
-3.477100 0.943100
-3.451000 0.947700
-3.424900 0.954900
-3.398900 0.958700
-3.372800 0.958400
-3.346800 0.953400
-3.320700 0.935100
-3.294700 0.874700
-3.268600 0.837900
-3.242500 0.809800
-3.216500 0.770300
-3.190400 0.756000
-3.164400 0.742200
-3.138300 0.729000
-3.112300 0.716400
-3.086200 0.704100
-3.060200 0.687000
-3.034100 0.685800
-3.008000 0.727000
-2.982000 0.763900
-2.955900 0.804800
-2.929900 0.848800
-2.903800 0.895300
-2.877800 0.942300
-2.851700 0.993600
-2.825600 1.021000
-2.799600 1.030900
-2.773500 1.042800
-2.747500 1.049300
-2.721400 1.041400
-2.695400 1.033900
-2.669300 1.036400
-2.643200 1.040000
-2.617200 1.042300
-2.591100 1.044300
-2.565100 1.043300
-2.539000 1.034000
-2.513000 1.012800
-2.486900 1.002900
-2.460900 0.992600
-2.434800 0.981900
-2.408700 0.972100
-2.382700 0.968400
-2.356600 0.966600
-2.330600 0.965500
-2.304500 0.965200
-2.278500 0.969800
-2.252400 0.990500
-2.226300 1.028300
-2.200300 1.047300
-2.174200 1.069000
-2.148200 1.072300
-2.122100 1.096600
-2.096100 1.120000
-2.070000 1.141500
-2.043900 1.155600
-2.017900 1.163700
-1.991800 1.167500
-1.965800 1.163200
-1.939700 1.149700
-1.913700 1.143800
-1.887600 1.146600
-1.861600 1.142900
-1.835500 1.160100
-1.809400 1.170400
-1.783400 1.175000
-1.757300 1.178200
-1.731300 1.183000
-1.705200 1.188900
-1.679200 1.192900
-1.653100 1.193900
-1.627000 1.192200
-1.601000 1.186500
-1.574900 1.186400
-1.548900 1.215200
-1.522800 1.224700
-1.496800 1.225000
-1.470700 1.240400
-1.444600 1.251700
-1.418600 1.263500
-1.392500 1.274100
-1.366500 1.283000
-1.340400 1.290200
-1.314400 1.317200
-1.288300 1.304800
-1.262300 1.327400
-1.236200 1.288500
-1.210100 1.293300
-1.184100 1.308300
-1.158000 1.332000
-1.132000 1.352600
-1.105900 1.377500
-1.079900 1.426800
-1.053800 1.429900
-1.027700 1.430500
-1.001700 1.452100
-0.975600 1.441000
-0.949600 1.426100
-0.923500 1.407900
-0.897500 1.391900
-0.871400 1.376700
-0.845300 1.389500
-0.819300 1.408900
-0.793200 1.414600
-0.767200 1.422200
-0.741100 1.435500
-0.715100 1.450200
-0.689000 1.465800
-0.663000 1.481800
-0.636900 1.498000
-0.610800 1.514500
-0.584800 1.530600
-0.558700 1.596000
-0.532700 1.581800
-0.506600 1.590300
-0.480600 1.613400
-0.454500 1.649600
-0.428400 1.739200
-0.402400 1.752800
-0.376300 1.767300
-0.350300 1.741800
-0.324200 1.730800
-0.298200 1.793500
-0.272100 1.827400
-0.246100 1.762400
-0.220000 1.678100
-0.193900 1.579400
-0.167900 1.515500
-0.141800 1.481400
-0.115800 1.462300
-0.089700 1.413000
-0.063700 1.404900
-0.037600 1.360400
-0.011500 1.276200
0.014500 1.170100
0.040600 1.092600
0.066600 1.045000
0.092700 1.020500
0.118700 1.113400
0.144800 0.918000
0.170900 0.861300
0.196900 0.894600
0.223000 0.946100
0.249000 0.947000
0.275100 1.000100
0.301100 1.063000
0.327200 1.124800
0.353200 1.205400
0.379300 1.278000
0.405400 1.350600
0.431400 1.335700
0.457500 1.322100
0.483500 1.319000
0.509600 1.331200
0.535600 1.345600
0.561700 1.369100
0.587800 1.415800
0.613800 1.458700
0.639900 1.403000
0.665900 1.382200
0.692000 1.381900
0.718000 1.385100
0.744100 1.465800
0.770200 1.532000
0.796200 1.526700
0.822300 1.465300
0.848300 1.472600
0.874400 1.469700
0.900400 1.466000
0.926500 1.507300
0.952500 1.339200
0.978600 1.160700
1.004700 1.059900
1.030700 1.023600
1.056800 0.998800
1.082800 0.975500
1.108900 0.949800
1.134900 0.921700
1.161000 0.895800
1.187100 0.872500
1.213100 0.851300
1.239200 0.819200
1.265200 0.793300
1.291300 0.765100
1.317300 0.750500
1.343400 0.736200
1.369500 0.722400
1.395500 0.709300
1.421600 0.697100
1.447600 0.689200
1.473700 0.699200
1.499700 0.719000
1.525800 0.727800
1.551800 0.713400
1.577900 0.719300
1.604000 0.733300
1.630000 0.836000
1.656100 0.822600
1.682100 0.812300
1.708200 0.809700
1.734200 0.842300
1.760300 1.057100
1.786400 0.927900
1.812400 0.940800
1.838500 0.962300
1.864500 0.971300
1.890600 1.004000
1.916600 1.012700
1.942700 1.037600
1.968800 1.018100
1.994800 1.031700
2.020900 1.075900
2.046900 1.127000
2.073000 1.141800
2.099000 1.139400
2.125100 1.119800
2.151100 1.085000
2.177200 1.026100
2.203300 1.009300
2.229300 1.003900
2.255400 1.025200
2.281400 1.036100
2.307500 1.099600
2.333500 1.103200
2.359600 1.113300
2.385700 1.110300
2.411700 1.117600
2.437800 1.122400
2.463800 1.129400
2.489900 1.139300
2.515900 1.151300
2.542000 1.164000
2.568100 1.174000
2.594100 1.168600
2.620200 1.158200
2.646200 1.144900
2.672300 1.152400
2.698300 1.162600
2.724400 1.193600
2.750400 1.214500
2.776500 1.240200
2.802600 1.259200
2.828600 1.270100
2.854700 1.277400
2.880700 1.290800
2.906800 1.340500
2.932800 1.354700
2.958900 1.328600
2.985000 1.328900
3.011000 1.322400
3.037100 1.308100
3.063100 1.264700
3.089200 1.243500
3.115200 1.234800
3.141300 1.232200
3.167400 1.235200
3.193400 1.240200
3.219500 1.248000
3.245500 1.263800
3.271600 1.290800
3.297600 1.326000
3.323700 1.369900
3.349700 1.436100
3.375800 1.455700
3.401900 1.513200
3.427900 1.539900
3.454000 1.555500
3.480000 1.747100
3.506100 1.661600
3.532100 1.613800
3.558200 1.559300
3.584300 1.545900
3.610300 1.561400
3.636400 1.577400
3.662400 1.596100
3.688500 1.629500
3.714500 1.653900
3.740600 1.684300
3.766700 1.725700
3.792700 1.775200
3.818800 1.808400
3.844800 1.840100
3.870900 1.872700
3.896900 1.885400
3.923000 1.886600
3.949000 1.892000
3.975100 1.902500
4.001200 1.904500
4.027200 1.907100
4.053300 1.913300
4.079300 1.926900
4.105400 1.950900
4.131400 1.985100
4.157500 1.992400
4.183600 2.038300
4.209600 2.052000
4.235700 2.063100
4.261700 2.072500
4.287800 2.082400
4.313800 2.193200
4.339900 2.117000
4.366000 2.100600
4.392000 2.083100
4.418100 2.060800
4.444100 2.037900
4.470200 2.010500
4.496200 1.979200
4.522300 1.950200
4.548300 1.925400
4.574400 1.894500
4.600500 1.855500
4.626500 1.806300
4.652600 1.818100
4.678600 1.728300
4.704700 1.675900
4.730700 1.654400
4.756800 1.671000
4.782900 1.702800
4.808900 1.703700
4.835000 1.709100
4.861000 1.623100
4.887100 1.621300
4.913100 1.630700
4.939200 1.645200
4.965300 1.657200
4.991300 1.665300
5.017400 1.668700
5.043400 1.674400
5.069500 1.683400
5.095500 1.695000
5.121600 1.708600
5.147600 1.729000
5.173700 1.739800
5.199800 1.751600
5.225800 1.758600
5.251900 1.761100
5.277900 1.761300
5.304000 1.755300
5.330000 1.760900
5.356100 1.794300
5.382200 1.854700
5.408200 1.863300
5.434300 1.845400
5.460300 1.826000
5.486400 1.793100
5.512400 1.761900
5.538500 1.734800
5.564600 1.711100
5.590600 1.682400
5.616700 1.665900
5.642700 1.654800
5.668800 1.645300
5.694800 1.637700
5.720900 1.631700
5.746900 1.627400
5.773000 1.623800
5.799100 1.619300
5.825100 1.618300
5.851200 1.625200
5.877200 1.633400
5.903300 1.641400
5.929300 1.649000
5.955400 1.656700
5.981500 1.664000
6.007500 1.674500
6.033600 1.692400
6.059600 1.727000
6.085700 1.756600
6.111700 1.775800
6.137800 1.790500
6.163900 1.786100
6.189900 1.813200
6.216000 1.831900
6.242000 1.877800
6.268100 1.918100
6.294100 1.958400
6.320200 1.998500
6.346200 2.041500
6.372300 2.063400
6.398400 2.062100
6.424400 2.030500
6.450500 1.992700
6.476500 1.955700
6.502600 1.918200
6.528600 1.884700
6.554700 1.856900
6.580800 1.821700
6.606800 1.822300
6.632900 1.827600
6.658900 1.842500
6.685000 1.825900
6.711000 1.811700
6.737100 1.809600
6.763200 1.798400
6.789200 1.789400
6.815300 1.782400
6.841300 1.774200
6.867400 1.763500
6.893400 1.754400
6.919500 1.742800
6.945500 1.727700
6.971600 1.708000
6.997700 1.686600
7.023700 1.683000
7.049800 1.687400
7.075800 1.702600
7.101900 1.727900
7.127900 1.757000
7.154000 1.782200
7.180100 1.809500
7.206100 1.836900
7.232200 1.864500
7.258200 1.897700
7.284300 1.931300
7.310300 1.963300
7.336400 1.958000
7.362500 1.935300
7.388500 1.927000
7.414600 1.923900
7.440600 1.932200
7.466700 1.944600
7.492700 1.953100
7.518800 2.006100
7.544800 2.034700
7.570900 2.049700
7.597000 2.047200
7.623000 2.022900
7.649100 2.000600
7.675100 1.994600
7.701200 2.011600
7.727200 2.023000
7.753300 2.052600
7.779400 1.946000
7.805400 1.905100
7.831500 1.863200
7.857500 1.857400
7.883600 1.871300
7.909600 1.861100
7.935700 1.837400
7.961800 1.778800
7.987800 1.792800
8.013900 1.841300
8.039900 1.954100
8.066000 2.015800
8.092000 1.961200
8.118100 1.921700
8.144100 1.888000
8.170200 1.869600
8.196300 1.873200
8.222300 1.895100
8.248400 1.930800
8.274400 1.969600
8.300500 2.046600
8.326500 2.173000
8.352600 2.210100
8.378700 2.227900
8.404700 2.241500
8.430800 2.255000
8.456800 2.288100
8.482900 2.307500
8.508900 2.359000
8.535000 2.388400
8.561100 2.400800
8.587100 2.397700
8.613200 2.385300
8.639200 2.389100
8.665300 2.371300
8.691300 2.381200
8.717400 2.329600
8.743400 2.275300
8.769500 2.223000
8.795600 2.174500
8.821600 2.138300
8.847700 2.104900
8.873700 2.122600
8.899800 2.402100
8.925800 2.228100
8.951900 2.169200
8.978000 2.138200
9.004000 2.126400
9.030100 2.101400
9.056100 2.080700
9.082200 2.068400
9.108200 2.072000
9.134300 2.090700
9.160400 2.116300
9.186400 2.119200
9.212500 2.131200
9.238500 2.137800
9.264600 2.133000
9.290600 2.130300
9.316700 2.131100
9.342700 2.147800
9.368800 2.200200
9.394900 2.252100
9.420900 2.304700
9.447000 2.305900
9.473000 2.313500
9.499100 2.328800
9.525100 2.364700
9.551200 2.304500
9.577300 2.144800
9.603300 2.051500
9.629400 2.113500
9.655400 2.096100
9.681500 2.116500
9.707500 2.168500
9.733600 2.225700
9.759700 2.289900
9.785700 2.362400
9.811800 2.447100
9.837800 2.539700
9.863900 2.570200
9.889900 2.567000
9.916000 2.580300
9.942000 2.585300
9.968100 2.580900
9.994200 2.583600
10.020200 2.598800
10.046300 2.591500
10.072300 2.574300
10.098400 2.583500
10.124400 2.591500
10.150500 2.558700
10.176600 2.520400
10.202600 2.476700
10.228700 2.456000
10.254700 2.432300
10.280800 2.422600
10.306800 2.429500
10.332900 2.323800
10.359000 2.259600
10.385000 2.243400
10.411100 2.269400
10.437100 2.364200
10.463200 2.343400
10.489200 2.341000
10.515300 2.348700
10.541300 2.365200
10.567400 2.321900
10.593500 2.303400
10.619500 2.307800
10.645600 2.323600
10.671600 2.330100
10.697700 2.340100
10.723700 2.347500
10.749800 2.365900
10.775900 2.389800
10.801900 2.373500
10.828000 2.379500
10.854000 2.395500
10.880100 2.405500
10.906100 2.415400
10.932200 2.423700
10.958300 2.431400
10.984300 2.420300
11.010400 2.333000
11.036400 2.327200
11.062500 2.328800
11.088500 2.329600
11.114600 2.324400
11.140600 2.318900
11.166700 2.317900
11.192800 2.315600
11.218800 2.308000
11.244900 2.309800
11.270900 2.304100
11.297000 2.292600
11.323000 2.282700
11.349100 2.281300
11.375200 2.309100
11.401200 2.429200
11.427300 2.278400
11.453300 2.248300
11.479400 2.251100
11.505400 2.258700
11.531500 2.272200
11.557600 2.288100
11.583600 2.293100
11.609700 2.252400
11.635700 2.252200
11.661800 2.252800
11.687800 2.242100
11.713900 2.235900
11.739900 2.250700
11.766000 2.288600
11.792100 2.416500
11.818100 2.738400
11.844200 2.713200
11.870200 2.281700
11.896300 2.176500
11.922300 2.091700
11.948400 2.077300
11.974500 2.069100
12.000500 1.847200
12.026600 1.807500
12.052600 1.782300
12.078700 1.770200
12.104700 1.749800
12.130800 1.736000
12.156900 1.724100
12.182900 1.713800
12.209000 1.704500
12.235000 1.710000
12.261100 1.683300
12.287100 1.679800
12.313200 1.685600
12.339200 1.687000
12.365300 1.694800
12.391400 1.704100
12.417400 1.716400
12.443500 1.731300
12.469500 1.756700
12.495600 1.783600
12.521600 1.816000
12.547700 1.868800
12.573800 2.151300
12.599800 2.140200
12.625900 2.141200
12.651900 2.129800
12.678000 2.133400
12.704000 2.083900
12.730100 2.040900
12.756200 2.004300
12.782200 1.959600
12.808300 1.934300
12.834300 1.911800
12.860400 1.814700
12.886400 1.776600
12.912500 1.743200
12.938500 1.713300
12.964600 1.725900
12.990700 1.735000
13.016700 1.719200
13.042800 1.707300
13.068800 1.702300
13.094900 1.702700
13.120900 1.707500
13.147000 1.700500
13.173100 1.697200
13.199100 1.711500
13.225200 1.753300
13.251200 1.747300
13.277300 1.738700
13.303300 1.728100
13.329400 1.719300
13.355500 1.718000
13.381500 1.717000
13.407600 1.710500
13.433600 1.699400
13.459700 1.696300
13.485700 1.703500
13.511800 1.719500
13.537800 1.738200
13.563900 1.758900
13.590000 1.782800
13.616000 1.811400
13.642100 1.844200
13.668100 1.891100
13.694200 1.965100
13.720200 2.066200
13.746300 1.895600
13.772400 1.878700
13.798400 1.863200
13.824500 1.844700
13.850500 1.825700
13.876600 1.820500
13.902600 1.822700
13.928700 1.833600
13.954800 1.837500
13.980800 1.827300
14.006900 1.840400
14.032900 1.865200
14.059000 1.898200
14.085000 1.943900
14.111100 2.005000
14.137100 2.072600
14.163200 2.054900
14.189300 2.049800
14.215300 2.023100
14.241400 1.993500
14.267400 1.961900
14.293500 1.922900
14.319500 1.888000
14.345600 1.854200
14.371700 1.824400
14.397700 1.796600
14.423800 1.767900
14.449800 1.753800
14.475900 1.769200
14.501900 1.743200
14.528000 1.721000
14.554100 1.716700
14.580100 1.715900
14.606200 1.715800
14.632200 1.715900
14.658300 1.712900
14.684300 1.708500
14.710400 1.707900
14.736400 1.697800
14.762500 1.728500
14.788600 1.761000
14.814600 1.784300
14.840700 1.801400
14.866700 1.792200
14.892800 1.819400
14.918800 1.784400
14.944900 1.764000
14.971000 1.805300
14.997000 1.898200
15.023100 1.985200
15.049100 2.052000
15.075200 1.910300
15.101200 1.910300
15.127300 1.947400
15.153400 1.967400
15.179400 1.997400
15.205500 2.011000
15.231500 2.013800
15.257600 2.089000
15.283600 2.094300
15.309700 2.049900
15.335700 2.002000
15.361800 1.966200
15.387900 1.933400
15.413900 1.922200
15.440000 2.000200
15.466000 1.921300
15.492100 1.800500
15.518100 1.811300
15.544200 1.838600
15.570300 1.855100
15.596300 1.827400
15.622400 1.865100
15.648400 1.921000
15.674500 1.976500
15.700500 2.000900
15.726600 2.040200
15.752700 2.071300
15.778700 2.105500
15.804800 2.239400
15.830800 2.227500
15.856900 2.425800
15.882900 2.509600
15.909000 2.620400
15.935000 2.645000
15.961100 2.637500
15.987200 2.246200
16.013200 2.224900
16.039300 2.208000
16.065300 2.253200
16.091400 2.238200
16.117400 2.234500
16.143500 2.247400
16.169600 2.292000
16.195600 2.287600
16.221700 2.319200
16.247700 2.258200
16.273800 2.272800
16.299800 2.309500
16.325900 2.348700
16.352000 2.416900
16.378000 2.449200
16.404100 2.464500
16.430100 2.486900
16.456200 2.483400
16.482200 2.454200
16.508300 2.483400
16.534300 2.472800
16.560400 2.484900
16.586500 2.432400
16.612500 2.296800
16.638600 2.320200
16.664600 2.249200
16.690700 2.153400
16.716700 2.120900
16.742800 2.096800
16.768900 2.086800
16.794900 2.079000
16.821000 2.078500
16.847000 2.068200
16.873100 2.078600
16.899100 2.086300
16.925200 2.096400
16.951300 2.152400
16.977300 2.207600
17.003400 2.254500
17.029400 2.339300
17.055500 2.358700
17.081500 2.355100
17.107600 2.316900
17.133600 2.255700
17.159700 2.188100
17.185800 2.130900
17.211800 2.059200
17.237900 2.009400
17.263900 2.000700
17.290000 2.064100
17.316000 2.138100
17.342100 2.083800
17.368200 1.996100
17.394200 1.993700
17.420300 1.986900
17.446300 1.980900
17.472400 1.981000
17.498400 1.987500
17.524500 2.001400
17.550600 2.026400
17.576600 2.052100
17.602700 2.071700
17.628700 2.107300
17.654800 2.141300
17.680800 2.187200
17.706900 2.255000
17.732900 2.302600
17.759000 2.440700
17.785100 2.572900
17.811100 2.700200
17.837200 2.883800
17.863200 2.977900
17.889300 2.966500
17.915300 2.944300
17.941400 2.905700
17.967500 2.872800
17.993500 2.845200
18.019600 2.814800
18.045600 2.776500
18.071700 2.742700
18.097700 2.796000
18.123800 2.709500
18.149900 2.611200
18.175900 2.560800
18.202000 2.512700
18.228000 2.484000
18.254100 2.481000
18.280100 2.558400
18.306200 2.543000
18.332200 2.542600
18.358300 2.578400
18.384400 2.705100
18.410400 2.696800
18.436500 2.697000
18.462500 2.680700
18.488600 2.633900
18.514600 2.592100
18.540700 2.522200
18.566800 2.416100
18.592800 2.334200
18.618900 2.270700
18.644900 2.204100
18.671000 2.184500
18.697000 2.179400
18.723100 2.212700
18.749200 2.246200
18.775200 2.278700
18.801300 2.266500
18.827300 2.246900
18.853400 2.217500
18.879400 2.186900
18.905500 2.212500
18.931500 2.243300
18.957600 2.283900
18.983700 2.342500
19.009700 2.442900
19.035800 2.294200
19.061800 2.207800
19.087900 2.170200
19.113900 2.239400
19.140000 2.271600
19.166100 2.258100
19.192100 2.252400
19.218200 2.253100
19.244200 2.258700
19.270300 2.269100
19.296300 2.249700
19.322400 2.239200
19.348500 2.222900
19.374500 2.204200
19.400600 2.180200
19.426600 2.158600
19.452700 2.156900
19.478700 2.188300
19.504800 2.248000
19.530800 2.327200
19.556900 2.407700
19.583000 2.482000
19.609000 2.471700
19.635100 2.407200
19.661100 2.429600
19.687200 2.455800
19.713200 2.476400
19.739300 2.494000
19.765400 2.539100
19.791400 2.602600
19.817500 2.667700
19.843500 2.708300
19.869600 2.766100
19.895600 2.801800
19.921700 2.855800
19.947700 2.865400
19.973800 2.781200
19.999900 2.765400
20.025900 2.579400
20.052000 2.588200
20.078000 2.611300
20.104100 2.615200
20.130100 2.673100
20.156200 2.729800
20.182300 2.760800
20.208300 2.727300
20.234400 2.624700
20.260400 2.490800
20.286500 2.351800
20.312500 2.286600
20.338600 2.242500
20.364700 2.252900
20.390700 2.284900
20.416800 2.368200
20.442800 2.311900
20.468900 2.270800
20.494900 2.250600
20.521000 2.208500
20.547000 2.174800
20.573100 2.200600
20.599200 2.232400
20.625200 2.265500
20.651300 2.215200
20.677300 2.273000
20.703400 2.262200
20.729400 2.298200
20.755500 2.323700
20.781600 2.390700
20.807600 2.463500
20.833700 2.580500
20.859700 2.770000
20.885800 2.912300
20.911800 2.884600
20.937900 2.883200
20.964000 2.861100
20.990000 2.804400
21.016100 2.709500
21.042100 2.722000
21.068200 2.738100
21.094200 2.772000
21.120300 2.729700
21.146300 2.622900
21.172400 2.557600
21.198500 2.510900
21.224500 2.458900
21.250600 2.370400
21.276600 2.301200
21.302700 2.282300
21.328700 2.323200
21.354800 2.284800
21.380900 2.346500
21.406900 2.373600
21.433000 2.523300
21.459000 2.544300
21.485100 2.614500
21.511100 2.671700
21.537200 2.683600
21.563300 2.717800
21.589300 2.768200
21.615400 2.829400
21.641400 2.867600
21.667500 2.901500
21.693500 2.825900
21.719600 2.687200
21.745600 2.520300
21.771700 2.576000
21.797800 2.661900
21.823800 2.633200
21.849900 2.529400
21.875900 2.468100
21.902000 2.472900
21.928000 2.484800
21.954100 2.397700
21.980200 2.303900
22.006200 2.235600
22.032300 2.232000
22.058300 2.261700
22.084400 2.365300
22.110400 2.542800
22.136500 2.543600
22.162600 2.886000
22.188600 2.771800
22.214700 2.656200
22.240700 2.746200
22.266800 2.658200
22.292800 2.717100
22.318900 2.778900
22.344900 2.870200
22.371000 2.955700
22.397100 3.073300
22.423100 3.261800
22.449200 3.336900
22.475200 3.228800
22.501300 3.131500
22.527300 3.044400
22.553400 2.992500
22.579500 2.951900
22.605500 2.919600
22.631600 2.865900
22.657600 2.814400
22.683700 2.810000
22.709700 2.844300
22.735800 3.002900
22.761900 3.048000
22.787900 3.123700
22.814000 3.163400
22.840000 3.204700
22.866100 3.300300
22.892100 3.277700
22.918200 3.222300
22.944200 3.109300
22.970300 3.042200
22.996400 3.015100
23.022400 2.957000
23.048500 2.908700
23.074500 2.900900
23.100600 2.862000
23.126600 2.828000
23.152700 2.824000
23.178800 2.949700
23.204800 2.912800
23.230900 2.918000
23.256900 2.914700
23.283000 2.903700
23.309000 2.905900
23.335100 2.922900
23.361200 2.946000
23.387200 2.991200
23.413300 2.943400
23.439300 2.818400
23.465400 2.734100
23.491400 2.675900
23.517500 2.645500
23.543500 2.614700
23.569600 2.579900
23.595700 2.542600
23.621700 2.512800
23.647800 2.483300
23.673800 2.467600
23.699900 2.436900
23.725900 2.465600
23.752000 2.518200
23.778100 2.587300
23.804100 2.691700
23.830200 2.717500
23.856200 2.703200
23.882300 2.733100
23.908300 2.759200
23.934400 2.772500
23.960500 2.772300
23.986500 2.737800
24.012600 2.769100
24.038600 2.843800
24.064700 2.917000
24.090700 3.043000
24.116800 2.992900
24.142800 2.898500
24.168900 2.826500
24.195000 2.775200
24.221000 2.674800
24.247100 2.643100
24.273100 2.615200
24.299200 2.576900
24.325200 2.500000
24.351300 2.443700
24.377400 2.399300
24.403400 2.400700
24.429500 2.491200
24.455500 2.511300
24.481600 2.407100
24.507600 2.435600
24.533700 2.401500
24.559800 2.420200
24.585800 2.434100
24.611900 2.458800
24.637900 2.488200
24.664000 2.514700
24.690000 2.542700
24.716100 2.566600
24.742100 2.608000
24.768200 2.638500
24.794300 2.679900
24.820300 2.830500
24.846400 2.777900
24.872400 2.737900
24.898500 2.737500
24.924500 2.747600
24.950600 2.749100
24.976700 2.728000
25.002700 2.749600
25.028800 2.755800
25.054800 2.767700
25.080900 2.784700
25.106900 2.805200
25.133000 2.828700
25.159100 2.878500
25.185100 2.896200
25.211200 2.891700
25.237200 2.725000
25.263300 2.587400
25.289300 2.526200
25.315400 2.484900
25.341400 2.472600
25.367500 2.489000
25.393600 2.549700
25.419600 2.576400
25.445700 2.611200
25.471700 2.634000
25.497800 2.714700
25.523800 2.847500
25.549900 2.858200
25.576000 2.894800
25.602000 2.932700
25.628100 2.991400
25.654100 3.034200
25.680200 3.070600
25.706200 3.101500
25.732300 3.071700
25.758400 3.035600
25.784400 2.964900
25.810500 2.944700
25.836500 2.969000
25.862600 3.012500
25.888600 3.082800
25.914700 3.233500
25.940700 3.294300
25.966800 3.279600
25.992900 3.254100
26.018900 3.208600
26.045000 3.154100
26.071000 3.069600
26.097100 2.975000
26.123100 2.797000
26.149200 2.712500
26.175300 2.720500
26.201300 2.900500
26.227400 2.987700
26.253400 2.839700
26.279500 2.829300
26.305500 2.698200
26.331600 2.584700
26.357700 2.512500
26.383700 2.707400
26.409800 2.832200
26.435800 2.857000
26.461900 2.651300
26.487900 2.584100
26.514000 2.608100
26.540000 2.628600
26.566100 2.632000
26.592200 2.632700
26.618200 2.653800
26.644300 2.707000
26.670300 2.778200
26.696400 2.772100
26.722400 2.828000
26.748500 2.874900
26.774600 2.916200
26.800600 2.919600
26.826700 2.908600
26.852700 2.886400
26.878800 2.809300
26.904800 2.593700
26.930900 2.462200
26.957000 2.361800
26.983000 2.309400
27.009100 2.294800
27.035100 2.295900
27.061200 2.318200
27.087200 2.361200
27.113300 2.420500
27.139300 2.477900
27.165400 2.564000
27.191500 2.605400
27.217500 2.479600
27.243600 2.431600
27.269600 2.464400
27.295700 2.450800
27.321700 2.403000
27.347800 2.363300
27.373900 2.318600
27.399900 2.266100
27.426000 2.228500
27.452000 2.213400
27.478100 2.213000
27.504100 2.210700
27.530200 2.208500
27.556300 2.210700
27.582300 2.221500
27.608400 2.243700
27.634400 2.258100
27.660500 2.269500
27.686500 2.266000
27.712600 2.251100
27.738600 2.223600
27.764700 2.169200
27.790800 2.084300
27.816800 2.005700
27.842900 1.878600
27.868900 1.666400
27.895000 1.483500
27.921000 1.407500
27.947100 1.341100
27.973200 1.281900
27.999200 1.214800
28.025300 1.171300
28.051300 1.130500
28.077400 1.091000
28.103400 1.059000
28.129500 1.030700
28.155600 1.005600
28.181600 0.979000
28.207700 0.952600
28.233700 0.926300
28.259800 0.900000
28.285800 0.873600
28.311900 0.846500
28.337900 0.821100
28.364000 0.798800
28.390100 0.780900
28.416100 0.766200
28.442200 0.758600
28.468200 0.758500
28.494300 0.766100
28.520300 0.783200
28.546400 0.820300
28.572500 0.753300
28.598500 0.723600
28.624600 0.708800
28.650600 0.691500
28.676700 0.672900
28.702700 0.652100
28.728800 0.630400
28.754900 0.615400
28.780900 0.596700
28.807000 0.570900
28.833000 0.542000
28.859100 0.512200
28.885100 0.481500
28.911200 0.449700
28.937200 0.419200
28.963300 0.390500
28.989400 0.381200
29.015400 0.372100
29.041500 0.362000
29.067500 0.350800
29.093600 0.351500
29.119600 0.320600
29.145700 0.308700
29.171800 0.300000
29.197800 0.299700
29.223900 0.301600
29.249900 0.299600
29.276000 0.297000
29.302000 0.293900
29.328100 0.290800
29.354200 0.288700
29.380200 0.284600
29.406300 0.280100
29.432300 0.273100
29.458400 0.261200
29.484400 0.230900
29.510500 0.201200
29.536500 0.175400
29.562600 0.153500
29.588700 0.135300
29.614700 0.119400
29.640800 0.105300
29.666800 0.093000
29.692900 0.082500
29.718900 0.072300
29.745000 0.063400
29.771100 0.056300
29.797100 0.047300
29.823200 0.036400
29.849200 0.026000
29.875300 0.022700
29.901300 0.022500
29.927400 0.018500
29.953500 0.010700
29.979500 0.004000
30.005600 0.003300
30.031600 0.002700
30.057700 0.002100
30.083700 0.001600
30.109800 0.001200
30.135800 0.000800
30.161900 0.000500
30.188000 0.000300
30.214000 0.000100
30.240100 0.000000
30.266100 0.000000
30.292200 0.000000
30.318200 0.000000
30.344300 0.000000
30.370400 0.000000
30.396400 0.000000
30.422500 0.000000
30.448500 0.000000
30.474600 0.000000
30.500600 0.000000
30.526700 0.000000
30.552800 0.000000
30.578800 0.000000
30.604900 0.000000
30.630900 0.000000
30.657000 0.000000
30.683000 0.000000
30.709100 0.000000
30.735100 0.000000
30.761200 0.000000
30.787300 0.000000
30.813300 0.000000
30.839400 0.000000
30.865400 0.000000
30.891500 0.000000
30.917500 0.000000
30.943600 0.000000
30.969700 0.000000
30.995700 0.000000
31.021800 0.000000
31.047800 0.000000
31.073900 0.000000
31.099900 0.000000
31.126000 0.000000
31.152100 0.000000
31.178100 0.000000
31.204200 0.000000
31.230200 0.000000
31.256300 0.000000
31.282300 0.000000
31.308400 0.000000
31.334400 0.000000
31.360500 0.000000
31.386600 0.000000
31.412600 0.000000
31.438700 0.000000
31.464700 0.000000
31.490800 0.000000
31.516800 0.000000
31.542900 0.000000
31.569000 0.000000
31.595000 0.000000
31.621100 0.000000
31.647100 0.000000
31.673200 0.000000
31.699200 0.000000
31.725300 0.000000
31.751400 0.000000
31.777400 0.000000
31.803500 0.000000
31.829500 0.000000
31.855600 0.000000
31.881600 0.000000
31.907700 0.000000
31.933700 0.000000
31.959800 0.000000
31.985900 0.000000
32.011900 0.000000
32.038000 0.000000
32.064000 0.000000
32.090100 0.000000
32.116100 0.000000
32.142200 0.000000
32.168300 0.000000
32.194300 0.000000
32.220400 0.000000
32.246400 0.000000
32.272500 0.000000
32.298500 0.000000
32.324600 0.000000
32.350700 0.000000
32.376700 0.000000
32.402800 0.000000
32.428800 0.000000
32.454900 0.000000
32.480900 0.000000
32.507000 0.000000
32.533000 0.000000
32.559100 0.000000
32.585200 0.000000
32.611200 0.000000
32.637300 0.000000
e
