set title 'mp-1219920 - Density of States'
set xlabel 'Energy (eV)'
set ylabel 'DOS (states/eV)'
set grid
set xrange [-10:10]
set yrange [0:6.054]
set xzeroaxis lt -1
set terminal png size 800,600
set output 'mp-1219920_dos_gnuplot.png'
plot '-' using 1:2 with lines title 'DOS'
-6.751500 0.000000
-6.718300 0.000000
-6.685200 0.000000
-6.652000 0.000000
-6.618900 0.000000
-6.585800 0.000000
-6.552600 0.000000
-6.519500 0.000000
-6.486300 0.000000
-6.453200 0.000000
-6.420100 0.000000
-6.386900 0.000000
-6.353800 0.000000
-6.320600 0.000000
-6.287500 0.000000
-6.254300 0.000000
-6.221200 0.000000
-6.188100 0.000000
-6.154900 0.000000
-6.121800 0.000000
-6.088600 0.000000
-6.055500 0.000000
-6.022400 0.000000
-5.989200 0.000000
-5.956100 0.000000
-5.922900 0.000000
-5.889800 0.000000
-5.856600 0.000000
-5.823500 0.000000
-5.790400 0.000000
-5.757200 0.000000
-5.724100 0.000000
-5.690900 0.000000
-5.657800 0.000000
-5.624700 0.000000
-5.591500 0.000000
-5.558400 0.000000
-5.525200 0.000000
-5.492100 0.000000
-5.458900 0.000000
-5.425800 0.000000
-5.392700 0.000000
-5.359500 0.000000
-5.326400 0.000000
-5.293200 0.000000
-5.260100 0.000000
-5.227000 0.000000
-5.193800 0.000000
-5.160700 0.000000
-5.127500 0.000000
-5.094400 0.000000
-5.061200 0.000000
-5.028100 0.000000
-4.995000 0.000000
-4.961800 0.000000
-4.928700 0.000000
-4.895500 0.000000
-4.862400 0.000000
-4.829300 0.000000
-4.796100 0.000000
-4.763000 0.000000
-4.729800 0.000000
-4.696700 0.000000
-4.663500 0.000000
-4.630400 0.000000
-4.597300 0.000000
-4.564100 0.000000
-4.531000 0.000000
-4.497800 0.000000
-4.464700 0.000000
-4.431600 0.000000
-4.398400 0.000000
-4.365300 0.000000
-4.332100 0.000000
-4.299000 0.000000
-4.265800 0.000000
-4.232700 0.000000
-4.199600 0.000000
-4.166400 0.000000
-4.133300 0.000000
-4.100100 0.000000
-4.067000 0.000000
-4.033900 0.000000
-4.000700 0.000000
-3.967600 0.000000
-3.934400 0.000000
-3.901300 0.000000
-3.868100 0.000000
-3.835000 0.000000
-3.801900 0.000000
-3.768700 0.000000
-3.735600 0.000100
-3.702400 0.008300
-3.669300 0.024000
-3.636200 0.043600
-3.603000 0.066900
-3.569900 0.067300
-3.536700 0.071800
-3.503600 0.078900
-3.470400 0.086900
-3.437300 0.094200
-3.404200 0.101300
-3.371000 0.109200
-3.337900 0.117400
-3.304700 0.125300
-3.271600 0.131300
-3.238500 0.136800
-3.205300 0.141900
-3.172200 0.147100
-3.139000 0.153100
-3.105900 0.159700
-3.072700 0.166900
-3.039600 0.174300
-3.006500 0.182100
-2.973300 0.190100
-2.940200 0.199000
-2.907000 0.210500
-2.873900 0.222600
-2.840800 0.239100
-2.807600 0.253400
-2.774500 0.263600
-2.741300 0.263100
-2.708200 0.255500
-2.675100 0.259400
-2.641900 0.263000
-2.608800 0.266600
-2.575600 0.270100
-2.542500 0.273600
-2.509300 0.276700
-2.476200 0.279600
-2.443100 0.281700
-2.409900 0.283900
-2.376800 0.286500
-2.343600 0.289800
-2.310500 0.294400
-2.277400 0.299300
-2.244200 0.304100
-2.211100 0.309100
-2.177900 0.314200
-2.144800 0.319400
-2.111600 0.325600
-2.078500 0.332700
-2.045400 0.340500
-2.012200 0.348900
-1.979100 0.357400
-1.945900 0.367700
-1.912800 0.380200
-1.879700 0.394200
-1.846500 0.409700
-1.813400 0.427200
-1.780200 0.447200
-1.747100 0.495800
-1.713900 0.716800
-1.680800 0.999700
-1.647700 1.310500
-1.614500 1.413000
-1.581400 1.431500
-1.548200 1.404200
-1.515100 1.443200
-1.482000 1.516700
-1.448800 1.632100
-1.415700 1.822500
-1.382500 1.901200
-1.349400 1.895200
-1.316200 1.732400
-1.283100 1.546200
-1.250000 1.353300
-1.216800 1.347700
-1.183700 1.437900
-1.150500 1.549600
-1.117400 1.704100
-1.084300 1.771400
-1.051100 1.849000
-1.018000 1.908500
-0.984800 1.996800
-0.951700 2.111500
-0.918500 2.212600
-0.885400 2.333000
-0.852300 2.562800
-0.819100 2.709100
-0.786000 2.663200
-0.752800 2.575400
-0.719700 2.671300
-0.686600 2.769200
-0.653400 2.853200
-0.620300 3.012500
-0.587100 3.449900
-0.554000 4.079200
-0.520800 4.366100
-0.487700 4.538900
-0.454600 4.912300
-0.421400 5.408600
-0.388300 5.401100
-0.355100 5.503700
-0.322000 4.748200
-0.288900 4.030600
-0.255700 4.249900
-0.222600 3.405100
-0.189400 2.676000
-0.156300 2.588600
-0.123100 2.736900
-0.090000 2.907300
-0.056900 3.616300
-0.023700 3.947100
0.009400 3.816600
0.042600 4.341500
0.075700 3.603300
0.108800 3.690400
0.142000 3.424200
0.175100 3.207000
0.208300 2.955600
0.241400 3.203000
0.274600 3.262000
0.307700 3.309100
0.340800 3.470600
0.374000 3.858900
0.407100 3.874100
0.440300 4.345100
0.473400 3.827900
0.506500 3.362200
0.539700 3.261900
0.572800 3.150400
0.606000 3.170900
0.639100 3.158000
0.672300 3.090900
0.705400 3.446400
0.738500 3.859600
0.771700 3.504900
0.804800 3.146300
0.838000 2.975400
0.871100 3.068300
0.904200 3.009900
0.937400 2.967600
0.970500 2.901300
1.003700 3.305100
1.036800 3.627300
1.070000 3.522000
1.103100 3.785400
1.136200 4.189300
1.169400 4.175900
1.202500 3.962800
1.235700 4.061500
1.268800 3.905300
1.301900 3.777900
1.335100 3.819800
1.368200 3.412400
1.401400 4.007700
1.434500 4.387800
1.467600 4.181800
1.500800 4.254900
1.533900 4.025200
1.567100 3.533000
1.600200 3.986800
1.633400 4.601800
1.666500 4.649300
1.699600 3.827500
1.732800 3.418400
1.765900 3.314200
1.799100 3.335200
1.832200 3.066900
1.865300 2.932400
1.898500 2.969500
1.931600 2.947500
1.964800 2.855000
1.997900 2.725300
2.031100 2.659800
2.064200 2.395900
2.097300 2.383000
2.130500 2.533100
2.163600 2.950500
2.196800 3.490800
2.229900 4.208800
2.263000 4.984700
2.296200 4.975900
2.329300 5.094800
2.362500 4.429700
2.395600 3.718400
2.428800 3.414500
2.461900 3.260500
2.495000 3.242400
2.528200 3.742200
2.561300 4.002400
2.594500 3.573100
2.627600 3.291600
2.660700 3.334600
2.693900 3.304900
2.727000 3.271300
2.760200 3.117500
2.793300 3.083700
2.826500 3.174900
2.859600 3.314800
2.892700 3.906900
2.925900 4.102700
2.959000 4.266200
2.992200 4.828600
3.025300 4.985300
3.058400 4.748100
3.091600 4.926100
3.124700 4.171100
3.157900 3.807500
3.191000 3.532500
3.224200 3.320600
3.257300 3.319400
3.290400 3.382500
3.323600 3.415900
3.356700 3.360100
3.389900 3.481200
3.423000 3.673800
3.456100 4.185600
3.489300 4.598200
3.522400 5.053700
3.555600 5.407200
3.588700 4.969700
3.621900 4.305000
3.655000 3.879700
3.688100 3.734100
3.721300 3.779100
3.754400 3.748500
3.787600 3.596400
3.820700 3.916700
3.853800 3.985100
3.887000 4.248300
3.920100 4.460300
3.953300 4.808300
3.986400 4.893000
4.019600 5.195700
4.052700 4.594400
4.085800 3.505300
4.119000 2.954000
4.152100 2.648600
4.185300 2.743700
4.218400 2.668900
4.251500 2.533800
4.284700 2.109600
4.317800 1.609600
4.351000 1.529000
4.384100 1.416500
4.417300 1.332400
4.450400 1.248700
4.483500 1.153400
4.516700 0.741700
4.549800 0.683700
4.583000 0.678300
4.616100 0.681100
4.649200 0.684300
4.682400 0.687000
4.715500 0.688900
4.748700 0.689200
4.781800 0.686800
4.815000 0.682800
4.848100 0.679200
4.881200 0.673600
4.914400 0.669200
4.947500 0.665800
4.980700 0.664200
5.013800 0.662500
5.046900 0.660200
5.080100 0.655800
5.113200 0.650100
5.146400 0.639400
5.179500 0.615200
5.212700 0.608100
5.245800 0.603600
5.278900 0.600400
5.312100 0.597600
5.345200 0.595300
5.378400 0.594100
5.411500 0.595300
5.444600 0.597800
5.477800 0.597400
5.510900 0.597000
5.544100 0.596600
5.577200 0.596300
5.610400 0.596000
5.643500 0.595800
5.676600 0.596200
5.709800 0.596700
5.742900 0.597400
5.776100 0.598500
5.809200 0.601400
5.842300 0.605200
5.875500 0.610400
5.908600 0.617000
5.941800 0.619100
5.974900 0.617300
6.008000 0.611500
6.041200 0.600000
6.074300 0.587200
6.107500 0.579000
6.140600 0.572400
6.173800 0.567500
6.206900 0.563900
6.240000 0.562000
6.273200 0.561700
6.306300 0.564800
6.339500 0.572800
6.372600 0.592100
6.405700 0.600300
6.438900 0.597900
6.472000 0.591200
6.505200 0.580100
6.538300 0.554100
6.571500 0.530200
6.604600 0.517000
6.637700 0.513300
6.670900 0.511900
6.704000 0.511800
6.737200 0.512000
6.770300 0.512500
6.803400 0.513300
6.836600 0.514600
6.869700 0.518700
6.902900 0.521500
6.936000 0.523500
6.969200 0.525800
7.002300 0.527400
7.035400 0.526800
7.068600 0.524800
7.101700 0.533100
7.134900 0.534100
7.168000 0.538600
7.201100 0.571000
7.234300 0.584000
7.267400 0.566400
7.300600 0.552200
7.333700 0.543000
7.366900 0.534000
7.400000 0.527300
7.433100 0.526600
7.466300 0.526600
7.499400 0.527000
7.532600 0.527800
7.565700 0.527000
7.598800 0.521900
7.632000 0.517800
7.665100 0.514800
7.698300 0.512200
7.731400 0.508500
7.764600 0.503400
7.797700 0.497200
7.830800 0.492600
7.864000 0.489600
7.897100 0.487600
7.930300 0.486100
7.963400 0.485300
7.996500 0.485900
8.029700 0.488200
8.062800 0.491500
8.096000 0.520300
8.129100 0.546500
8.162300 0.516200
8.195400 0.484600
8.228500 0.471700
8.261700 0.462800
8.294800 0.456700
8.328000 0.451700
8.361100 0.447700
8.394200 0.444200
8.427400 0.440900
8.460500 0.437800
8.493700 0.423600
8.526800 0.423100
8.560000 0.422400
8.593100 0.422000
8.626200 0.422100
8.659400 0.422500
8.692500 0.422900
8.725700 0.427600
8.758800 0.434700
8.791900 0.435500
8.825100 0.431400
8.858200 0.421900
8.891400 0.418800
8.924500 0.418200
8.957700 0.419100
8.990800 0.424400
9.023900 0.434000
9.057100 0.447600
9.090200 0.463000
9.123400 0.480700
9.156500 0.500200
9.189600 0.514400
9.222800 0.522600
9.255900 0.533700
9.289100 0.545700
9.322200 0.552600
9.355400 0.557100
9.388500 0.562100
9.421600 0.569600
9.454800 0.585100
9.487900 0.600300
9.521100 0.602800
9.554200 0.598600
9.587300 0.583600
9.620500 0.587900
9.653600 0.593200
9.686800 0.596700
9.719900 0.604600
9.753100 0.611100
9.786200 0.604800
9.819300 0.604400
9.852500 0.607000
9.885600 0.663300
9.918800 0.731600
9.951900 0.754600
9.985000 0.762800
10.018200 0.760100
10.051300 0.729700
10.084500 0.703900
10.117600 0.695600
10.150700 0.684500
10.183900 0.681700
10.217000 0.688800
10.250200 0.681000
10.283300 0.670900
10.316500 0.660800
10.349600 0.652200
10.382700 0.644900
10.415900 0.638300
10.449000 0.623100
10.482200 0.605800
10.515300 0.591800
10.548400 0.580800
10.581600 0.572600
10.614700 0.568500
10.647900 0.564500
10.681000 0.561500
10.714200 0.559700
10.747300 0.557500
10.780400 0.549800
10.813600 0.550300
10.846700 0.551500
10.879900 0.554000
10.913000 0.557700
10.946100 0.566100
10.979300 0.580800
11.012400 0.592800
11.045600 0.606700
11.078700 0.622700
11.111900 0.639300
11.145000 0.653400
11.178100 0.665200
11.211300 0.672800
11.244400 0.676400
11.277600 0.679100
11.310700 0.683300
11.343800 0.687100
11.377000 0.686400
11.410100 0.682400
11.443300 0.678600
11.476400 0.674200
11.509600 0.667200
11.542700 0.660100
11.575800 0.677900
11.609000 0.635700
11.642100 0.621000
11.675300 0.609600
11.708400 0.623400
11.741500 0.654800
11.774700 0.714200
11.807800 0.595900
11.841000 0.570600
11.874100 0.555600
11.907300 0.537100
11.940400 0.516900
11.973500 0.501100
12.006700 0.489600
12.039800 0.479200
12.073000 0.468600
12.106100 0.458300
12.139200 0.448900
12.172400 0.440800
12.205500 0.433900
12.238700 0.427900
12.271800 0.422300
12.305000 0.417500
12.338100 0.413700
12.371200 0.411800
12.404400 0.411900
12.437500 0.412600
12.470700 0.415500
12.503800 0.421300
12.536900 0.427200
12.570100 0.436500
12.603200 0.449000
12.636400 0.466900
12.669500 0.489500
12.702700 0.518300
12.735800 0.554300
12.768900 0.594200
12.802100 0.621600
12.835200 0.643500
12.868400 0.665100
12.901500 0.695700
12.934600 0.725300
12.967800 0.760800
13.000900 0.802900
13.034100 0.840400
13.067200 0.894800
13.100400 0.971700
13.133500 0.978500
13.166600 0.968300
13.199800 0.959600
13.232900 0.907200
13.266100 0.856200
13.299200 0.800000
13.332300 0.737600
13.365500 0.697500
13.398600 0.677200
13.431800 0.663300
13.464900 0.649800
13.498100 0.636000
13.531200 0.622500
13.564300 0.613000
13.597500 0.607900
13.630600 0.609900
13.663800 0.641800
13.696900 0.667100
13.730000 0.693200
13.763200 0.714900
13.796300 0.736600
13.829500 0.765400
13.862600 0.793300
13.895800 0.812200
13.928900 0.821000
13.962000 0.820900
13.995200 0.816400
14.028300 0.806900
14.061500 0.793400
14.094600 0.781700
14.127700 0.772900
14.160900 0.768300
14.194000 0.769600
14.227200 0.777400
14.260300 0.790900
14.293500 0.795500
14.326600 0.794400
14.359700 0.792500
14.392900 0.789300
14.426000 0.785600
14.459200 0.782500
14.492300 0.780300
14.525400 0.779200
14.558600 0.779000
14.591700 0.779300
14.624900 0.780200
14.658000 0.781300
14.691100 0.783100
14.724300 0.782700
14.757400 0.780800
14.790600 0.776500
14.823700 0.777400
14.856900 0.787700
14.890000 0.800200
14.923100 0.809500
14.956300 0.818100
14.989400 0.825500
15.022600 0.832500
15.055700 0.839000
15.088800 0.844800
15.122000 0.848500
15.155100 0.856700
15.188300 0.912300
15.221400 0.873400
15.254600 0.864500
15.287700 0.870400
15.320800 0.874600
15.354000 0.878400
15.387100 0.881700
15.420300 0.885200
15.453400 0.889300
15.486500 0.895000
15.519700 0.899500
15.552800 0.900200
15.586000 0.903500
15.619100 0.910000
15.652300 0.917300
15.685400 0.924200
15.718500 0.930200
15.751700 0.934600
15.784800 0.937000
15.818000 0.938800
15.851100 0.940500
15.884200 0.943500
15.917400 0.948600
15.950500 0.955800
15.983700 0.966200
16.016800 0.975500
16.050000 0.979800
16.083100 0.984100
16.116200 0.986500
16.149400 0.995400
16.182500 1.007600
16.215700 1.019200
16.248800 1.033100
16.281900 1.046800
16.315100 1.061300
16.348200 1.073000
16.381400 1.083000
16.414500 1.093300
16.447700 1.101300
16.480800 1.100500
16.513900 1.102600
16.547100 1.104100
16.580200 1.101000
16.613400 1.095200
16.646500 1.091900
16.679600 1.091000
16.712800 1.089900
16.745900 1.087400
16.779100 1.083800
16.812200 1.080200
16.845400 1.076800
16.878500 1.073700
16.911600 1.071700
16.944800 1.072200
16.977900 1.073500
17.011100 1.073200
17.044200 1.070400
17.077300 1.066600
17.110500 1.062700
17.143600 1.058600
17.176800 1.052200
17.209900 1.043300
17.243100 1.037100
17.276200 1.033200
17.309300 1.029000
17.342500 1.024200
17.375600 1.019000
17.408800 1.014900
17.441900 1.012500
17.475000 1.009700
17.508200 1.010400
17.541300 1.011200
17.574500 1.013300
17.607600 1.017900
17.640800 1.033700
17.673900 1.047000
17.707000 1.044600
17.740200 1.030900
17.773300 1.040600
17.806500 1.068200
17.839600 1.080400
17.872700 1.080000
17.905900 1.077200
17.939000 1.081200
17.972200 1.087700
18.005300 1.069500
18.038500 1.059600
18.071600 1.049500
18.104700 1.037100
18.137900 1.015700
18.171000 0.992700
18.204200 0.982300
18.237300 0.971400
18.270400 0.959700
18.303600 0.945800
18.336700 0.931200
18.369900 0.917900
18.403000 0.905300
18.436200 0.896300
18.469300 0.907300
18.502400 0.911100
18.535600 0.900400
18.568700 0.903000
18.601900 0.903000
18.635000 0.904700
18.668100 0.906500
18.701300 0.904500
18.734400 0.902300
18.767600 0.902700
18.800700 0.904100
18.833800 0.915200
18.867000 0.945800
18.900100 0.962300
18.933300 0.967200
18.966400 0.970300
18.999600 0.977700
19.032700 0.968200
19.065800 0.965300
19.099000 0.973300
19.132100 0.983800
19.165300 0.992500
19.198400 0.999400
19.231500 1.020800
19.264700 1.045100
19.297800 1.050200
19.331000 1.046700
19.364100 1.037400
19.397300 1.027400
19.430400 1.021800
19.463500 1.015400
19.496700 1.006700
19.529800 0.998200
19.563000 0.998800
19.596100 0.999000
19.629200 0.999000
19.662400 1.000000
19.695500 0.998900
19.728700 0.999700
19.761800 1.004500
19.795000 1.011600
19.828100 1.019200
19.861200 1.026800
19.894400 1.035100
19.927500 1.043100
19.960700 1.053800
19.993800 1.074600
20.026900 1.092400
20.060100 1.100800
20.093200 1.104300
20.126400 1.115300
20.159500 1.115400
20.192700 1.119800
20.225800 1.170100
20.258900 1.286400
20.292100 1.192500
20.325200 1.165800
20.358400 1.152500
20.391500 1.139900
20.424600 1.140900
20.457800 1.138400
20.490900 1.137400
20.524100 1.150500
20.557200 1.188400
20.590400 1.380300
20.623500 1.435200
20.656600 1.282400
20.689800 1.202100
20.722900 1.142400
20.756100 1.113500
20.789200 1.081300
20.822300 1.058600
20.855500 1.042300
20.888600 1.031300
20.921800 1.024800
20.954900 1.020500
20.988100 1.026500
21.021200 1.029900
21.054300 1.025700
21.087500 1.016700
21.120600 1.003700
21.153800 0.993900
21.186900 0.993200
21.220000 0.988200
21.253200 0.986200
21.286300 1.045800
21.319500 0.970200
21.352600 0.993100
21.385800 1.011600
21.418900 1.025600
21.452000 1.044800
21.485200 1.092500
21.518300 1.055400
21.551500 1.031200
21.584600 1.011400
21.617700 1.008800
21.650900 1.008400
21.684000 1.006300
21.717200 1.004600
21.750300 1.004300
21.783500 0.980700
21.816600 0.940100
21.849700 0.929600
21.882900 0.933400
21.916000 0.944500
21.949200 0.966900
21.982300 1.007700
22.015400 1.030300
22.048600 1.017900
22.081700 0.967400
22.114900 0.941000
22.148000 0.928500
22.181200 0.905000
22.214300 0.876300
22.247400 0.844300
22.280600 0.811100
22.313700 0.782200
22.346900 0.776000
22.380000 0.771700
22.413100 0.768700
22.446300 0.770100
22.479400 0.774400
22.512600 0.792000
22.545700 0.809300
22.578900 0.827500
22.612000 0.844700
22.645100 0.861800
22.678300 0.884500
22.711400 0.919100
22.744600 0.955400
22.777700 0.979400
22.810800 0.997000
22.844000 1.023500
22.877100 1.078200
22.910300 1.111200
22.943400 1.159900
22.976600 1.203100
23.009700 1.261500
23.042800 1.350900
23.076000 1.412000
23.109100 1.442100
23.142300 1.472500
23.175400 1.500600
23.208500 1.554900
23.241700 1.605700
23.274800 1.681300
23.308000 1.732500
23.341100 1.733800
23.374200 1.690600
23.407400 1.705200
23.440500 1.712600
23.473700 1.716000
23.506800 1.771200
23.540000 1.843800
23.573100 1.872200
23.606200 1.830800
23.639400 1.780000
23.672500 1.759800
23.705700 1.750800
23.738800 1.767000
23.771900 1.779300
23.805100 1.780900
23.838200 1.758400
23.871400 1.748200
23.904500 1.738000
23.937700 1.735400
23.970800 1.731700
24.003900 1.714100
24.037100 1.680700
24.070200 1.664500
24.103400 1.680000
24.136500 1.700000
24.169600 1.696900
24.202800 1.647000
24.235900 1.587400
24.269100 1.527000
24.302200 1.476200
24.335400 1.430400
24.368500 1.402600
24.401600 1.397800
24.434800 1.393600
24.467900 1.386500
24.501100 1.373400
24.534200 1.387100
24.567300 1.424600
24.600500 1.446100
24.633600 1.462800
24.666800 1.465900
24.699900 1.455300
24.733100 1.436700
24.766200 1.401400
24.799300 1.335100
24.832500 1.288900
24.865600 1.255500
24.898800 1.230700
24.931900 1.210600
24.965000 1.194500
24.998200 1.186800
25.031300 1.181700
25.064500 1.176200
25.097600 1.169400
25.130800 1.153800
25.163900 1.139600
25.197000 1.124100
25.230200 1.108800
25.263300 1.108900
25.296500 1.111200
25.329600 1.110200
25.362700 1.113700
25.395900 1.122000
25.429000 1.134800
25.462200 1.153200
25.495300 1.177300
25.528500 1.207400
25.561600 1.237900
25.594700 1.261200
25.627900 1.276000
25.661000 1.293000
25.694200 1.302600
25.727300 1.349500
25.760400 1.232100
25.793600 1.197200
25.826700 1.186500
25.859900 1.180300
25.893000 1.164800
25.926200 1.141200
25.959300 1.118100
25.992400 1.095200
26.025600 1.078500
26.058700 1.065100
26.091900 1.051100
26.125000 1.040200
26.158100 1.031400
26.191300 1.028500
26.224400 1.033300
26.257600 1.039800
26.290700 1.041800
26.323900 1.045700
26.357000 1.050100
26.390100 1.054600
26.423300 1.057300
26.456400 1.057900
26.489600 1.058100
26.522700 1.056500
26.555800 1.051300
26.589000 1.050100
26.622100 1.056000
26.655300 1.066900
26.688400 1.078700
26.721600 1.097400
26.754700 1.121200
26.787800 1.150600
26.821000 1.189700
26.854100 1.251100
26.887300 1.337300
26.920400 1.483200
26.953500 2.901900
26.986700 44.024600
27.019800 3.485400
27.053000 2.477700
27.086100 2.002200
27.119300 1.670500
27.152400 1.409900
27.185500 1.205600
27.218700 1.062400
27.251800 0.965200
27.285000 0.901400
27.318100 0.863000
27.351200 0.835900
27.384400 0.824500
27.417500 0.835200
27.450700 0.840400
27.483800 0.848200
27.516900 0.821900
27.550100 0.824200
27.583200 0.832400
27.616400 0.848800
27.649500 0.859900
27.682700 0.877400
27.715800 0.890000
27.748900 0.907100
27.782100 0.925900
27.815200 0.943100
27.848400 0.958800
27.881500 0.975000
27.914600 0.989100
27.947800 1.003800
27.980900 1.019000
28.014100 1.034800
28.047200 1.048100
28.080400 1.056800
28.113500 1.064000
28.146600 1.069100
28.179800 1.070300
28.212900 1.075400
28.246100 1.089500
28.279200 1.112600
28.312300 1.114700
28.345500 1.078700
28.378600 1.038200
28.411800 1.014300
28.444900 1.006700
28.478100 1.001400
28.511200 0.991200
28.544300 0.983000
28.577500 0.968600
28.610600 0.946300
28.643800 0.931100
28.676900 0.930900
28.710000 0.937500
28.743200 0.898000
28.776300 0.872800
28.809500 0.860700
28.842600 0.852800
28.875800 0.851800
28.908900 0.863300
28.942000 0.877700
28.975200 0.899800
29.008300 0.943900
29.041500 0.963800
29.074600 0.973600
29.107700 0.991200
29.140900 1.014800
29.174000 1.038900
29.207200 1.074600
29.240300 1.100100
29.273500 1.120600
29.306600 1.151700
29.339700 1.176100
29.372900 1.201900
29.406000 1.232600
29.439200 1.272300
29.472300 1.331100
29.505400 1.435800
29.538600 1.395600
29.571700 1.372300
29.604900 1.387400
29.638000 1.420900
29.671200 1.456100
29.704300 1.501200
29.737400 1.561100
29.770600 1.609000
29.803700 1.634600
29.836900 1.635700
29.870000 1.622100
29.903100 1.721900
29.936300 1.761300
29.969400 1.645400
30.002600 1.684700
30.035700 1.713400
30.068900 1.644800
30.102000 1.586800
30.135100 1.534300
30.168300 1.505100
30.201400 1.477600
30.234600 1.456100
30.267700 1.438500
30.300800 1.419300
30.334000 1.400100
30.367100 1.382500
30.400300 1.369000
30.433400 1.355200
30.466600 1.351600
30.499700 1.389300
30.532800 1.333500
30.566000 1.298300
30.599100 1.300700
30.632300 1.307700
30.665400 1.308100
30.698500 1.306100
30.731700 1.314300
30.764800 1.326900
30.798000 1.325600
30.831100 1.324700
30.864300 1.326500
30.897400 1.278700
30.930500 1.274100
30.963700 1.269100
30.996800 1.263700
31.030000 1.251900
31.063100 1.241000
31.096200 1.230400
31.129400 1.222800
31.162500 1.219600
31.195700 1.216500
31.228800 1.200900
31.262000 1.179500
31.295100 1.181200
31.328200 1.214100
31.361400 1.435900
31.394500 1.450400
31.427700 1.525600
31.460800 1.545800
31.493900 1.565000
31.527100 1.541300
31.560200 1.512000
31.593400 1.482100
31.626500 1.482100
31.659700 1.503600
31.692800 1.534800
31.725900 1.574600
31.759100 1.627200
31.792200 1.671200
31.825400 1.734600
31.858500 1.766000
31.891600 1.810700
31.924800 1.892100
31.957900 1.942200
31.991100 1.983600
32.024200 2.021100
32.057300 2.094400
32.090500 2.173900
32.123600 2.609600
32.156800 2.116600
32.189900 2.015300
32.223100 1.976400
32.256200 1.948900
32.289300 1.948000
32.322500 1.974700
32.355600 2.031800
32.388800 2.017400
32.421900 1.990900
32.455000 1.993300
32.488200 1.790600
32.521300 1.717900
32.554500 1.665300
32.587600 1.627700
32.620800 1.604300
32.653900 1.575800
32.687000 1.467000
32.720200 1.427100
32.753300 1.429100
32.786500 1.436800
32.819600 1.420500
32.852700 1.419200
32.885900 1.427500
32.919000 1.442200
32.952200 1.458700
32.985300 1.472700
33.018500 1.490500
33.051600 1.518300
33.084700 1.527400
33.117900 1.537400
33.151000 1.525200
33.184200 1.552300
33.217300 1.586500
33.250400 1.611400
33.283600 1.629700
33.316700 1.644100
33.349900 1.666900
33.383000 1.724000
33.416200 1.748700
33.449300 1.744100
33.482400 1.759700
33.515600 1.774700
33.548700 1.782700
33.581900 1.795800
33.615000 1.811400
33.648100 1.819000
33.681300 1.822000
33.714400 1.845500
33.747600 1.871700
33.780700 1.751100
33.813900 1.709500
33.847000 1.684600
33.880100 1.639300
33.913300 1.584200
33.946400 1.552700
33.979600 1.453500
34.012700 1.433000
34.045800 1.428200
34.079000 1.432600
34.112100 1.437300
34.145300 1.431400
34.178400 1.417700
34.211600 1.397500
34.244700 1.387500
34.277800 1.382700
34.311000 1.382700
34.344100 1.386100
34.377300 1.389700
34.410400 1.391700
34.443500 1.399800
34.476700 1.411500
34.509800 1.435200
34.543000 1.454300
34.576100 1.469100
34.609300 1.464800
34.642400 1.447300
34.675500 1.459300
34.708700 1.464600
34.741800 1.467600
34.775000 1.482600
34.808100 1.505500
34.841200 1.496100
34.874400 1.483900
34.907500 1.479200
34.940700 1.480900
34.973800 1.489700
35.007000 1.499200
35.040100 1.499100
35.073200 1.488500
35.106400 1.491200
35.139500 1.499500
35.172700 1.509100
35.205800 1.531300
35.238900 1.543700
35.272100 1.546300
35.305200 1.543500
35.338400 1.542300
35.371500 1.539600
35.404700 1.530900
35.437800 1.516500
35.470900 1.504000
35.504100 1.498900
35.537200 1.519800
35.570400 1.504300
35.603500 1.481200
35.636600 1.456500
35.669800 1.434500
35.702900 1.382100
35.736100 1.355300
35.769200 1.334800
35.802400 1.317900
35.835500 1.297700
35.868600 1.281900
35.901800 1.272100
35.934900 1.271500
35.968100 1.280700
36.001200 1.303000
36.034300 1.257800
36.067500 1.248400
36.100600 1.244900
36.133800 1.237300
36.166900 1.231500
36.200000 1.233800
36.233200 1.243500
36.266300 1.205900
36.299500 1.198100
36.332600 1.202200
36.365800 1.191800
36.398900 1.181500
36.432000 1.181200
36.465200 1.191400
36.498300 1.203200
36.531500 1.214200
36.564600 1.221700
36.597700 1.226400
36.630900 1.235500
36.664000 1.246300
36.697200 1.252500
36.730300 1.255900
36.763500 1.259600
36.796600 1.266000
36.829700 1.280600
36.862900 1.296100
36.896000 1.322100
36.929200 1.357500
36.962300 1.392800
36.995400 1.419500
37.028600 1.439300
37.061700 1.443400
37.094900 1.488200
37.128000 1.469800
37.161200 1.476100
37.194300 1.474600
37.227400 1.462600
37.260600 1.451000
37.293700 1.436600
37.326900 1.421300
37.360000 1.405000
37.393100 1.393500
37.426300 1.386800
37.459400 1.375500
37.492600 1.363100
37.525700 1.415500
37.558900 1.419900
37.592000 1.376200
37.625100 1.413800
37.658300 1.414800
37.691400 1.454800
37.724600 1.493600
37.757700 1.513600
37.790800 1.523100
37.824000 1.530200
37.857100 1.526400
37.890300 1.521500
37.923400 1.518400
37.956600 1.527300
37.989700 1.534200
38.022800 1.537800
38.056000 1.536900
38.089100 1.530000
38.122300 1.526100
38.155400 1.546800
38.188500 1.554300
38.221700 1.546000
38.254800 1.553200
38.288000 1.562700
38.321100 1.560300
38.354300 1.588700
38.387400 1.577800
38.420500 1.587400
38.453700 1.599900
38.486800 1.617100
38.520000 1.631200
38.553100 1.655000
38.586200 1.646000
38.619400 1.599300
38.652500 1.563400
38.685700 1.534500
38.718800 1.514600
38.752000 1.507800
38.785100 1.515700
38.818200 1.540800
38.851400 1.563300
38.884500 1.571000
38.917700 1.577200
38.950800 1.588000
38.983900 1.593700
39.017100 1.603500
39.050200 1.642400
39.083400 1.633700
39.116500 1.656400
39.149700 1.680800
39.182800 1.710200
39.215900 1.733600
39.249100 1.765700
39.282200 1.791700
39.315400 1.837600
39.348500 1.872300
39.381600 1.904600
39.414800 1.915100
39.447900 1.895800
39.481100 1.854500
39.514200 1.831000
39.547400 1.812600
39.580500 1.802900
39.613600 1.822700
39.646800 1.859800
39.679900 1.849900
39.713100 1.856900
39.746200 1.872500
39.779300 1.882900
39.812500 1.875800
39.845600 1.885100
39.878800 1.907200
39.911900 1.866500
39.945100 1.827200
39.978200 1.794400
40.011300 1.774300
40.044500 1.754600
40.077600 1.759000
40.110800 1.765500
40.143900 1.768000
40.177000 1.790100
40.210200 1.816500
40.243300 1.832200
40.276500 1.851200
40.309600 1.884700
40.342800 1.933800
40.375900 1.982900
40.409000 2.030000
40.442200 2.085400
40.475300 2.135600
40.508500 2.192000
40.541600 2.252200
40.574700 2.249900
40.607900 2.302600
40.641000 2.302100
40.674200 2.273300
40.707300 2.253100
40.740400 2.255300
40.773600 2.250600
40.806700 2.206100
40.839900 2.135400
40.873000 2.062500
40.906200 2.028800
40.939300 2.029800
40.972400 2.079800
41.005600 2.079000
41.038700 2.048500
41.071900 2.055400
41.105000 2.023900
41.138100 1.993000
41.171300 1.930500
41.204400 1.931800
41.237600 1.932800
41.270700 1.942200
41.303900 1.991800
41.337000 1.979700
41.370100 1.994300
41.403300 2.059800
41.436400 2.140400
41.469600 2.202000
41.502700 2.231000
41.535800 2.167900
41.569000 2.083200
41.602100 2.042800
41.635300 2.014100
41.668400 1.996200
41.701600 1.977400
41.734700 1.951800
41.767800 1.937300
41.801000 1.942600
41.834100 1.937400
41.867300 1.938500
41.900400 1.963600
41.933500 2.009900
41.966700 2.018300
41.999800 1.993200
42.033000 1.944000
42.066100 1.907300
42.099300 1.795900
42.132400 1.648500
42.165500 1.583500
42.198700 1.504500
42.231800 1.429100
42.265000 1.426100
42.298100 1.441100
42.331200 1.428800
42.364400 1.414700
42.397500 1.365000
42.430700 1.374100
42.463800 1.436100
42.497000 1.467300
42.530100 1.516200
42.563200 1.555600
42.596400 1.578700
42.629500 1.604200
42.662700 1.648000
42.695800 1.672200
42.728900 1.667500
42.762100 1.712500
42.795200 1.740100
42.828400 1.795300
42.861500 1.850900
42.894700 1.871100
42.927800 1.928000
42.960900 1.975500
42.994100 1.997100
43.027200 1.957000
43.060400 1.946400
43.093500 1.977400
43.126600 1.951400
43.159800 1.923100
43.192900 1.851300
43.226100 1.802300
43.259200 1.789000
43.292400 1.783300
43.325500 1.803400
43.358600 1.787800
43.391800 1.777300
43.424900 1.784200
43.458100 1.781900
43.491200 1.789700
43.524300 1.803500
43.557500 1.838200
43.590600 1.912800
43.623800 1.985000
43.656900 2.035400
43.690100 2.054300
43.723200 2.122700
43.756300 2.174900
43.789500 2.204700
43.822600 2.200100
43.855800 2.130700
43.888900 2.054600
43.922000 2.055800
43.955200 2.074200
43.988300 2.099000
44.021500 2.129300
44.054600 2.151500
44.087800 2.104400
44.120900 2.092100
44.154000 2.099100
44.187200 2.110900
44.220300 2.138500
44.253500 2.177500
44.286600 2.206000
44.319700 2.163000
44.352900 2.171100
44.386000 2.178200
44.419200 2.197600
44.452300 2.226300
44.485500 2.272600
44.518600 2.333100
44.551700 2.418300
44.584900 2.484000
44.618000 2.557300
44.651200 2.780600
44.684300 2.923000
44.717400 2.951800
44.750600 2.883400
44.783700 2.932300
44.816900 3.082800
44.850000 3.174600
44.883100 2.931500
44.916300 2.947600
44.949400 2.864400
44.982600 2.882000
45.015700 2.927800
45.048900 2.953700
45.082000 3.054000
45.115100 3.117900
45.148300 3.207100
45.181400 3.414200
45.214600 3.648600
45.247700 3.643500
45.280800 3.502300
45.314000 3.259800
45.347100 3.077200
45.380300 3.047200
45.413400 3.079600
45.446600 2.727400
45.479700 2.742000
45.512800 2.890100
45.546000 3.076000
45.579100 3.112400
45.612300 2.912400
45.645400 2.566000
45.678500 2.316000
45.711700 2.065800
45.744800 1.975400
45.778000 1.958300
45.811100 2.073400
45.844300 2.212100
45.877400 2.272800
45.910500 2.292600
45.943700 2.306700
45.976800 2.279300
46.010000 2.229400
46.043100 2.149300
46.076200 2.128700
46.109400 2.088600
46.142500 2.050400
46.175700 2.074300
46.208800 2.024100
46.242000 1.998600
46.275100 1.891500
46.308200 1.830000
46.341400 1.806400
46.374500 1.884200
46.407700 1.636900
46.440800 1.546500
46.473900 1.527800
46.507100 1.546100
46.540200 1.599600
46.573400 1.662900
46.606500 1.698100
46.639700 1.696100
46.672800 1.733100
46.705900 1.906200
46.739100 2.017500
46.772200 2.220800
46.805400 2.386500
46.838500 2.303900
46.871600 2.265800
46.904800 2.329900
46.937900 2.421600
46.971100 2.372900
47.004200 2.385700
47.037400 2.222800
47.070500 2.107200
47.103600 2.045300
47.136800 2.023400
47.169900 2.018600
47.203100 2.072100
47.236200 2.124000
47.269300 2.167200
47.302500 2.153000
47.335600 2.188100
47.368800 2.040700
47.401900 2.062800
47.435100 2.060200
47.468200 2.054700
47.501300 2.067400
47.534500 2.108100
47.567600 2.164300
47.600800 2.277600
47.633900 2.459700
47.667000 2.631800
47.700200 2.682500
47.733300 2.781400
47.766500 2.829600
47.799600 2.771800
47.832800 2.659100
47.865900 2.583700
47.899000 2.481100
47.932200 2.356100
47.965300 2.258700
47.998500 2.179400
48.031600 2.142200
48.064700 2.141700
48.097900 2.179300
48.131000 2.228900
48.164200 2.334300
48.197300 2.449500
48.230500 2.605400
48.263600 2.764000
48.296700 2.785700
48.329900 2.796800
48.363000 2.796500
48.396200 2.779300
48.429300 2.790600
48.462400 2.723000
48.495600 2.676400
48.528700 2.688300
48.561900 2.600000
48.595000 2.503400
48.628200 2.390600
48.661300 2.299100
48.694400 2.159300
48.727600 2.041300
48.760700 1.984100
48.793900 1.945400
48.827000 1.911500
48.860100 1.887100
48.893300 1.889000
48.926400 1.914600
48.959600 1.977700
48.992700 2.000200
49.025900 2.010200
49.059000 1.988000
49.092100 1.985900
49.125300 1.992000
49.158400 1.997400
49.191600 1.993400
49.224700 1.987600
49.257800 2.014400
49.291000 2.049300
49.324100 2.010700
49.357300 1.990500
49.390400 2.028000
49.423500 2.099800
49.456700 2.186100
49.489800 2.327300
49.523000 2.448700
49.556100 2.523900
49.589300 2.534900
49.622400 2.540000
49.655500 2.453300
49.688700 2.379100
49.721800 2.357600
49.755000 2.356000
49.788100 2.401900
49.821200 2.424100
49.854400 2.474700
49.887500 2.503700
49.920700 2.397700
49.953800 2.368000
49.987000 2.370300
50.020100 2.373000
50.053200 2.364700
50.086400 2.347200
50.119500 2.308800
50.152700 2.276000
50.185800 2.248200
50.218900 2.309200
50.252100 2.300300
50.285200 2.311400
50.318400 2.272200
50.351500 2.223700
50.384700 2.116300
50.417800 2.103100
50.450900 2.018100
50.484100 2.008500
50.517200 1.996400
50.550400 1.979100
50.583500 1.965400
50.616600 1.932700
50.649800 1.839600
50.682900 1.661200
50.716100 1.537600
50.749200 1.432400
50.782400 1.387800
50.815500 1.249800
50.848600 1.101000
50.881800 1.010600
50.914900 0.931400
50.948100 0.874700
50.981200 0.852900
51.014300 0.844500
51.047500 0.855700
51.080600 0.898000
51.113800 0.964100
51.146900 1.042100
51.180100 1.124500
51.213200 1.207800
51.246300 1.297900
51.279500 1.356900
51.312600 1.464600
51.345800 1.445400
51.378900 1.484100
51.412000 1.528100
51.445200 1.572300
51.478300 1.612300
51.511500 1.647900
51.544600 1.684800
51.577800 1.711400
51.610900 1.729800
51.644000 1.761400
51.677200 1.778400
51.710300 1.825400
51.743500 1.835700
51.776600 1.849700
51.809700 1.907800
51.842900 1.942000
51.876000 2.007200
51.909200 2.103900
51.942300 2.127800
51.975500 2.138300
52.008600 2.167200
52.041700 2.205000
52.074900 2.341100
52.108000 2.382300
52.141200 2.268000
52.174300 2.176200
52.207400 2.112200
52.240600 2.062800
52.273700 2.039000
52.306900 2.028100
52.340000 2.015100
52.373200 2.002400
52.406300 1.983900
52.439400 1.944100
52.472600 1.938600
52.505700 1.951300
52.538900 1.977300
52.572000 2.030500
52.605100 2.088900
52.638300 2.152200
52.671400 2.222700
52.704600 2.140200
52.737700 2.116000
52.770900 2.087300
52.804000 2.080900
52.837100 2.059100
52.870300 2.071200
52.903400 2.082100
52.936600 2.105900
52.969700 2.152600
53.002800 2.173300
53.036000 2.172200
53.069100 2.166500
53.102300 2.144500
53.135400 2.081500
53.168600 2.030300
53.201700 2.022100
53.234800 1.994100
53.268000 1.979100
53.301100 1.972000
53.334300 1.964100
53.367400 1.943300
53.400500 1.920000
53.433700 1.888200
53.466800 1.874100
53.500000 1.877300
53.533100 1.875500
53.566200 1.861700
53.599400 1.853400
53.632500 1.846100
53.665700 1.834000
53.698800 1.818400
53.732000 1.789100
53.765100 1.757400
53.798200 1.727000
53.831400 1.699700
53.864500 1.676500
53.897700 1.654700
53.930800 1.633500
53.963900 1.608300
53.997100 1.546300
54.030200 1.495000
54.063400 1.461600
54.096500 1.453900
54.129700 1.467100
54.162800 1.405900
54.195900 1.354700
54.229100 1.316300
54.262200 1.302400
54.295400 1.291100
54.328500 1.288500
54.361600 1.283500
54.394800 1.274300
54.427900 1.272400
54.461100 1.276600
54.494200 1.285800
54.527400 1.312100
54.560500 1.301500
54.593600 1.291000
54.626800 1.283400
54.659900 1.267500
54.693100 1.258000
54.726200 1.242900
54.759300 1.216300
54.792500 1.188000
54.825600 1.160500
54.858800 1.156200
54.891900 1.151800
54.925100 1.159300
54.958200 1.160800
54.991300 1.164600
55.024500 1.181100
55.057600 1.206200
55.090800 1.190400
55.123900 1.165300
55.157000 1.132300
55.190200 1.081100
55.223300 1.008800
55.256500 0.876400
55.289600 0.764000
55.322800 0.700400
55.355900 0.655900
55.389000 0.611500
55.422200 0.576400
55.455300 0.549200
55.488500 0.528000
55.521600 0.510800
55.554700 0.497900
55.587900 0.489900
55.621000 0.487400
55.654200 0.490500
55.687300 0.499800
55.720500 0.514800
55.753600 0.580200
55.786700 0.566200
55.819900 0.619900
55.853000 0.651200
55.886200 0.652600
55.919300 0.666100
55.952400 0.535500
55.985600 0.503200
56.018700 0.409300
56.051900 0.348100
56.085000 0.289100
56.118200 0.230300
56.151300 0.143600
56.184400 0.089600
56.217600 0.057800
56.250700 0.047400
56.283900 0.040000
56.317000 0.033200
56.350100 0.026500
56.383300 0.020000
56.416400 0.013400
56.449600 0.006700
56.482700 0.001700
56.515900 0.000000
56.549000 0.000000
56.582100 0.000000
56.615300 0.000000
56.648400 0.000000
56.681600 0.000000
56.714700 0.000000
56.747800 0.000000
56.781000 0.000000
56.814100 0.000000
56.847300 0.000000
56.880400 0.000000
56.913600 0.000000
56.946700 0.000000
56.979800 0.000000
57.013000 0.000000
57.046100 0.000000
57.079300 0.000000
57.112400 0.000000
57.145500 0.000000
57.178700 0.000000
57.211800 0.000000
57.245000 0.000000
57.278100 0.000000
57.311300 0.000000
57.344400 0.000000
57.377500 0.000000
57.410700 0.000000
57.443800 0.000000
57.477000 0.000000
57.510100 0.000000
57.543200 0.000000
57.576400 0.000000
57.609500 0.000000
57.642700 0.000000
57.675800 0.000000
57.709000 0.000000
57.742100 0.000000
57.775200 0.000000
57.808400 0.000000
57.841500 0.000000
57.874700 0.000000
57.907800 0.000000
57.940900 0.000000
57.974100 0.000000
58.007200 0.000000
58.040400 0.000000
58.073500 0.000000
58.106600 0.000000
58.139800 0.000000
58.172900 0.000000
58.206100 0.000000
58.239200 0.000000
58.272400 0.000000
58.305500 0.000000
58.338600 0.000000
58.371800 0.000000
58.404900 0.000000
58.438100 0.000000
58.471200 0.000000
58.504300 0.000000
58.537500 0.000000
58.570600 0.000000
58.603800 0.000000
58.636900 0.000000
58.670100 0.000000
58.703200 0.000000
58.736300 0.000000
58.769500 0.000000
58.802600 0.000000
58.835800 0.000000
58.868900 0.000000
58.902000 0.000000
58.935200 0.000000
58.968300 0.000000
59.001500 0.000000
59.034600 0.000000
59.067800 0.000000
59.100900 0.000000
59.134000 0.000000
59.167200 0.000000
59.200300 0.000000
59.233500 0.000000
59.266600 0.000000
59.299700 0.000000
59.332900 0.000000
59.366000 0.000000
59.399200 0.000000
59.432300 0.000000
59.465500 0.000000
59.498600 0.000000
59.531700 0.000000
e
