set title 'mp-30488 - Density of States'
set xlabel 'Energy (eV)'
set ylabel 'DOS (states/eV)'
set grid
set xrange [-10:10]
set yrange [0:75.877]
set xzeroaxis lt -1
set terminal png size 800,600
set output 'mp-30488_dos_gnuplot.png'
plot '-' using 1:2 with lines title 'DOS'
-8.218300 0.000000
-8.203000 0.000000
-8.187600 0.000000
-8.172200 0.000000
-8.156800 0.000000
-8.141400 0.000000
-8.126000 0.000000
-8.110600 0.000000
-8.095300 0.000000
-8.079900 0.000000
-8.064500 0.000000
-8.049100 0.000000
-8.033700 0.000000
-8.018300 0.000000
-8.002900 0.000000
-7.987600 0.000000
-7.972200 0.000000
-7.956800 0.000000
-7.941400 0.000000
-7.926000 0.000000
-7.910600 0.000000
-7.895300 0.000000
-7.879900 0.000000
-7.864500 0.000000
-7.849100 0.000000
-7.833700 0.000000
-7.818300 0.000000
-7.802900 0.000000
-7.787600 0.000000
-7.772200 0.000000
-7.756800 0.000000
-7.741400 0.000000
-7.726000 0.000000
-7.710600 0.000000
-7.695300 0.000000
-7.679900 0.000000
-7.664500 0.000000
-7.649100 0.000000
-7.633700 0.000000
-7.618300 0.000000
-7.602900 0.000000
-7.587600 0.000000
-7.572200 0.000000
-7.556800 0.000000
-7.541400 0.000000
-7.526000 0.000000
-7.510600 0.000000
-7.495300 0.000000
-7.479900 0.000000
-7.464500 0.000000
-7.449100 0.000000
-7.433700 0.000000
-7.418300 0.000000
-7.402900 0.000000
-7.387600 0.000000
-7.372200 0.000000
-7.356800 0.000000
-7.341400 0.000000
-7.326000 0.000000
-7.310600 0.000000
-7.295300 0.000000
-7.279900 0.000000
-7.264500 0.000000
-7.249100 0.000000
-7.233700 0.000000
-7.218300 0.000000
-7.202900 0.000000
-7.187600 0.000000
-7.172200 0.000000
-7.156800 0.000000
-7.141400 0.000000
-7.126000 0.000000
-7.110600 0.000000
-7.095300 0.000000
-7.079900 0.000000
-7.064500 0.000000
-7.049100 0.000000
-7.033700 0.000000
-7.018300 0.000000
-7.002900 0.000000
-6.987600 0.000000
-6.972200 0.000000
-6.956800 0.000000
-6.941400 0.000000
-6.926000 0.000000
-6.910600 0.000000
-6.895300 0.000000
-6.879900 0.000000
-6.864500 0.000000
-6.849100 0.000000
-6.833700 0.000000
-6.818300 0.082500
-6.802900 0.936300
-6.787600 1.429300
-6.772200 2.007300
-6.756800 2.801900
-6.741400 5.416300
-6.726000 7.763700
-6.710600 10.935900
-6.695300 11.560300
-6.679900 12.853200
-6.664500 15.993700
-6.649100 20.404900
-6.633700 21.711200
-6.618300 10.585500
-6.602900 9.243900
-6.587600 24.531900
-6.572200 28.184000
-6.556800 38.441900
-6.541400 51.788100
-6.526000 47.989600
-6.510600 53.540500
-6.495300 68.978900
-6.479900 52.460700
-6.464500 33.222400
-6.449100 23.802600
-6.433700 20.304200
-6.418300 17.611100
-6.402900 13.717700
-6.387600 9.852700
-6.372200 8.076600
-6.356800 6.910600
-6.341400 6.255200
-6.326000 5.645000
-6.310600 5.567600
-6.295300 4.706500
-6.279900 0.000000
-6.264500 0.000000
-6.249100 0.000000
-6.233700 0.000000
-6.218300 0.000000
-6.202900 0.000000
-6.187600 0.000000
-6.172200 0.000000
-6.156800 0.000000
-6.141400 0.090900
-6.126000 0.089700
-6.110600 0.109400
-6.095300 0.133700
-6.079900 0.159600
-6.064500 0.173300
-6.049100 0.183000
-6.033700 0.187500
-6.018300 0.194900
-6.002900 0.203900
-5.987600 0.215500
-5.972200 0.228500
-5.956800 0.242100
-5.941400 0.256200
-5.926000 0.263700
-5.910600 0.272400
-5.895300 0.279100
-5.879900 0.285300
-5.864500 0.292000
-5.849100 0.300800
-5.833700 0.310900
-5.818300 0.322100
-5.802900 0.333900
-5.787600 0.346000
-5.772200 0.358400
-5.756800 0.371100
-5.741400 0.383900
-5.726000 0.397700
-5.710600 0.413400
-5.695300 0.429700
-5.679900 0.447500
-5.664500 0.466700
-5.649100 0.486400
-5.633700 0.507100
-5.618300 0.529000
-5.602900 0.553500
-5.587600 0.600300
-5.572200 0.646300
-5.556800 0.693400
-5.541400 0.743800
-5.526000 0.831300
-5.510600 0.985500
-5.495200 1.380400
-5.479900 1.746000
-5.464500 2.059300
-5.449100 2.295300
-5.433700 2.583400
-5.418300 3.673900
-5.402900 4.712700
-5.387600 5.688500
-5.372200 7.288600
-5.356800 8.130200
-5.341400 8.147100
-5.326000 8.083700
-5.310600 8.633600
-5.295200 9.945300
-5.279900 12.396200
-5.264500 10.955200
-5.249100 6.281000
-5.233700 4.132600
-5.218300 2.821300
-5.202900 2.823200
-5.187600 3.118600
-5.172200 2.459100
-5.156800 2.832700
-5.141400 8.889700
-5.126000 12.309600
-5.110600 13.004400
-5.095200 15.932900
-5.079900 16.052800
-5.064500 13.400800
-5.049100 10.741100
-5.033700 10.772900
-5.018300 14.332700
-5.002900 20.405600
-4.987600 21.192100
-4.972200 22.953800
-4.956800 28.027300
-4.941400 23.734200
-4.926000 21.530900
-4.910600 21.690000
-4.895200 22.417300
-4.879900 21.100200
-4.864500 15.071800
-4.849100 16.612200
-4.833700 18.448500
-4.818300 15.106100
-4.802900 16.476500
-4.787600 17.360900
-4.772200 16.154500
-4.756800 14.806900
-4.741400 13.960300
-4.726000 13.188700
-4.710600 16.080500
-4.695200 14.560700
-4.679900 14.156100
-4.664500 14.231900
-4.649100 12.216000
-4.633700 10.556200
-4.618300 8.326300
-4.602900 10.229900
-4.587600 12.769300
-4.572200 8.910300
-4.556800 8.738500
-4.541400 8.530600
-4.526000 9.577000
-4.510600 10.647700
-4.495200 11.014800
-4.479900 10.370700
-4.464500 9.558400
-4.449100 9.700200
-4.433700 10.613800
-4.418300 13.811000
-4.402900 16.159000
-4.387600 15.518000
-4.372200 16.909200
-4.356800 16.295700
-4.341400 21.675100
-4.326000 30.278500
-4.310600 23.091400
-4.295200 26.919100
-4.279900 25.069500
-4.264500 19.139300
-4.249100 16.415400
-4.233700 14.200600
-4.218300 15.025800
-4.202900 13.027900
-4.187600 11.092300
-4.172200 9.787300
-4.156800 8.659900
-4.141400 7.818300
-4.126000 7.895300
-4.110600 8.735700
-4.095200 10.440900
-4.079900 11.828600
-4.064500 16.535800
-4.049100 12.922400
-4.033700 14.470400
-4.018300 19.183400
-4.002900 29.101300
-3.987600 34.620300
-3.972200 8.750900
-3.956800 6.928900
-3.941400 7.772100
-3.926000 2.613500
-3.910600 1.940600
-3.895200 1.587200
-3.879900 1.384700
-3.864500 1.244500
-3.849100 1.141600
-3.833700 1.068300
-3.818300 1.016500
-3.802900 0.975900
-3.787600 0.941100
-3.772200 0.910600
-3.756800 0.885000
-3.741400 0.863800
-3.726000 0.848300
-3.710600 0.836700
-3.695200 0.827000
-3.679900 0.819000
-3.664500 0.812200
-3.649100 0.806200
-3.633700 0.797800
-3.618300 0.785900
-3.602900 0.772500
-3.587600 0.761500
-3.572200 0.750400
-3.556800 0.740400
-3.541400 0.730900
-3.526000 0.724900
-3.510600 0.722700
-3.495200 0.720300
-3.479900 0.718200
-3.464500 0.717800
-3.449100 0.715200
-3.433700 0.711000
-3.418300 0.705100
-3.402900 0.697600
-3.387600 0.690400
-3.372200 0.686900
-3.356800 0.683900
-3.341400 0.680700
-3.326000 0.679300
-3.310600 0.679000
-3.295200 0.679700
-3.279900 0.681100
-3.264500 0.683000
-3.249100 0.685600
-3.233700 0.688600
-3.218300 0.691800
-3.202900 0.694700
-3.187600 0.697800
-3.172200 0.701200
-3.156800 0.704600
-3.141400 0.707500
-3.126000 0.709800
-3.110600 0.715000
-3.095200 0.720800
-3.079900 0.730400
-3.064500 0.742100
-3.049100 0.752600
-3.033700 0.761400
-3.018300 0.768800
-3.002900 0.774300
-2.987600 0.778200
-2.972200 0.780500
-2.956800 0.785800
-2.941400 0.791400
-2.926000 0.797200
-2.910600 0.801200
-2.895200 0.806100
-2.879900 0.813200
-2.864500 0.823400
-2.849100 0.834500
-2.833700 0.842700
-2.818300 0.848600
-2.802900 0.849900
-2.787500 0.844500
-2.772200 0.838400
-2.756800 0.826700
-2.741400 0.809800
-2.726000 0.793800
-2.710600 0.778900
-2.695200 0.767200
-2.679900 0.845200
-2.664500 0.742200
-2.649100 0.736500
-2.633700 0.731500
-2.618300 0.725800
-2.602900 0.718800
-2.587500 0.710900
-2.572200 0.702300
-2.556800 0.693500
-2.541400 0.685000
-2.526000 0.677000
-2.510600 0.670700
-2.495200 0.666700
-2.479900 0.663400
-2.464500 0.660300
-2.449100 0.657400
-2.433700 0.656300
-2.418300 0.655600
-2.402900 0.654100
-2.387500 0.654600
-2.372200 0.652300
-2.356800 0.658300
-2.341400 0.663900
-2.326000 0.671400
-2.310600 0.678500
-2.295200 0.686100
-2.279900 0.693900
-2.264500 0.701100
-2.249100 0.707700
-2.233700 0.730900
-2.218300 0.814000
-2.202900 0.824800
-2.187500 0.827400
-2.172200 0.833600
-2.156800 0.839800
-2.141400 0.844900
-2.126000 0.844600
-2.110600 0.841500
-2.095200 0.843000
-2.079900 0.847100
-2.064500 0.852700
-2.049100 0.858000
-2.033700 0.861200
-2.018300 0.861900
-2.002900 0.860900
-1.987500 0.854800
-1.972200 0.847800
-1.956800 0.847700
-1.941400 0.848200
-1.926000 0.848700
-1.910600 0.849200
-1.895200 0.850000
-1.879900 0.851300
-1.864500 0.852800
-1.849100 0.855300
-1.833700 0.857200
-1.818300 0.851700
-1.802900 0.846500
-1.787500 0.842600
-1.772200 0.838200
-1.756800 0.833600
-1.741400 0.830300
-1.726000 0.828500
-1.710600 0.827500
-1.695200 0.826700
-1.679900 0.825300
-1.664500 0.824200
-1.649100 0.823600
-1.633700 0.823600
-1.618300 0.824300
-1.602900 0.825700
-1.587500 0.826600
-1.572200 0.827500
-1.556800 0.826700
-1.541400 0.827300
-1.526000 0.827500
-1.510600 0.826100
-1.495200 0.823200
-1.479900 0.819200
-1.464500 0.816700
-1.449100 0.815300
-1.433700 0.814700
-1.418300 0.814100
-1.402900 0.814800
-1.387500 0.816800
-1.372200 0.819400
-1.356800 0.822400
-1.341400 0.825900
-1.326000 0.829300
-1.310600 0.832800
-1.295200 0.836500
-1.279900 0.840600
-1.264500 0.845200
-1.249100 0.851900
-1.233700 0.861200
-1.218300 0.872500
-1.202900 0.881700
-1.187500 0.895200
-1.172200 0.938200
-1.156800 0.944300
-1.141400 0.943400
-1.126000 0.938900
-1.110600 0.934100
-1.095200 0.929400
-1.079900 0.925000
-1.064500 0.918800
-1.049100 0.913100
-1.033700 0.915000
-1.018300 0.908500
-1.002900 0.870200
-0.987500 0.845600
-0.972200 0.828800
-0.956800 0.814400
-0.941400 0.802900
-0.926000 0.792700
-0.910600 0.798900
-0.895200 0.804200
-0.879900 0.808800
-0.864500 0.812100
-0.849100 0.815500
-0.833700 0.819400
-0.818300 0.823800
-0.802900 0.828200
-0.787500 0.833200
-0.772200 0.838900
-0.756800 0.844400
-0.741400 0.849900
-0.726000 0.855900
-0.710600 0.862000
-0.695200 0.868400
-0.679900 0.875000
-0.664500 0.881500
-0.649100 0.888200
-0.633700 0.894100
-0.618300 0.898500
-0.602900 0.904000
-0.587500 0.910500
-0.572200 0.916600
-0.556800 0.922800
-0.541400 0.929200
-0.526000 0.935300
-0.510600 0.941100
-0.495200 0.946400
-0.479900 0.951100
-0.464500 0.978500
-0.449100 0.997800
-0.433700 0.995000
-0.418300 0.989800
-0.402900 0.984600
-0.387500 0.981400
-0.372200 0.980000
-0.356800 0.979600
-0.341400 0.979200
-0.326000 0.978600
-0.310600 0.977800
-0.295200 0.977300
-0.279800 0.977400
-0.264500 0.978200
-0.249100 0.979300
-0.233700 0.980400
-0.218300 0.981700
-0.202900 0.983400
-0.187500 0.987300
-0.172200 0.990800
-0.156800 0.993800
-0.141400 0.996800
-0.126000 1.039400
-0.110600 1.037200
-0.095200 1.014800
-0.079800 1.004300
-0.064500 0.998100
-0.049100 0.995000
-0.033700 0.992000
-0.018300 0.989200
-0.002900 0.987200
0.012500 0.986200
0.027800 0.986300
0.043200 0.994100
0.058600 1.005800
0.074000 1.012800
0.089400 1.014800
0.104800 1.012400
0.120200 1.004100
0.135500 0.992900
0.150900 0.986100
0.166300 0.980900
0.181700 0.976800
0.197100 0.973300
0.212500 0.970400
0.227800 0.969100
0.243200 0.968200
0.258600 0.964600
0.274000 0.960900
0.289400 0.958600
0.304800 0.955900
0.320200 0.968000
0.335500 0.948700
0.350900 0.950700
0.366300 0.952600
0.381700 0.954400
0.397100 0.956300
0.412500 0.956700
0.427800 0.957700
0.443200 0.964700
0.458600 0.975000
0.474000 0.964700
0.489400 0.949600
0.504800 0.942700
0.520200 0.944800
0.535500 0.948200
0.550900 0.948900
0.566300 0.941700
0.581700 0.935400
0.597100 0.929900
0.612500 0.923500
0.627800 0.917800
0.643200 0.915000
0.658600 0.912200
0.674000 0.909100
0.689400 0.906200
0.704800 0.904200
0.720200 0.902900
0.735500 0.902000
0.750900 0.901400
0.766300 0.901200
0.781700 0.901300
0.797100 0.901500
0.812500 0.901600
0.827800 0.901500
0.843200 0.902400
0.858600 0.904200
0.874000 0.906200
0.889400 0.908700
0.904800 0.912300
0.920200 0.916200
0.935500 0.920500
0.950900 0.925100
0.966300 0.929900
0.981700 0.935000
0.997100 0.940300
1.012500 0.945500
1.027800 0.950700
1.043200 0.955600
1.058600 0.959300
1.074000 0.961400
1.089400 0.964000
1.104800 0.966500
1.120200 0.967700
1.135500 0.971600
1.150900 0.978100
1.166300 0.983800
1.181700 0.988000
1.197100 0.991200
1.212500 0.998500
1.227800 1.006200
1.243200 1.014200
1.258600 1.022400
1.274000 1.031500
1.289400 1.040500
1.304800 1.046200
1.320200 1.052000
1.335500 1.055700
1.350900 1.058500
1.366300 1.060500
1.381700 1.061400
1.397100 1.061300
1.412500 1.060700
1.427800 1.059400
1.443200 1.069400
1.458600 1.076900
1.474000 1.074500
1.489400 1.072100
1.504800 1.074600
1.520200 1.080200
1.535500 1.087400
1.550900 1.093900
1.566300 1.086600
1.581700 1.075900
1.597100 1.068800
1.612500 1.061200
1.627800 1.053600
1.643200 1.048600
1.658600 1.044900
1.674000 1.042400
1.689400 1.041800
1.704800 1.041900
1.720200 1.042200
1.735500 1.043000
1.750900 1.044700
1.766300 1.047600
1.781700 1.050900
1.797100 1.053800
1.812500 1.056700
1.827800 1.060300
1.843200 1.067200
1.858600 1.075300
1.874000 1.079400
1.889400 1.074700
1.904800 1.060600
1.920200 1.053500
1.935500 1.045300
1.950900 1.036400
1.966300 1.027800
1.981700 1.018000
1.997100 1.008200
2.012500 1.000100
2.027800 1.003000
2.043200 1.003800
2.058600 1.001900
2.074000 0.995100
2.089400 0.977200
2.104800 0.971300
2.120200 0.966500
2.135500 0.959900
2.150900 0.950400
2.166300 0.940100
2.181700 0.928900
2.197100 0.919200
2.212500 0.910400
2.227800 0.899700
2.243200 0.889400
2.258600 0.881800
2.274000 0.870700
2.289400 0.865800
2.304800 0.870800
2.320200 0.878300
2.335500 0.887600
2.350900 0.899500
2.366300 0.908400
2.381700 0.922900
2.397100 0.929000
2.412500 0.899300
2.427900 0.878200
2.443200 0.873300
2.458600 0.873700
2.474000 0.877600
2.489400 0.883800
2.504800 0.889500
2.520200 0.895800
2.535500 0.902300
2.550900 0.908700
2.566300 0.916900
2.581700 0.927600
2.597100 0.941500
2.612500 0.959800
2.627900 0.981600
2.643200 1.001100
2.658600 1.024000
2.674000 1.049900
2.689400 1.066300
2.704800 1.078800
2.720200 1.087600
2.735500 1.094200
2.750900 1.096200
2.766300 1.096600
2.781700 1.095400
2.797100 1.095600
2.812500 1.097800
2.827900 1.103000
2.843200 1.108900
2.858600 1.115500
2.874000 1.126100
2.889400 1.146000
2.904800 1.178400
2.920200 1.185200
2.935500 1.142300
2.950900 1.134100
2.966300 1.126300
2.981700 1.123400
2.997100 1.120800
3.012500 1.128300
3.027900 1.145100
3.043200 1.152500
3.058600 1.161200
3.074000 1.149900
3.089400 1.147500
3.104800 1.145500
3.120200 1.146000
3.135500 1.149000
3.150900 1.154000
3.166300 1.160200
3.181700 1.165800
3.197100 1.171200
3.212500 1.174700
3.227900 1.176000
3.243200 1.183700
3.258600 1.181300
3.274000 1.171800
3.289400 1.167600
3.304800 1.166300
3.320200 1.162600
3.335500 1.158800
3.350900 1.164400
3.366300 1.179700
3.381700 1.203000
3.397100 1.304700
3.412500 1.274200
3.427900 1.234300
3.443200 1.206800
3.458600 1.181900
3.474000 1.159900
3.489400 1.140700
3.504800 1.129500
3.520200 1.126800
3.535500 1.131000
3.550900 1.142800
3.566300 1.157100
3.581700 1.175400
3.597100 1.193900
3.612500 1.210900
3.627900 1.222200
3.643200 1.229000
3.658600 1.254300
3.674000 1.266700
3.689400 1.242600
3.704800 1.234500
3.720200 1.269100
3.735500 1.298200
3.750900 1.317400
3.766300 1.317500
3.781700 1.310100
3.797100 1.304700
3.812500 1.298700
3.827900 1.296400
3.843200 1.297200
3.858600 1.304900
3.874000 1.316000
3.889400 1.311900
3.904800 1.315400
3.920200 1.316200
3.935500 1.314500
3.950900 1.310400
3.966300 1.302600
3.981700 1.297300
3.997100 1.293000
4.012500 1.289000
4.027900 1.283800
4.043200 1.280700
4.058600 1.278400
4.074000 1.276300
4.089400 1.274500
4.104800 1.273000
4.120200 1.271300
4.135500 1.269000
4.150900 1.267900
4.166300 1.267900
4.181700 1.270100
4.197100 1.274700
4.212500 1.281300
4.227900 1.289800
4.243200 1.303600
4.258600 1.322700
4.274000 1.357700
4.289400 1.353100
4.304800 1.350700
4.320200 1.355800
4.335500 1.363300
4.350900 1.371800
4.366300 1.410300
4.381700 1.415400
4.397100 1.418400
4.412500 1.422600
4.427900 1.429000
4.443200 1.436300
4.458600 1.442800
4.474000 1.443900
4.489400 1.438300
4.504800 1.430500
4.520200 1.423700
4.535500 1.415500
4.550900 1.406900
4.566300 1.394200
4.581700 1.378400
4.597100 1.362000
4.612500 1.344900
4.627900 1.373200
4.643200 1.333300
4.658600 1.317500
4.674000 1.303600
4.689400 1.290300
4.704800 1.282200
4.720200 1.273300
4.735500 1.261700
4.750900 1.250200
4.766300 1.245500
4.781700 1.241900
4.797100 1.239100
4.812500 1.236500
4.827900 1.233600
4.843200 1.230400
4.858600 1.227200
4.874000 1.224600
4.889400 1.222100
4.904800 1.219000
4.920200 1.216700
4.935600 1.216100
4.950900 1.214800
4.966300 1.215100
4.981700 1.220300
4.997100 1.220400
5.012500 1.221100
5.027900 1.222500
5.043200 1.226100
5.058600 1.229400
5.074000 1.231200
5.089400 1.232500
5.104800 1.230700
5.120200 1.227200
5.135600 1.222100
5.150900 1.219100
5.166300 1.218800
5.181700 1.220200
5.197100 1.222100
5.212500 1.224200
5.227900 1.226800
5.243200 1.229700
5.258600 1.234300
5.274000 1.251800
5.289400 1.245900
5.304800 1.253600
5.320200 1.263300
5.335600 1.274600
5.350900 1.285300
5.366300 1.295300
5.381700 1.305400
5.397100 1.315100
5.412500 1.324800
5.427900 1.334300
5.443200 1.343800
5.458600 1.341000
5.474000 1.345100
5.489400 1.351900
5.504800 1.360500
5.520200 1.366300
5.535600 1.363200
5.550900 1.357100
5.566300 1.349900
5.581700 1.333600
5.597100 1.316400
5.612500 1.308200
5.627900 1.303300
5.643200 1.296400
5.658600 1.293100
5.674000 1.291800
5.689400 1.289300
5.704800 1.284600
5.720200 1.280000
5.735600 1.277000
5.750900 1.277800
5.766300 1.282900
5.781700 1.287600
5.797100 1.291500
5.812500 1.295800
5.827900 1.300800
5.843200 1.306400
5.858600 1.311800
5.874000 1.319100
5.889400 1.326600
5.904800 1.334700
5.920200 1.342500
5.935600 1.352100
5.950900 1.360400
5.966300 1.366700
5.981700 1.370700
5.997100 1.373700
6.012500 1.373700
6.027900 1.370700
6.043200 1.366800
6.058600 1.365600
6.074000 1.366000
6.089400 1.364200
6.104800 1.359700
6.120200 1.354500
6.135600 1.349300
6.150900 1.344800
6.166300 1.341500
6.181700 1.339300
6.197100 1.338100
6.212500 1.337600
6.227900 1.338200
6.243200 1.340400
6.258600 1.343600
6.274000 1.348100
6.289400 1.352300
6.304800 1.351100
6.320200 1.348500
6.335600 1.377200
6.350900 1.342700
6.366300 1.342800
6.381700 1.349700
6.397100 1.354100
6.412500 1.356100
6.427900 1.356300
6.443200 1.356500
6.458600 1.356900
6.474000 1.354600
6.489400 1.349900
6.504800 1.341000
6.520200 1.327800
6.535600 1.317800
6.550900 1.316400
6.566300 1.316300
6.581700 1.317600
6.597100 1.324000
6.612500 1.336000
6.627900 1.349500
6.643200 1.351400
6.658600 1.354000
6.674000 1.358800
6.689400 1.368100
6.704800 1.378900
6.720200 1.386500
6.735600 1.392400
6.750900 1.394800
6.766300 1.394300
6.781700 1.392800
6.797100 1.389300
6.812500 1.386600
6.827900 1.384800
6.843200 1.383200
6.858600 1.382300
6.874000 1.381100
6.889400 1.379800
6.904800 1.378400
6.920200 1.376900
6.935600 1.376200
6.950900 1.375800
6.966300 1.376100
6.981700 1.376900
6.997100 1.385700
7.012500 1.394200
7.027900 1.399400
7.043200 1.405300
7.058600 1.410800
7.074000 1.412600
7.089400 1.414300
7.104800 1.415100
7.120200 1.416400
7.135600 1.415200
7.150900 1.413000
7.166300 1.410300
7.181700 1.407100
7.197100 1.404300
7.212500 1.402200
7.227900 1.403500
7.243200 1.409800
7.258600 1.420900
7.274000 1.437800
7.289400 1.443700
7.304800 1.435800
7.320200 1.436700
7.335600 1.440500
7.350900 1.444600
7.366300 1.446900
7.381700 1.448800
7.397100 1.453200
7.412500 1.459000
7.427900 1.463700
7.443200 1.467100
7.458600 1.469600
7.474000 1.472300
7.489400 1.475700
7.504800 1.480300
7.520200 1.487900
7.535600 1.503600
7.550900 1.512000
7.566300 1.504900
7.581700 1.498300
7.597100 1.493300
7.612500 1.489600
7.627900 1.487300
7.643300 1.505500
7.658600 1.476200
7.674000 1.473700
7.689400 1.473300
7.704800 1.475100
7.720200 1.479000
7.735600 1.483600
7.750900 1.486900
7.766300 1.489800
7.781700 1.490200
7.797100 1.489200
7.812500 1.487400
7.827900 1.489800
7.843300 1.482700
7.858600 1.456100
7.874000 1.432100
7.889400 1.410600
7.904800 1.394800
7.920200 1.381200
7.935600 1.371800
7.950900 1.370600
7.966300 1.374100
7.981700 1.380300
7.997100 1.387500
8.012500 1.394800
8.027900 1.401900
8.043300 1.409400
8.058600 1.418600
8.074000 1.435300
8.089400 1.476100
8.104800 1.497400
8.120200 1.514700
8.135600 1.532100
8.150900 1.544600
8.166300 1.556000
8.181700 1.567200
8.197100 1.580000
8.212500 1.598500
8.227900 1.625700
8.243300 1.661200
8.258600 1.672000
8.274000 1.662700
8.289400 1.635600
8.304800 1.625500
8.320200 1.649600
8.335600 1.651500
8.350900 1.581600
8.366300 1.577000
8.381700 1.574900
8.397100 1.574900
8.412500 1.578400
8.427900 1.585900
8.443300 1.594200
8.458600 1.600100
8.474000 1.587500
8.489400 1.596400
8.504800 1.615000
8.520200 1.637300
8.535600 1.655700
8.550900 1.658900
8.566300 1.650200
8.581700 1.644200
8.597100 1.644700
8.612500 1.643700
8.627900 1.640800
8.643300 1.636700
8.658600 1.631800
8.674000 1.628400
8.689400 1.625500
8.704800 1.621000
8.720200 1.613200
8.735600 1.604300
8.750900 1.598800
8.766300 1.594200
8.781700 1.589800
8.797100 1.594300
8.812500 1.578200
8.827900 1.551700
8.843300 1.528300
8.858600 1.513900
8.874000 1.507600
8.889400 1.502100
8.904800 1.498900
8.920200 1.502400
8.935600 1.507100
8.950900 1.506100
8.966300 1.521900
8.981700 1.539800
8.997100 1.508800
9.012500 1.462900
9.027900 1.455200
9.043300 1.458300
9.058600 1.465100
9.074000 1.476600
9.089400 1.490300
9.104800 1.506600
9.120200 1.522700
9.135600 1.526600
9.150900 1.523400
9.166300 1.525000
9.181700 1.527300
9.197100 1.526000
9.212500 1.524100
9.227900 1.523100
9.243300 1.526000
9.258600 1.534200
9.274000 1.657300
9.289400 1.594100
9.304800 1.575500
9.320200 1.576900
9.335600 1.594100
9.350900 1.614000
9.366300 1.647100
9.381700 1.661500
9.397100 1.663400
9.412500 1.676300
9.427900 1.686700
9.443300 1.700300
9.458600 1.714100
9.474000 1.725300
9.489400 1.729600
9.504800 1.737800
9.520200 1.749700
9.535600 1.758300
9.550900 1.761500
9.566300 1.763900
9.581700 1.780100
9.597100 1.764500
9.612500 1.765000
9.627900 1.764200
9.643300 1.765000
9.658600 1.770600
9.674000 1.754800
9.689400 1.733600
9.704800 1.711100
9.720200 1.704100
9.735600 1.715000
9.750900 1.713600
9.766300 1.720200
9.781700 1.743300
9.797100 1.769400
9.812500 1.781700
9.827900 1.789200
9.843300 1.822600
9.858600 1.857600
9.874000 1.893900
9.889400 1.932600
9.904800 1.978100
9.920200 2.024000
9.935600 2.076300
9.950900 2.119200
9.966300 2.142100
9.981700 2.179800
9.997100 2.219300
10.012500 2.252100
10.027900 2.295200
10.043300 2.341100
10.058600 2.375400
10.074000 2.335900
10.089400 2.325200
10.104800 2.288500
10.120200 2.285700
10.135600 2.291100
10.151000 2.300700
10.166300 2.321200
10.181700 2.337400
10.197100 2.340900
10.212500 2.335600
10.227900 2.316700
10.243300 2.300600
10.258600 2.290000
10.274000 2.279200
10.289400 2.272300
10.304800 2.266000
10.320200 2.260000
10.335600 2.253200
10.351000 2.233600
10.366300 2.232100
10.381700 2.217100
10.397100 2.218000
10.412500 2.220300
10.427900 2.225300
10.443300 2.245600
10.458600 2.268400
10.474000 2.301800
10.489400 2.328100
10.504800 2.316100
10.520200 2.314100
10.535600 2.316900
10.551000 2.322000
10.566300 2.319800
10.581700 2.325100
10.597100 2.330400
10.612500 2.329600
10.627900 2.329100
10.643300 2.338000
10.658600 2.348000
10.674000 2.348500
10.689400 2.384500
10.704800 2.341800
10.720200 2.325600
10.735600 2.302500
10.751000 2.272600
10.766300 2.245700
10.781700 2.229000
10.797100 2.217100
10.812500 2.209100
10.827900 2.198400
10.843300 2.184800
10.858600 2.181000
10.874000 2.194100
10.889400 2.204700
10.904800 2.199100
10.920200 2.190900
10.935600 2.182400
10.951000 2.168800
10.966300 2.158100
10.981700 2.152000
10.997100 2.147700
11.012500 2.144800
11.027900 2.141200
11.043300 2.141100
11.058600 2.143400
11.074000 2.113700
11.089400 2.105000
11.104800 2.090700
11.120200 2.084200
11.135600 2.077900
11.151000 2.069300
11.166300 2.107200
11.181700 2.066900
11.197100 2.049400
11.212500 2.029300
11.227900 1.996700
11.243300 1.975700
11.258600 1.958900
11.274000 1.947000
11.289400 1.936600
11.304800 1.906100
11.320200 1.906200
11.335600 1.888000
11.351000 1.848900
11.366300 1.819500
11.381700 1.811800
11.397100 1.799400
11.412500 1.797600
11.427900 1.789100
11.443300 1.784500
11.458600 1.785600
11.474000 1.796700
11.489400 1.820100
11.504800 1.836500
11.520200 1.858800
11.535600 1.880600
11.551000 1.889900
11.566300 1.888600
11.581700 1.885500
11.597100 1.873300
11.612500 1.849000
11.627900 1.815100
11.643300 1.773500
11.658600 1.733000
11.674000 1.710200
11.689400 1.697300
11.704800 1.689000
11.720200 1.683700
11.735600 1.680700
11.751000 1.680000
11.766300 1.680000
11.781700 1.679800
11.797100 1.677700
11.812500 1.674200
11.827900 1.687100
11.843300 1.695000
11.858600 1.692700
11.874000 1.692100
11.889400 1.685100
11.904800 1.672700
11.920200 1.664600
11.935600 1.670800
11.951000 1.684200
11.966300 1.698100
11.981700 1.717100
11.997100 1.744800
12.012500 1.778800
12.027900 1.782500
12.043300 1.762800
12.058600 1.745400
12.074000 1.743200
12.089400 1.738400
12.104800 1.740200
12.120200 1.736200
12.135600 1.722600
12.151000 1.708400
12.166300 1.700900
12.181700 1.701800
12.197100 1.727900
12.212500 1.701200
12.227900 1.678400
12.243300 1.719600
12.258600 1.629900
12.274000 1.605500
12.289400 1.591900
12.304800 1.584100
12.320200 1.578200
12.335600 1.571800
12.351000 1.566800
12.366300 1.562600
12.381700 1.569700
12.397100 1.583700
12.412500 1.597300
12.427900 1.611500
12.443300 1.626400
12.458600 1.643900
12.474000 1.667200
12.489400 1.671100
12.504800 1.674100
12.520200 1.680400
12.535600 1.685900
12.551000 1.687100
12.566300 1.687200
12.581700 1.687000
12.597100 1.685100
12.612500 1.676900
12.627900 1.694000
12.643300 1.658300
12.658600 1.637300
12.674000 1.619100
12.689400 1.610300
12.704800 1.606000
12.720200 1.606600
12.735600 1.607400
12.751000 1.608500
12.766300 1.608000
12.781700 1.605600
12.797100 1.603000
12.812500 1.599000
12.827900 1.595100
12.843300 1.589200
12.858700 1.582800
12.874000 1.576900
12.889400 1.571500
12.904800 1.587300
12.920200 1.564900
12.935600 1.545900
12.951000 1.533000
12.966300 1.523100
12.981700 1.516400
12.997100 1.512700
13.012500 1.511000
13.027900 1.513700
13.043300 1.519700
13.058700 1.510700
13.074000 1.499600
13.089400 1.493900
13.104800 1.485900
13.120200 1.476300
13.135600 1.470000
13.151000 1.465600
13.166300 1.461600
13.181700 1.458000
13.197100 1.454600
13.212500 1.451700
13.227900 1.448700
13.243300 1.446500
13.258700 1.445700
13.274000 1.445300
13.289400 1.444500
13.304800 1.444300
13.320200 1.444100
13.335600 1.444200
13.351000 1.444500
13.366300 1.442400
13.381700 1.437800
13.397100 1.433300
13.412500 1.430400
13.427900 1.431700
13.443300 1.434200
13.458700 1.438100
13.474000 1.442900
13.489400 1.449000
13.504800 1.458100
13.520200 1.479400
13.535600 1.473900
13.551000 1.446000
13.566300 1.426400
13.581700 1.402000
13.597100 1.390800
13.612500 1.383400
13.627900 1.373300
13.643300 1.365400
13.658700 1.355400
13.674000 1.344700
13.689400 1.334200
13.704800 1.326400
13.720200 1.309700
13.735600 1.288300
13.751000 1.266400
13.766300 1.244300
13.781700 1.222100
13.797100 1.202800
13.812500 1.187400
13.827900 1.168000
13.843300 1.147200
13.858700 1.140500
13.874000 1.135100
13.889400 1.130200
13.904800 1.126200
13.920200 1.122600
13.935600 1.113500
13.951000 1.106500
13.966300 1.100200
13.981700 1.094900
13.997100 1.090800
14.012500 1.086200
14.027900 1.083000
14.043300 1.081900
14.058700 1.079800
14.074000 1.077900
14.089400 1.078300
14.104800 1.080800
14.120200 1.084300
14.135600 1.088300
14.151000 1.092600
14.166300 1.097100
14.181700 1.102700
14.197100 1.109100
14.212500 1.116300
14.227900 1.116300
14.243300 1.111400
14.258700 1.101900
14.274000 1.100500
14.289400 1.088200
14.304800 1.090300
14.320200 1.093300
14.335600 1.096900
14.351000 1.102500
14.366300 1.109400
14.381700 1.116700
14.397100 1.124300
14.412500 1.132200
14.427900 1.150800
14.443300 1.193200
14.458700 1.243600
14.474000 1.312900
14.489400 1.308400
14.504800 1.302000
14.520200 1.303700
14.535600 1.306700
14.551000 1.310200
14.566300 1.314500
14.581700 1.317700
14.597100 1.320900
14.612500 1.324800
14.627900 1.329300
14.643300 1.334700
14.658700 1.341300
14.674000 1.352100
14.689400 1.398700
14.704800 1.468200
14.720200 1.553100
14.735600 1.596700
14.751000 1.633800
14.766300 1.673600
14.781700 1.699700
14.797100 1.715800
14.812500 1.757200
14.827900 1.789600
14.843300 1.839600
14.858700 1.884200
14.874000 1.911300
14.889400 1.926800
14.904800 1.922100
14.920200 1.893600
14.935600 1.844500
14.951000 1.828100
14.966300 1.832900
14.981700 1.842900
14.997100 1.809800
15.012500 1.789100
15.027900 1.765000
15.043300 1.753400
15.058700 1.754700
15.074000 1.757200
15.089400 1.759000
15.104800 1.764000
15.120200 1.777000
15.135600 1.797600
15.151000 1.816600
15.166300 1.824300
15.181700 1.824400
15.197100 1.829100
15.212500 1.832500
15.227900 1.841500
15.243300 1.851500
15.258700 1.856000
15.274000 1.861800
15.289400 1.863500
15.304800 1.858900
15.320200 1.849800
15.335600 1.876100
15.351000 1.891800
15.366300 1.944700
15.381700 1.991300
15.397100 2.012600
15.412500 2.097100
15.427900 2.125900
15.443300 2.131900
15.458700 2.091400
15.474000 2.082200
15.489400 2.078800
15.504800 2.082800
15.520200 2.111500
15.535600 2.141200
15.551000 2.172900
15.566400 2.187100
15.581700 2.225800
15.597100 2.290300
15.612500 2.317400
15.627900 2.369200
15.643300 2.417600
15.658700 2.447800
15.674000 2.471300
15.689400 2.520400
15.704800 2.511600
15.720200 2.449700
15.735600 2.435200
15.751000 2.427700
15.766400 2.429000
15.781700 2.440500
15.797100 2.461600
15.812500 2.471400
15.827900 2.485100
15.843300 2.494600
15.858700 2.507200
15.874000 2.515400
15.889400 2.530800
15.904800 2.547500
15.920200 2.553900
15.935600 2.556800
15.951000 2.528900
15.966400 2.493600
15.981700 2.464500
15.997100 2.443800
16.012500 2.426000
16.027900 2.404200
16.043300 2.415500
16.058700 2.440100
16.074000 2.453500
16.089400 2.462100
16.104800 2.474400
16.120200 2.491500
16.135600 2.507900
16.151000 2.517200
16.166400 2.525000
16.181700 2.540700
16.197100 2.544900
16.212500 2.543900
16.227900 2.535400
16.243300 2.523500
16.258700 2.511900
16.274000 2.499800
16.289400 2.530800
16.304800 2.501600
16.320200 2.478000
16.335600 2.465100
16.351000 2.465700
16.366400 2.470700
16.381700 2.459600
16.397100 2.451100
16.412500 2.459300
16.427900 2.488900
16.443300 2.513400
16.458700 2.516500
16.474000 2.531700
16.489400 2.573300
16.504800 2.563600
16.520200 2.596300
16.535600 2.614700
16.551000 2.624300
16.566400 2.634500
16.581700 2.643000
16.597100 2.661500
16.612500 2.672300
16.627900 2.663400
16.643300 2.627900
16.658700 2.600600
16.674000 2.596700
16.689400 2.592900
16.704800 2.586300
16.720200 2.597400
16.735600 2.555500
16.751000 2.557800
16.766400 2.519200
16.781700 2.497600
16.797100 2.495300
16.812500 2.506500
16.827900 2.530100
16.843300 2.557600
16.858700 2.620000
16.874000 2.675800
16.889400 2.707200
16.904800 2.736500
16.920200 2.720300
16.935600 2.714400
16.951000 2.718200
16.966400 2.720400
16.981700 2.714100
16.997100 2.709600
17.012500 2.697500
17.027900 2.671700
17.043300 2.654400
17.058700 2.648500
17.074000 2.641700
17.089400 2.631700
17.104800 2.614400
17.120200 2.617300
17.135600 2.640900
17.151000 2.589600
17.166400 2.568600
17.181700 2.544400
17.197100 2.530700
17.212500 2.524600
17.227900 2.512900
17.243300 2.496700
17.258700 2.476600
17.274000 2.452700
17.289400 2.428200
17.304800 2.400900
17.320200 2.379300
17.335600 2.372900
17.351000 2.378200
17.366400 2.355600
17.381700 2.346200
17.397100 2.334700
17.412500 2.332600
17.427900 2.336400
17.443300 2.337000
17.458700 2.340300
17.474000 2.347600
17.489400 2.359300
17.504800 2.347400
17.520200 2.345100
17.535600 2.347200
17.551000 2.345100
17.566400 2.337800
17.581700 2.322900
17.597100 2.299300
17.612500 2.275000
17.627900 2.252400
17.643300 2.251300
17.658700 2.231300
17.674000 2.210800
17.689400 2.167700
17.704800 2.166300
17.720200 2.173100
17.735600 2.185500
17.751000 2.208100
17.766400 2.230900
17.781700 2.265200
17.797100 2.341500
17.812500 2.257900
17.827900 2.261700
17.843300 2.284300
17.858700 2.284700
17.874000 2.280800
17.889400 2.291700
17.904800 2.301600
17.920200 2.314800
17.935600 2.329500
17.951000 2.341800
17.966400 2.353300
17.981700 2.363100
17.997100 2.371900
18.012500 2.377200
18.027900 2.375800
18.043300 2.362100
18.058700 2.356300
18.074100 2.359400
18.089400 2.348100
18.104800 2.317200
18.120200 2.289500
18.135600 2.264000
18.151000 2.242800
18.166400 2.215400
18.181700 2.191600
18.197100 2.135100
18.212500 2.045200
18.227900 1.991200
18.243300 1.946900
18.258700 1.899100
18.274100 1.849700
18.289400 1.803800
18.304800 1.750400
18.320200 1.687900
18.335600 1.622500
18.351000 1.568700
18.366400 1.507200
18.381700 1.463000
18.397100 1.420100
18.412500 1.378600
18.427900 1.341200
18.443300 1.307700
18.458700 1.277100
18.474100 1.248500
18.489400 1.222600
18.504800 1.199100
18.520200 1.177900
18.535600 1.158900
18.551000 1.141500
18.566400 1.125300
18.581700 1.107900
18.597100 1.089600
18.612500 1.069000
18.627900 1.039900
18.643300 1.015800
18.658700 0.994900
18.674100 0.974300
18.689400 0.954900
18.704800 0.938000
18.720200 0.923300
18.735600 0.909100
18.751000 0.895000
18.766400 0.877800
18.781700 0.857700
18.797100 0.839400
18.812500 0.820800
18.827900 0.802600
18.843300 0.786500
18.858700 0.773500
18.874100 0.760700
18.889400 0.739800
18.904800 0.720200
18.920200 0.704800
18.935600 0.690400
18.951000 0.675900
18.966400 0.661900
18.981700 0.648100
18.997100 0.633400
19.012500 0.617900
19.027900 0.600600
19.043300 0.582600
19.058700 0.565100
19.074100 0.548700
19.089400 0.542400
19.104800 0.519100
19.120200 0.496000
19.135600 0.478300
19.151000 0.464300
19.166400 0.452300
19.181700 0.442100
19.197100 0.433600
19.212500 0.426400
19.227900 0.419600
19.243300 0.412700
19.258700 0.405400
19.274100 0.397800
19.289400 0.389700
19.304800 0.380600
19.320200 0.371400
19.335600 0.361900
19.351000 0.354200
19.366400 0.346300
19.381700 0.338000
19.397100 0.329800
19.412500 0.321500
19.427900 0.312900
19.443300 0.303700
19.458700 0.294000
19.474100 0.284200
19.489400 0.274600
19.504800 0.265500
19.520200 0.260500
19.535600 0.256400
19.551000 0.252100
19.566400 0.247900
19.581700 0.243800
19.597100 0.239900
19.612500 0.236100
19.627900 0.232300
19.643300 0.228800
19.658700 0.225900
19.674100 0.223200
19.689400 0.220700
19.704800 0.218700
19.720200 0.217000
19.735600 0.215700
19.751000 0.215100
19.766400 0.214800
19.781700 0.214800
19.797100 0.214500
19.812500 0.213600
19.827900 0.212200
19.843300 0.210200
19.858700 0.207800
19.874100 0.205000
19.889400 0.202000
19.904800 0.203000
19.920200 0.206900
19.935600 0.206600
19.951000 0.201700
19.966400 0.192400
19.981700 0.179600
19.997100 0.167300
20.012500 0.154500
20.027900 0.146400
20.043300 0.141000
20.058700 0.135200
20.074100 0.128600
20.089400 0.121200
20.104800 0.113100
20.120200 0.104800
20.135600 0.101800
20.151000 0.090300
20.166400 0.076400
20.181700 0.072900
20.197100 0.069900
20.212500 0.067300
20.227900 0.065500
20.243300 0.064600
20.258700 0.063800
20.274100 0.063100
20.289400 0.062200
20.304800 0.061200
20.320200 0.060000
20.335600 0.058400
20.351000 0.056400
20.366400 0.054100
20.381700 0.051400
20.397100 0.048500
20.412500 0.046300
20.427900 0.044900
20.443300 0.043900
20.458700 0.043100
20.474100 0.042300
20.489400 0.041500
20.504800 0.040700
20.520200 0.040000
20.535600 0.039200
20.551000 0.038500
20.566400 0.037700
20.581700 0.037000
20.597100 0.036300
20.612500 0.035500
20.627900 0.034800
20.643300 0.034200
20.658700 0.033500
20.674100 0.032900
20.689400 0.032200
20.704800 0.031600
20.720200 0.031000
20.735600 0.030500
20.751000 0.029900
20.766400 0.029400
20.781800 0.028800
20.797100 0.028200
20.812500 0.027600
20.827900 0.027000
20.843300 0.026300
20.858700 0.025700
20.874100 0.025000
20.889400 0.024200
20.904800 0.023500
20.920200 0.022700
20.935600 0.021900
20.951000 0.021100
20.966400 0.020200
20.981800 0.019400
20.997100 0.018500
21.012500 0.017600
21.027900 0.016800
21.043300 0.016000
21.058700 0.015200
21.074100 0.015200
21.089400 0.020600
21.104800 0.031600
21.120200 0.035900
21.135600 0.027900
21.151000 0.000200
21.166400 0.000000
21.181800 0.000000
21.197100 0.000000
21.212500 0.000000
21.227900 0.000000
21.243300 0.000000
21.258700 0.000000
21.274100 0.000000
21.289400 0.000000
21.304800 0.000000
21.320200 0.000000
21.335600 0.000000
21.351000 0.000000
21.366400 0.000000
21.381800 0.000000
21.397100 0.000000
21.412500 0.000000
21.427900 0.000000
21.443300 0.000000
21.458700 0.000000
21.474100 0.000000
21.489400 0.000000
21.504800 0.000000
21.520200 0.000000
21.535600 0.000000
21.551000 0.000000
21.566400 0.000000
21.581800 0.000000
21.597100 0.000000
21.612500 0.000000
21.627900 0.000000
21.643300 0.000000
21.658700 0.000000
21.674100 0.000000
21.689400 0.000000
21.704800 0.000000
21.720200 0.000000
21.735600 0.000000
21.751000 0.000000
21.766400 0.000000
21.781800 0.000000
21.797100 0.000000
21.812500 0.000000
21.827900 0.000000
21.843300 0.000000
21.858700 0.000000
21.874100 0.000000
21.889400 0.000000
21.904800 0.000000
21.920200 0.000000
21.935600 0.000000
21.951000 0.000000
21.966400 0.000000
21.981800 0.000000
21.997100 0.000000
22.012500 0.000000
22.027900 0.000000
22.043300 0.000000
22.058700 0.000000
22.074100 0.000000
22.089400 0.000000
22.104800 0.000000
22.120200 0.000000
22.135600 0.000000
22.151000 0.000000
22.166400 0.000000
22.181800 0.000000
22.197100 0.000000
22.212500 0.000000
22.227900 0.000000
22.243300 0.000000
22.258700 0.000000
22.274100 0.000000
22.289400 0.000000
22.304800 0.000000
22.320200 0.000000
22.335600 0.000000
22.351000 0.000000
22.366400 0.000000
22.381800 0.000000
22.397100 0.000000
22.412500 0.000000
22.427900 0.000000
22.443300 0.000000
22.458700 0.000000
22.474100 0.000000
22.489400 0.000000
22.504800 0.000000
22.520200 0.000000
22.535600 0.000000
22.551000 0.000000
e
