set title 'mp-22375 - Density of States'
set xlabel 'Energy (eV)'
set ylabel 'DOS (states/eV)'
set grid
set xrange [-10:10]
set yrange [0:459.828]
set xzeroaxis lt -1
set terminal png size 800,600
set output 'mp-22375_dos_gnuplot.png'
plot '-' using 1:2 with lines title 'DOS'
-10.777300 0.000000
-10.764300 0.000000
-10.751400 0.000000
-10.738400 0.000000
-10.725500 0.000000
-10.712500 0.000000
-10.699600 0.000000
-10.686600 0.000000
-10.673700 0.000000
-10.660800 0.000000
-10.647800 0.000000
-10.634900 0.000000
-10.621900 0.000000
-10.609000 0.000000
-10.596000 0.000000
-10.583100 0.000000
-10.570100 0.000000
-10.557200 0.000000
-10.544200 0.000000
-10.531300 0.000000
-10.518400 0.000000
-10.505400 0.000000
-10.492500 0.000000
-10.479500 0.000000
-10.466600 0.000000
-10.453600 0.000000
-10.440700 0.000000
-10.427700 0.000000
-10.414800 0.000000
-10.401800 0.000000
-10.388900 0.000000
-10.375900 0.000000
-10.363000 0.000000
-10.350100 0.000000
-10.337100 0.000000
-10.324200 0.000000
-10.311200 0.000000
-10.298300 0.000000
-10.285300 0.000000
-10.272400 0.000000
-10.259400 0.000000
-10.246500 0.000000
-10.233500 0.000000
-10.220600 0.000000
-10.207600 0.000000
-10.194700 0.000000
-10.181800 0.000000
-10.168800 0.000000
-10.155900 0.000000
-10.142900 0.000000
-10.130000 0.000000
-10.117000 0.000000
-10.104100 0.000000
-10.091100 0.000000
-10.078200 0.000000
-10.065200 0.000000
-10.052300 0.000000
-10.039300 0.000000
-10.026400 0.000000
-10.013500 0.000000
-10.000500 0.000000
-9.987600 0.000000
-9.974600 0.000000
-9.961700 0.000000
-9.948700 0.000000
-9.935800 0.000000
-9.922800 0.000000
-9.909900 0.000000
-9.896900 0.000000
-9.884000 0.000000
-9.871100 0.000000
-9.858100 0.000000
-9.845200 0.000000
-9.832200 0.000000
-9.819300 0.000000
-9.806300 0.000000
-9.793400 0.000000
-9.780400 0.000000
-9.767500 0.000000
-9.754500 0.000000
-9.741600 0.000000
-9.728600 0.000000
-9.715700 0.000000
-9.702800 0.000000
-9.689800 0.000000
-9.676900 0.000000
-9.663900 0.000000
-9.651000 0.000000
-9.638000 0.000000
-9.625100 0.000000
-9.612100 0.000000
-9.599200 0.058500
-9.586200 9.341100
-9.573300 15.507500
-9.560300 23.326300
-9.547400 44.032800
-9.534500 32.311600
-9.521500 28.945000
-9.508600 31.420800
-9.495600 38.135700
-9.482700 35.732600
-9.469700 35.923800
-9.456800 11.716000
-9.443800 14.705900
-9.430900 39.953700
-9.417900 36.696300
-9.405000 28.533100
-9.392000 24.961300
-9.379100 20.407400
-9.366200 20.258900
-9.353200 27.896100
-9.340300 31.387800
-9.327300 41.441900
-9.314400 17.193400
-9.301400 11.775900
-9.288500 22.749300
-9.275500 45.291700
-9.262600 36.836700
-9.249600 28.095600
-9.236700 35.417100
-9.223800 32.697800
-9.210800 123.901400
-9.197900 39.753200
-9.184900 134.985600
-9.172000 44.321100
-9.159000 13.537300
-9.146100 418.025800
-9.133100 0.000000
-9.120200 0.000000
-9.107200 243.633500
-9.094300 290.075400
-9.081300 221.755100
-9.068400 118.322400
-9.055500 402.054000
-9.042500 0.000000
-9.029600 0.000000
-9.016600 0.000000
-9.003700 0.000000
-8.990700 0.000000
-8.977800 0.000000
-8.964800 0.000000
-8.951900 0.000000
-8.938900 0.000000
-8.926000 0.000000
-8.913000 0.000000
-8.900100 0.000000
-8.887200 0.000000
-8.874200 0.000000
-8.861300 0.000000
-8.848300 0.000000
-8.835400 0.000000
-8.822400 0.000000
-8.809500 0.000000
-8.796500 0.000000
-8.783600 0.000000
-8.770600 0.000000
-8.757700 0.000000
-8.744800 0.000000
-8.731800 0.000000
-8.718900 0.000000
-8.705900 0.000000
-8.693000 0.000000
-8.680000 0.000000
-8.667100 0.000000
-8.654100 0.000000
-8.641200 0.000000
-8.628200 0.000000
-8.615300 0.000000
-8.602300 0.000000
-8.589400 0.000000
-8.576500 0.000000
-8.563500 0.000000
-8.550600 0.000000
-8.537600 0.000000
-8.524700 0.000000
-8.511700 0.000000
-8.498800 0.000000
-8.485800 0.000000
-8.472900 0.000000
-8.459900 0.000000
-8.447000 0.000000
-8.434000 0.000000
-8.421100 0.000000
-8.408200 0.000000
-8.395200 0.000000
-8.382300 0.000000
-8.369300 0.000000
-8.356400 0.049200
-8.343400 0.243300
-8.330500 0.538500
-8.317500 0.500300
-8.304600 0.581200
-8.291600 0.667300
-8.278700 0.758900
-8.265700 0.848700
-8.252800 0.911000
-8.239900 0.940900
-8.226900 0.974000
-8.214000 1.025200
-8.201000 1.079700
-8.188100 1.135100
-8.175100 1.191500
-8.162200 1.248900
-8.149200 1.303100
-8.136300 1.338200
-8.123300 1.379200
-8.110400 1.415300
-8.097500 1.452900
-8.084500 1.490700
-8.071600 1.529800
-8.058600 1.571300
-8.045700 1.614400
-8.032700 1.659000
-8.019800 1.704600
-8.006800 1.750400
-7.993900 1.793900
-7.980900 1.831800
-7.968000 1.867800
-7.955000 1.905600
-7.942100 1.943400
-7.929200 1.980300
-7.916200 2.018500
-7.903300 2.057400
-7.890300 2.096800
-7.877400 2.137200
-7.864400 2.178700
-7.851500 2.223000
-7.838500 2.270500
-7.825600 2.326800
-7.812600 2.387200
-7.799700 2.443200
-7.786700 2.492100
-7.773800 2.538600
-7.760900 2.582200
-7.747900 2.632900
-7.735000 2.760400
-7.722000 2.805400
-7.709100 2.818300
-7.696100 2.865600
-7.683200 2.934900
-7.670200 3.018700
-7.657300 3.139500
-7.644300 3.206300
-7.631400 3.175400
-7.618500 3.189600
-7.605500 3.207300
-7.592600 3.275600
-7.579600 3.346300
-7.566700 3.308800
-7.553700 3.318700
-7.540800 3.379400
-7.527800 3.437700
-7.514900 3.488700
-7.501900 3.668100
-7.489000 3.904600
-7.476000 4.394100
-7.463100 4.472700
-7.450200 4.498000
-7.437200 4.397000
-7.424300 4.247900
-7.411300 3.769500
-7.398400 3.399800
-7.385400 3.184700
-7.372500 3.337200
-7.359500 3.566200
-7.346600 3.652300
-7.333600 4.173900
-7.320700 4.504400
-7.307700 4.675300
-7.294800 4.676100
-7.281900 4.637900
-7.268900 4.465900
-7.256000 4.324800
-7.243000 4.168200
-7.230100 4.020500
-7.217100 3.895400
-7.204200 3.878800
-7.191200 3.847400
-7.178300 3.833400
-7.165300 3.789500
-7.152400 3.711600
-7.139400 3.652500
-7.126500 3.603300
-7.113600 4.360800
-7.100600 3.882800
-7.087700 3.643800
-7.074700 3.647800
-7.061800 4.008400
-7.048800 4.699600
-7.035900 5.159000
-7.022900 5.755200
-7.010000 5.905700
-6.997000 5.809600
-6.984100 5.802000
-6.971200 5.756500
-6.958200 5.829000
-6.945300 5.962700
-6.932300 6.087100
-6.919400 6.551600
-6.906400 7.173000
-6.893500 8.356500
-6.880500 9.042600
-6.867600 9.097100
-6.854600 9.191100
-6.841700 9.301200
-6.828700 8.585700
-6.815800 7.490500
-6.802900 7.568600
-6.789900 7.499700
-6.777000 7.559200
-6.764000 7.590200
-6.751100 7.662900
-6.738100 7.753600
-6.725200 7.655100
-6.712200 7.613800
-6.699300 7.607300
-6.686300 7.614200
-6.673400 7.633100
-6.660400 7.422200
-6.647500 7.246000
-6.634600 6.757800
-6.621600 6.232700
-6.608700 5.627500
-6.595700 5.425900
-6.582800 6.174900
-6.569800 6.988200
-6.556900 6.422200
-6.543900 6.885700
-6.531000 6.828800
-6.518000 6.926000
-6.505100 6.938900
-6.492200 6.514600
-6.479200 6.361500
-6.466300 7.591100
-6.453300 8.093600
-6.440400 8.633100
-6.427400 7.580000
-6.414500 7.503700
-6.401500 7.058200
-6.388600 6.134900
-6.375600 6.114800
-6.362700 6.499400
-6.349700 6.807700
-6.336800 7.009400
-6.323900 7.409300
-6.310900 8.139100
-6.298000 9.042100
-6.285000 10.006400
-6.272100 8.523700
-6.259100 7.476400
-6.246200 6.807500
-6.233200 6.700600
-6.220300 7.018100
-6.207300 7.346500
-6.194400 7.654700
-6.181400 8.094700
-6.168500 8.502700
-6.155600 8.271200
-6.142600 7.968100
-6.129700 7.345100
-6.116700 7.002900
-6.103800 6.707600
-6.090800 7.079200
-6.077900 7.529300
-6.064900 9.977100
-6.052000 10.315800
-6.039000 9.898200
-6.026100 9.555100
-6.013100 9.589500
-6.000200 10.004600
-5.987300 10.842500
-5.974300 12.434000
-5.961400 14.241300
-5.948400 9.396800
-5.935500 1.936600
-5.922500 0.000000
-5.909600 0.000000
-5.896600 0.000000
-5.883700 0.000000
-5.870700 0.000000
-5.857800 0.000000
-5.844900 0.000000
-5.831900 0.000000
-5.819000 0.000000
-5.806000 0.000000
-5.793100 0.000000
-5.780100 0.000000
-5.767200 0.000000
-5.754200 0.000000
-5.741300 0.000000
-5.728300 0.000000
-5.715400 0.000000
-5.702400 0.000000
-5.689500 0.000000
-5.676600 0.000000
-5.663600 0.000000
-5.650700 0.000000
-5.637700 0.000000
-5.624800 0.000000
-5.611800 0.000000
-5.598900 0.000000
-5.585900 0.000000
-5.573000 0.000000
-5.560000 0.000000
-5.547100 0.000000
-5.534100 0.000000
-5.521200 0.000000
-5.508300 0.000000
-5.495300 0.000000
-5.482400 0.000000
-5.469400 0.000000
-5.456500 0.000000
-5.443500 0.000000
-5.430600 0.000000
-5.417600 0.000000
-5.404700 0.000000
-5.391700 0.000000
-5.378800 0.000000
-5.365800 0.000000
-5.352900 0.000000
-5.340000 0.000000
-5.327000 0.000000
-5.314100 0.000000
-5.301100 0.000000
-5.288200 0.000000
-5.275200 0.000000
-5.262300 0.000000
-5.249300 0.000000
-5.236400 0.000000
-5.223400 0.000000
-5.210500 0.000000
-5.197600 0.000000
-5.184600 0.000000
-5.171700 0.000000
-5.158700 0.000000
-5.145800 0.000000
-5.132800 0.000000
-5.119900 0.000000
-5.106900 0.000000
-5.094000 0.000000
-5.081000 0.000000
-5.068100 0.000000
-5.055100 0.000000
-5.042200 0.000000
-5.029300 0.000000
-5.016300 0.000000
-5.003400 0.000000
-4.990400 0.000000
-4.977500 0.000000
-4.964500 0.000000
-4.951600 0.000000
-4.938600 0.000000
-4.925700 0.000000
-4.912700 0.000000
-4.899800 0.000000
-4.886800 0.000000
-4.873900 0.000000
-4.861000 0.000000
-4.848000 0.000000
-4.835100 0.000000
-4.822100 0.000000
-4.809200 0.000000
-4.796200 0.000000
-4.783300 0.000000
-4.770300 0.000000
-4.757400 0.000000
-4.744400 0.000000
-4.731500 0.000000
-4.718600 0.000000
-4.705600 0.000000
-4.692700 0.000000
-4.679700 0.000000
-4.666800 0.000000
-4.653800 0.000000
-4.640900 0.000000
-4.627900 0.000000
-4.615000 0.000000
-4.602000 0.000000
-4.589100 0.000000
-4.576100 0.000000
-4.563200 0.000000
-4.550300 0.000000
-4.537300 0.000000
-4.524400 0.000000
-4.511400 0.000000
-4.498500 0.000000
-4.485500 0.000000
-4.472600 0.000000
-4.459600 0.000000
-4.446700 0.000000
-4.433700 0.000000
-4.420800 0.000000
-4.407800 0.000000
-4.394900 0.000000
-4.382000 0.000000
-4.369000 0.000000
-4.356100 0.000000
-4.343100 0.000000
-4.330200 0.000000
-4.317200 0.000000
-4.304300 0.000000
-4.291300 0.000000
-4.278400 0.000000
-4.265400 0.000000
-4.252500 0.000000
-4.239500 0.000000
-4.226600 0.000000
-4.213700 0.000000
-4.200700 0.000000
-4.187800 0.000000
-4.174800 0.000000
-4.161900 0.000000
-4.148900 0.000000
-4.136000 0.000000
-4.123000 0.000000
-4.110100 0.000000
-4.097100 0.000000
-4.084200 0.000000
-4.071300 0.000000
-4.058300 0.000000
-4.045400 0.000000
-4.032400 0.000000
-4.019500 0.000000
-4.006500 0.000000
-3.993600 0.000000
-3.980600 0.000000
-3.967700 0.000000
-3.954700 0.000000
-3.941800 0.000000
-3.928800 0.000000
-3.915900 0.000000
-3.903000 0.000000
-3.890000 0.000000
-3.877100 0.000000
-3.864100 0.000000
-3.851200 0.000000
-3.838200 0.000000
-3.825300 0.000000
-3.812300 0.000000
-3.799400 0.000000
-3.786400 0.000000
-3.773500 0.000000
-3.760500 0.000000
-3.747600 0.000000
-3.734700 0.000000
-3.721700 0.000000
-3.708800 0.000000
-3.695800 0.000000
-3.682900 0.000000
-3.669900 0.000000
-3.657000 0.000000
-3.644000 0.000000
-3.631100 0.000000
-3.618100 0.000000
-3.605200 0.000000
-3.592300 0.000000
-3.579300 0.000000
-3.566400 0.000000
-3.553400 0.000000
-3.540500 0.000000
-3.527500 0.000000
-3.514600 0.000000
-3.501600 0.000000
-3.488700 0.000000
-3.475700 0.000000
-3.462800 0.000000
-3.449800 0.000000
-3.436900 0.000000
-3.424000 0.000000
-3.411000 0.000000
-3.398100 0.000000
-3.385100 0.000000
-3.372200 0.000000
-3.359200 0.000000
-3.346300 0.000000
-3.333300 0.000000
-3.320400 0.000000
-3.307400 0.000000
-3.294500 0.000000
-3.281500 0.000000
-3.268600 0.000000
-3.255700 0.000000
-3.242700 0.000000
-3.229800 0.000000
-3.216800 0.000000
-3.203900 0.000000
-3.190900 0.000000
-3.178000 0.000000
-3.165000 0.000000
-3.152100 0.000000
-3.139100 0.000000
-3.126200 0.000000
-3.113200 0.000000
-3.100300 0.000000
-3.087400 0.000000
-3.074400 0.000000
-3.061500 0.000000
-3.048500 0.000000
-3.035600 0.000000
-3.022600 0.000000
-3.009700 0.000000
-2.996700 0.000000
-2.983800 0.000000
-2.970800 0.000000
-2.957900 0.000000
-2.945000 0.000000
-2.932000 0.000000
-2.919100 0.000000
-2.906100 0.000000
-2.893200 0.000000
-2.880200 0.000000
-2.867300 0.000000
-2.854300 0.000000
-2.841400 0.000000
-2.828400 0.000000
-2.815500 0.000000
-2.802500 0.000000
-2.789600 0.000000
-2.776700 0.000000
-2.763700 0.000000
-2.750800 0.000000
-2.737800 0.000000
-2.724900 0.000000
-2.711900 0.000000
-2.699000 0.000000
-2.686000 0.000000
-2.673100 0.000000
-2.660100 0.000000
-2.647200 0.000000
-2.634200 0.000000
-2.621300 0.000000
-2.608400 0.000000
-2.595400 0.000000
-2.582500 0.000000
-2.569500 0.000000
-2.556600 0.000000
-2.543600 0.000000
-2.530700 0.000000
-2.517700 0.000000
-2.504800 0.000000
-2.491800 0.000000
-2.478900 0.000000
-2.466000 0.000000
-2.453000 0.000000
-2.440100 0.000000
-2.427100 0.000000
-2.414200 0.000000
-2.401200 0.000000
-2.388300 0.000000
-2.375300 0.000000
-2.362400 0.000000
-2.349400 0.000000
-2.336500 0.000000
-2.323500 0.000000
-2.310600 0.000000
-2.297700 0.000000
-2.284700 0.000000
-2.271800 0.000000
-2.258800 0.000000
-2.245900 0.000000
-2.232900 0.000000
-2.220000 0.000000
-2.207000 0.000000
-2.194100 0.000000
-2.181100 0.000000
-2.168200 0.000000
-2.155200 0.000000
-2.142300 0.000000
-2.129400 0.000000
-2.116400 0.000000
-2.103500 0.000000
-2.090500 0.000000
-2.077600 0.000000
-2.064600 0.000000
-2.051700 0.000000
-2.038700 0.000000
-2.025800 0.000000
-2.012800 0.000000
-1.999900 0.000000
-1.986900 0.000000
-1.974000 0.000000
-1.961100 0.000000
-1.948100 0.000000
-1.935200 0.000000
-1.922200 0.000000
-1.909300 0.000000
-1.896300 0.000000
-1.883400 0.000000
-1.870400 0.000000
-1.857500 0.000000
-1.844500 0.000000
-1.831600 0.000000
-1.818700 0.000000
-1.805700 0.000000
-1.792800 0.000000
-1.779800 0.000000
-1.766900 0.000000
-1.753900 0.000000
-1.741000 0.000000
-1.728000 0.000000
-1.715100 0.000000
-1.702100 0.000000
-1.689200 0.000600
-1.676200 0.025000
-1.663300 0.085100
-1.650400 0.180900
-1.637400 0.287000
-1.624500 0.339600
-1.611500 0.360700
-1.598600 0.382300
-1.585600 0.417600
-1.572700 0.454000
-1.559700 0.492300
-1.546800 0.532700
-1.533800 0.575300
-1.520900 0.620500
-1.507900 0.669100
-1.495000 0.696700
-1.482100 0.734600
-1.469100 0.764400
-1.456200 0.798000
-1.443200 0.831700
-1.430300 0.866100
-1.417300 0.899900
-1.404400 0.940900
-1.391400 0.987100
-1.378500 1.036600
-1.365500 1.088800
-1.352600 1.143700
-1.339600 1.201000
-1.326700 1.260400
-1.313800 1.369900
-1.300800 1.569700
-1.287900 1.848700
-1.274900 1.901300
-1.262000 1.999200
-1.249000 2.112800
-1.236100 2.233300
-1.223100 2.359300
-1.210200 2.477100
-1.197200 2.581200
-1.184300 2.674400
-1.171400 2.774300
-1.158400 2.880800
-1.145500 2.988400
-1.132500 3.097400
-1.119600 3.210300
-1.106600 3.332900
-1.093700 3.457900
-1.080700 3.679000
-1.067800 3.818800
-1.054800 3.932100
-1.041900 4.049000
-1.028900 4.174600
-1.016000 4.300300
-1.003100 4.421400
-0.990100 4.532600
-0.977200 4.650300
-0.964200 4.891200
-0.951300 5.208700
-0.938300 5.379400
-0.925400 5.619200
-0.912400 6.087300
-0.899500 6.477600
-0.886500 6.734800
-0.873600 6.844500
-0.860600 6.557500
-0.847700 6.553900
-0.834800 6.558100
-0.821800 5.937600
-0.808900 5.590300
-0.795900 5.461100
-0.783000 5.398300
-0.770000 5.370700
-0.757100 5.449900
-0.744100 5.584100
-0.731200 5.595700
-0.718200 5.622100
-0.705300 5.612300
-0.692400 5.868900
-0.679400 6.008600
-0.666500 5.079500
-0.653500 4.617100
-0.640600 4.394200
-0.627600 4.300700
-0.614700 4.360100
-0.601700 4.280900
-0.588800 4.289500
-0.575800 4.398300
-0.562900 4.536800
-0.549900 4.706400
-0.537000 4.939900
-0.524100 5.242900
-0.511100 5.699400
-0.498200 6.274400
-0.485200 6.819600
-0.472300 6.905500
-0.459300 6.793100
-0.446400 6.621700
-0.433400 6.366100
-0.420500 5.746700
-0.407500 5.304300
-0.394600 5.077400
-0.381600 4.931900
-0.368700 4.878400
-0.355800 4.865300
-0.342800 4.949000
-0.329900 4.942600
-0.316900 5.012500
-0.304000 5.101100
-0.291000 5.160700
-0.278100 5.140900
-0.265100 4.989100
-0.252200 4.492100
-0.239200 4.031500
-0.226300 3.635400
-0.213300 3.258400
-0.200400 2.947900
-0.187500 2.741500
-0.174500 2.606200
-0.161600 2.528400
-0.148600 2.470700
-0.135700 2.430900
-0.122700 2.457100
-0.109800 2.452900
-0.096800 2.339500
-0.083900 2.189800
-0.070900 2.119500
-0.058000 2.054700
-0.045100 2.047200
-0.032100 2.173600
-0.019200 2.276000
-0.006200 2.360300
0.006700 2.503000
0.019700 2.647800
0.032600 2.741300
0.045600 2.821000
0.058500 2.961100
0.071500 3.058500
0.084400 3.145700
0.097400 3.138300
0.110300 2.971000
0.123200 2.741900
0.136200 2.543300
0.149100 2.479100
0.162100 2.267200
0.175000 2.170100
0.188000 2.126800
0.200900 2.011400
0.213900 1.914800
0.226800 1.837700
0.239800 1.783000
0.252700 1.761700
0.265700 1.693600
0.278600 1.645400
0.291500 1.651900
0.304500 1.708500
0.317400 1.671100
0.330400 1.596000
0.343300 1.593200
0.356300 1.597200
0.369200 1.600600
0.382200 1.602300
0.395100 1.602500
0.408100 1.602300
0.421000 1.613300
0.433900 1.643400
0.446900 1.691000
0.459800 1.723600
0.472800 1.725500
0.485700 1.701600
0.498700 1.679500
0.511600 1.649600
0.524600 1.634800
0.537500 1.638300
0.550500 1.665600
0.563400 1.700400
0.576400 1.733600
0.589300 1.754400
0.602200 1.756700
0.615200 1.782900
0.628100 1.815700
0.641100 1.850700
0.654000 1.889600
0.667000 1.936600
0.679900 1.993900
0.692900 2.062400
0.705800 2.136400
0.718800 2.202000
0.731700 2.273000
0.744700 2.357700
0.757600 2.495600
0.770500 2.705600
0.783500 3.008700
0.796400 3.333900
0.809400 3.756400
0.822300 4.186600
0.835300 4.336700
0.848200 4.057900
0.861200 3.779900
0.874100 3.652400
0.887100 3.627200
0.900000 3.447400
0.913000 3.184600
0.925900 3.026000
0.938800 2.859800
0.951800 2.534600
0.964700 2.301200
0.977700 1.943200
0.990600 1.751200
1.003600 1.597800
1.016500 1.514700
1.029500 1.587400
1.042400 1.907700
1.055400 2.366600
1.068300 2.706200
1.081200 3.357200
1.094200 3.906500
1.107100 3.789500
1.120100 4.241600
1.133000 4.621800
1.146000 5.006000
1.158900 5.859900
1.171900 6.323400
1.184800 6.003100
1.197800 5.835000
1.210700 5.756300
1.223700 5.750900
1.236600 5.877800
1.249500 6.285800
1.262500 6.850400
1.275400 7.524800
1.288400 7.962600
1.301300 7.168700
1.314300 5.922400
1.327200 4.602200
1.340200 3.898200
1.353100 3.992800
1.366100 4.225500
1.379000 4.451500
1.392000 4.649400
1.404900 4.880300
1.417800 5.063000
1.430800 5.220100
1.443700 5.567400
1.456700 6.353600
1.469600 7.665700
1.482600 9.162600
1.495500 8.839900
1.508500 9.084400
1.521400 8.304200
1.534400 7.692800
1.547300 7.048100
1.560200 6.440000
1.573200 6.390900
1.586100 6.754300
1.599100 7.069500
1.612000 7.796300
1.625000 7.548700
1.637900 7.436800
1.650900 7.159100
1.663800 6.923200
1.676800 6.604800
1.689700 6.510100
1.702700 6.588400
1.715600 7.121700
1.728500 7.553400
1.741500 8.273900
1.754400 8.041000
1.767400 8.868200
1.780300 8.848800
1.793300 8.785300
1.806200 8.597400
1.819200 8.569100
1.832100 8.848200
1.845100 7.776800
1.858000 6.972300
1.871000 6.761200
1.883900 6.431500
1.896800 6.449000
1.909800 6.914000
1.922700 7.429600
1.935700 7.872900
1.948600 8.054900
1.961600 8.348200
1.974500 8.234000
1.987500 8.325000
2.000400 8.229200
2.013400 7.895800
2.026300 7.294000
2.039300 6.833500
2.052200 6.791700
2.065100 6.571600
2.078100 5.902500
2.091000 5.580100
2.104000 5.573300
2.116900 5.787500
2.129900 5.729700
2.142800 5.590200
2.155800 5.547200
2.168700 5.388600
2.181700 5.361900
2.194600 5.549200
2.207500 5.835000
2.220500 6.396200
2.233400 6.357500
2.246400 6.780400
2.259300 6.420700
2.272300 5.684500
2.285200 5.324200
2.298200 5.375200
2.311100 5.403200
2.324100 5.364700
2.337000 5.337700
2.350000 5.438000
2.362900 5.630200
2.375800 5.866700
2.388800 6.335300
2.401700 6.874400
2.414700 7.500500
2.427600 7.279000
2.440600 7.342900
2.453500 7.270700
2.466500 7.279900
2.479400 7.346800
2.492400 7.422700
2.505300 7.415500
2.518300 7.478900
2.531200 7.647400
2.544100 7.874300
2.557100 8.078700
2.570000 8.149100
2.583000 8.405600
2.595900 8.645400
2.608900 8.123100
2.621800 7.580000
2.634800 6.986200
2.647700 6.396000
2.660700 6.104400
2.673600 6.225800
2.686600 6.718400
2.699500 6.880300
2.712400 6.531100
2.725400 6.124000
2.738300 6.037300
2.751300 6.077000
2.764200 5.936500
2.777200 5.931200
2.790100 5.369300
2.803100 4.906800
2.816000 4.834500
2.829000 4.755800
2.841900 4.739500
2.854800 4.860300
2.867800 5.295000
2.880700 5.847800
2.893700 6.368700
2.906600 6.793100
2.919600 6.396200
2.932500 5.601300
2.945500 5.689100
2.958400 6.302700
2.971400 6.354500
2.984300 6.307400
2.997300 6.661300
3.010200 7.055000
3.023100 8.090000
3.036100 8.273700
3.049000 8.703400
3.062000 8.861700
3.074900 8.998600
3.087900 9.355200
3.100800 10.055600
3.113800 10.858800
3.126700 11.641700
3.139700 11.388800
3.152600 10.221800
3.165600 8.210000
3.178500 8.256500
3.191400 9.000500
3.204400 9.275700
3.217300 9.619000
3.230300 9.508500
3.243200 8.614200
3.256200 7.828500
3.269100 6.740300
3.282100 6.278600
3.295000 5.822400
3.308000 5.545700
3.320900 5.607600
3.333800 4.580700
3.346800 4.257200
3.359700 4.365200
3.372700 5.896000
3.385600 8.060800
3.398600 9.763100
3.411500 11.283800
3.424500 13.293200
3.437400 15.759100
3.450400 16.732600
3.463300 13.886100
3.476300 11.271400
3.489200 9.809200
3.502100 8.831700
3.515100 8.311000
3.528000 9.013400
3.541000 9.772400
3.553900 9.494200
3.566900 9.200700
3.579800 9.197100
3.592800 8.073800
3.605700 7.711200
3.618700 7.717500
3.631600 8.140700
3.644600 8.599000
3.657500 8.989800
3.670400 9.205900
3.683400 9.238400
3.696300 9.083600
3.709300 9.009100
3.722200 8.711700
3.735200 8.344200
3.748100 7.517300
3.761100 6.775900
3.774000 6.538500
3.787000 7.098900
3.799900 7.654700
3.812900 9.767000
3.825800 9.539000
3.838700 9.538500
3.851700 9.865100
3.864600 10.210300
3.877600 10.833700
3.890500 10.807100
3.903500 10.593100
3.916400 10.736700
3.929400 11.184200
3.942300 11.583300
3.955300 12.372000
3.968200 13.187100
3.981100 14.308900
3.994100 13.550800
4.007000 12.785400
4.020000 11.777200
4.032900 11.151000
4.045900 10.831500
4.058800 10.982400
4.071800 11.253500
4.084700 11.721800
4.097700 11.171800
4.110600 11.758100
4.123600 12.377100
4.136500 13.482000
4.149400 13.515500
4.162400 14.054100
4.175300 16.281900
4.188300 17.603200
4.201200 18.440100
4.214200 18.290200
4.227100 16.833500
4.240100 15.615400
4.253000 14.627500
4.266000 14.464400
4.278900 14.643400
4.291900 14.937700
4.304800 15.784700
4.317700 16.669000
4.330700 15.679100
4.343600 13.301200
4.356600 10.540800
4.369500 8.303100
4.382500 6.920100
4.395400 6.216900
4.408400 5.389500
4.421300 5.062900
4.434300 4.781700
4.447200 4.477100
4.460100 4.266400
4.473100 4.039000
4.486000 3.494600
4.499000 2.748300
4.511900 1.916000
4.524900 0.965800
4.537800 0.182900
4.550800 0.000000
4.563700 0.000000
4.576700 0.000000
4.589600 0.000000
4.602600 0.000000
4.615500 0.000000
4.628400 0.000000
4.641400 0.000000
4.654300 0.000000
4.667300 0.000000
4.680200 0.000000
4.693200 0.000000
4.706100 0.000000
4.719100 0.000000
4.732000 0.000000
4.745000 0.000000
4.757900 0.000000
4.770900 0.000000
4.783800 0.000000
4.796700 0.000000
4.809700 0.000000
4.822600 0.000000
4.835600 0.000000
4.848500 0.000000
4.861500 0.000100
4.874400 0.000200
4.887400 0.000400
4.900300 0.000700
4.913300 0.001000
4.926200 0.001300
4.939200 0.001700
4.952100 0.002200
4.965000 0.002700
4.978000 0.003200
4.990900 0.003900
5.003900 0.004500
5.016800 0.005300
5.029800 0.006000
5.042700 0.006900
5.055700 0.007800
5.068600 0.008700
5.081600 0.009700
5.094500 0.010800
5.107400 0.011900
5.120400 0.013000
5.133300 0.014200
5.146300 0.015500
5.159200 0.016800
5.172200 0.018200
5.185100 0.019600
5.198100 0.021100
5.211000 0.022700
5.224000 0.024300
5.236900 0.025900
5.249900 0.027600
5.262800 0.029400
5.275700 0.031200
5.288700 0.033000
5.301600 0.035000
5.314600 0.036900
5.327500 0.039000
5.340500 0.041100
5.353400 0.043800
5.366400 0.046700
5.379300 0.049600
5.392300 0.052400
5.405200 0.055000
5.418200 0.057500
5.431100 0.059900
5.444000 0.062100
5.457000 0.064200
5.469900 0.066300
5.482900 0.068300
5.495800 0.070300
5.508800 0.072300
5.521700 0.074300
5.534700 0.076300
5.547600 0.078300
5.560600 0.080400
5.573500 0.082500
5.586400 0.084500
5.599400 0.086600
5.612300 0.088800
5.625300 0.090900
5.638200 0.093000
5.651200 0.095200
5.664100 0.097300
5.677100 0.099500
5.690000 0.101700
5.703000 0.103900
5.715900 0.106200
5.728900 0.108400
5.741800 0.110700
5.754700 0.113000
5.767700 0.115200
5.780600 0.117600
5.793600 0.119900
5.806500 0.122200
5.819500 0.124700
5.832400 0.127500
5.845400 0.130500
5.858300 0.133800
5.871300 0.137300
5.884200 0.141100
5.897200 0.145300
5.910100 0.149800
5.923000 0.154600
5.936000 0.159800
5.948900 0.165300
5.961900 0.171100
5.974800 0.177300
5.987800 0.183800
6.000700 0.190400
6.013700 0.197100
6.026600 0.204000
6.039600 0.210900
6.052500 0.217400
6.065500 0.223900
6.078400 0.230400
6.091300 0.236800
6.104300 0.243300
6.117200 0.249800
6.130200 0.256500
6.143100 0.263100
6.156100 0.269900
6.169000 0.276700
6.182000 0.283700
6.194900 0.290600
6.207900 0.297700
6.220800 0.304800
6.233700 0.312100
6.246700 0.319300
6.259600 0.326700
6.272600 0.334100
6.285500 0.341700
6.298500 0.349300
6.311400 0.357000
6.324400 0.365200
6.337300 0.377500
6.350300 0.394600
6.363200 0.418700
6.376200 0.451500
6.389100 0.489700
6.402000 0.527800
6.415000 0.571800
6.427900 0.617800
6.440900 0.664000
6.453800 0.710600
6.466800 0.758200
6.479700 0.807300
6.492700 0.857700
6.505600 0.908500
6.518600 0.958200
6.531500 1.026300
6.544500 1.483900
6.557400 2.162500
6.570300 2.592000
6.583300 3.250900
6.596200 4.671900
6.609200 4.547600
6.622100 4.343600
6.635100 4.301900
6.648000 4.269500
6.661000 4.267000
6.673900 4.296300
6.686900 4.450600
6.699800 4.340000
6.712800 4.282000
6.725700 4.267300
6.738600 4.294100
6.751600 4.276500
6.764500 4.247000
6.777500 4.929000
6.790400 5.943800
6.803400 6.703800
6.816300 7.500800
6.829300 8.406200
6.842200 6.818000
6.855200 5.550000
6.868100 4.864200
6.881000 4.753500
6.894000 5.101700
6.906900 5.144800
6.919900 5.336900
6.932800 5.537700
6.945800 5.731100
6.958700 5.957900
6.971700 6.252200
6.984600 6.580100
6.997600 6.637300
7.010500 6.883500
7.023500 7.214500
7.036400 7.050000
7.049300 6.349800
7.062300 5.741500
7.075200 5.231800
7.088200 4.962400
7.101100 4.855700
7.114100 4.955100
7.127000 5.613200
7.140000 5.749900
7.152900 4.767300
7.165900 4.468100
7.178800 4.358800
7.191800 4.316300
7.204700 4.173500
7.217600 4.046600
7.230600 4.179000
7.243500 4.462700
7.256500 4.686400
7.269400 4.841900
7.282400 4.859800
7.295300 4.732600
7.308300 4.389000
7.321200 4.293600
7.334200 4.525900
7.347100 4.737200
7.360000 4.980100
7.373000 5.518800
7.385900 4.829000
7.398900 4.673000
7.411800 4.595600
7.424800 4.547300
7.437700 4.668200
7.450700 4.854800
7.463600 5.105800
7.476600 5.355000
7.489500 5.328400
7.502500 5.167100
7.515400 5.134600
7.528300 5.190200
7.541300 5.201100
7.554200 5.186200
7.567200 5.286000
7.580100 5.437700
7.593100 5.565900
7.606000 5.592100
7.619000 5.381800
7.631900 5.161600
7.644900 5.074800
7.657800 4.956900
7.670800 4.920300
7.683700 4.916900
7.696600 4.828800
7.709600 4.774800
7.722500 4.712200
7.735500 4.664400
7.748400 4.755700
7.761400 5.312500
7.774300 4.889400
7.787300 4.603500
7.800200 4.141400
7.813200 3.505400
7.826100 3.160700
7.839100 3.098700
7.852000 3.063000
7.864900 3.027100
7.877900 2.982500
7.890800 2.893400
7.903800 2.732100
7.916700 2.482800
7.929700 2.247800
7.942600 2.057800
7.955600 1.886500
7.968500 1.745400
7.981500 1.634900
7.994400 1.567300
8.007300 1.517200
8.020300 1.472100
8.033200 1.429600
8.046200 1.392200
8.059100 1.365800
8.072100 1.352600
8.085000 1.381100
8.098000 1.351700
8.110900 1.329700
8.123900 1.318800
8.136800 1.325100
8.149800 1.336000
8.162700 1.340400
8.175600 1.338100
8.188600 1.329600
8.201500 1.314800
8.214500 1.294100
8.227400 1.268500
8.240400 1.244100
8.253300 1.212400
8.266300 1.171300
8.279200 1.126200
8.292200 1.081600
8.305100 1.037600
8.318100 0.997600
8.331000 0.964500
8.343900 0.933800
8.356900 0.905500
8.369800 0.879900
8.382800 0.856100
8.395700 0.833900
8.408700 0.813600
8.421600 0.795400
8.434600 0.780300
8.447500 0.766800
8.460500 0.753800
8.473400 0.740800
8.486300 0.727900
8.499300 0.715000
8.512200 0.702100
8.525200 0.689300
8.538100 0.676400
8.551100 0.663700
8.564000 0.651000
8.577000 0.638400
8.589900 0.625900
8.602900 0.613500
8.615800 0.601300
8.628800 0.589200
8.641700 0.577000
8.654600 0.564700
8.667600 0.552500
8.680500 0.539900
8.693500 0.526400
8.706400 0.513400
8.719400 0.499500
8.732300 0.488100
8.745300 0.478800
8.758200 0.470500
8.771200 0.462300
8.784100 0.453900
8.797100 0.445100
8.810000 0.436000
8.822900 0.426500
8.835900 0.416800
8.848800 0.406900
8.861800 0.397200
8.874700 0.387500
8.887700 0.377800
8.900600 0.374100
8.913600 0.402900
8.926500 0.468800
8.939500 0.571900
8.952400 0.735600
8.965400 1.129400
8.978300 1.099400
8.991200 1.183100
9.004200 1.325300
9.017100 1.509400
9.030100 1.723300
9.043000 2.030200
9.056000 3.222900
9.068900 3.788600
9.081900 3.609400
9.094800 2.936200
9.107800 2.776200
9.120700 2.779700
9.133600 2.807200
9.146600 2.845800
9.159500 2.896800
9.172500 2.969300
9.185400 3.082000
9.198400 3.467600
9.211300 3.941300
9.224300 4.455500
9.237200 5.040000
9.250200 5.293300
9.263100 5.403700
9.276100 5.493000
9.289000 5.714500
9.301900 5.870000
9.314900 5.836600
9.327800 5.787400
9.340800 5.725200
9.353700 5.813200
9.366700 5.978400
9.379600 5.666300
9.392600 5.860700
9.405500 6.011800
9.418500 5.885500
9.431400 5.670200
9.444400 5.539100
9.457300 5.388000
9.470200 5.099600
9.483200 5.079900
9.496100 5.028900
9.509100 4.911200
9.522000 4.638500
9.535000 4.406200
9.547900 4.219400
9.560900 3.987100
9.573800 3.914200
9.586800 3.874800
9.599700 3.936500
9.612600 4.046300
9.625600 4.311900
9.638500 4.749900
9.651500 5.188400
9.664400 5.718200
9.677400 6.318300
9.690300 6.674500
9.703300 6.661900
9.716200 6.474100
9.729200 6.419400
9.742100 6.498500
9.755100 6.580700
9.768000 6.309900
9.780900 6.067800
9.793900 6.095900
9.806800 6.169000
9.819800 5.610600
9.832700 5.030400
9.845700 4.320700
9.858600 3.405100
9.871600 2.958200
9.884500 3.649900
9.897500 4.086800
9.910400 4.253000
9.923400 4.594800
9.936300 5.063900
9.949200 5.761100
9.962200 6.441800
9.975100 7.097300
9.988100 7.778400
10.001000 8.030400
10.014000 7.939200
10.026900 8.104900
10.039900 8.343100
10.052800 7.878100
10.065800 7.182700
10.078700 6.464000
10.091700 5.737000
10.104600 5.436400
10.117500 4.932900
10.130500 4.293800
10.143400 3.790200
10.156400 4.192400
10.169300 4.361800
10.182300 4.687800
10.195200 5.098100
10.208200 5.294500
10.221100 5.491900
10.234100 5.709400
10.247000 5.989200
10.259900 6.261700
10.272900 6.588600
10.285800 6.939100
10.298800 7.160300
10.311700 7.254200
10.324700 7.376300
10.337600 7.290000
10.350600 7.144100
10.363500 7.245600
10.376500 7.532100
10.389400 7.324900
10.402400 7.142000
10.415300 6.604300
10.428200 6.274700
10.441200 6.085900
10.454100 6.056400
10.467100 6.007900
10.480000 5.797500
10.493000 5.947500
10.505900 6.208400
10.518900 6.664400
10.531800 7.181300
10.544800 8.079300
10.557700 8.809600
10.570700 9.321200
10.583600 9.545600
10.596500 9.076900
10.609500 7.788400
10.622400 6.732100
10.635400 6.085100
10.648300 5.708000
10.661300 5.574700
10.674200 5.449500
10.687200 5.424000
10.700100 5.524500
10.713100 5.833400
10.726000 6.429400
10.739000 6.869200
10.751900 7.376600
10.764800 7.630000
10.777800 7.623500
10.790700 7.785900
10.803700 7.947900
10.816600 8.490700
10.829600 8.940300
10.842500 9.190000
10.855500 9.259200
10.868400 8.831600
10.881400 8.313900
10.894300 8.206100
10.907200 8.076900
10.920200 8.098200
10.933100 8.341400
10.946100 8.389700
10.959000 8.441200
10.972000 8.700600
10.984900 9.660300
10.997900 10.242800
11.010800 9.693700
11.023800 9.007600
11.036700 8.566100
11.049700 8.269600
11.062600 8.084900
11.075500 7.944000
11.088500 7.798800
11.101400 7.769200
11.114400 7.681400
11.127300 7.389200
11.140300 7.017500
11.153200 6.620800
11.166200 6.333800
11.179100 5.758200
11.192100 5.243700
11.205000 4.835900
11.218000 4.350900
11.230900 3.991900
11.243800 3.950900
11.256800 4.027800
11.269700 4.159300
11.282700 4.374200
11.295600 4.261900
11.308600 4.182200
11.321500 4.117100
11.334500 4.059300
11.347400 4.180700
11.360400 4.287400
11.373300 4.325900
11.386200 4.265200
11.399200 4.235300
11.412100 4.197700
11.425100 4.139600
11.438000 4.214700
11.451000 4.579100
11.463900 4.935900
11.476900 5.340400
11.489800 5.712300
11.502800 5.946200
11.515700 6.405700
11.528700 6.596000
11.541600 6.470200
11.554500 6.484200
11.567500 6.439300
11.580400 6.417500
11.593400 6.612200
11.606300 6.455700
11.619300 6.667700
11.632200 6.917800
11.645200 6.911800
11.658100 6.825600
11.671100 6.724400
11.684000 6.773800
11.697000 6.882800
11.709900 6.993900
11.722800 7.363900
11.735800 7.682500
11.748700 7.967600
11.761700 7.707100
11.774600 6.973600
11.787600 6.537300
11.800500 6.263300
11.813500 6.111100
11.826400 6.394700
11.839400 5.760300
11.852300 5.450600
11.865300 5.217900
11.878200 5.119900
11.891100 5.173100
11.904100 5.611700
11.917000 6.127700
11.930000 6.735400
11.942900 7.306900
11.955900 7.918100
11.968800 8.472900
11.981800 8.909700
11.994700 9.727800
12.007700 9.271600
12.020600 9.097300
12.033500 9.387700
12.046500 9.240800
12.059400 9.158300
12.072400 8.990900
12.085300 9.060200
12.098300 8.985200
12.111200 7.612000
12.124200 6.788500
12.137100 6.190900
12.150100 5.781800
12.163000 5.547100
12.176000 5.401500
12.188900 5.404600
12.201800 5.503600
12.214800 5.774700
12.227700 6.180700
12.240700 6.364900
12.253600 6.793700
12.266600 7.407600
12.279500 7.730800
12.292500 7.901100
12.305400 8.072700
12.318400 8.485000
12.331300 8.681400
12.344300 9.350200
12.357200 10.305800
12.370100 10.374300
12.383100 10.787300
12.396000 10.448500
12.409000 11.104900
12.421900 11.326700
12.434900 11.116700
12.447800 10.842900
12.460800 10.629200
12.473700 10.671800
12.486700 11.139900
12.499600 11.379200
12.512500 11.259300
12.525500 10.690900
12.538400 10.080500
12.551400 9.227500
12.564300 8.404400
12.577300 7.845200
12.590200 7.576400
12.603200 7.414400
12.616100 7.171900
12.629100 7.136600
12.642000 7.124900
12.655000 7.885000
12.667900 8.266900
12.680800 8.538200
12.693800 8.568900
12.706700 8.633000
12.719700 8.645600
12.732600 8.729900
12.745600 8.940200
12.758500 9.087400
12.771500 8.902300
12.784400 8.910500
12.797400 8.610500
12.810300 8.436500
12.823300 7.997400
12.836200 7.528300
12.849100 7.151900
12.862100 6.773400
12.875000 7.073300
12.888000 8.049800
12.900900 7.738800
12.913900 7.999900
12.926800 8.597600
12.939800 8.675100
12.952700 9.426400
12.965700 9.423400
12.978600 9.159200
12.991600 8.241600
13.004500 7.977100
13.017400 7.876200
13.030400 7.885700
13.043300 7.899800
13.056300 7.807800
13.069200 7.781400
13.082200 7.999800
13.095100 8.257300
13.108100 8.554000
13.121000 8.796000
13.134000 8.507600
13.146900 7.999200
13.159800 6.790600
13.172800 5.699800
13.185700 4.952000
13.198700 4.348200
13.211600 4.085100
13.224600 3.906800
13.237500 4.054200
13.250500 4.533000
13.263400 4.727500
13.276400 4.952400
13.289300 5.119000
13.302300 5.311700
13.315200 5.510900
13.328100 5.189400
13.341100 5.334900
13.354000 5.791000
13.367000 6.185500
13.379900 7.129500
13.392900 7.905500
13.405800 8.216700
13.418800 8.242400
13.431700 8.075200
13.444700 8.043300
13.457600 8.031800
13.470600 7.835900
13.483500 7.792900
13.496400 7.912000
13.509400 8.182800
13.522300 8.435800
13.535300 8.263300
13.548200 8.054600
13.561200 7.909600
13.574100 7.892700
13.587100 8.032500
13.600000 8.259300
13.613000 8.560200
13.625900 8.902600
13.638800 9.332600
13.651800 9.991800
13.664700 9.035900
13.677700 8.152300
13.690600 7.712000
13.703600 6.527700
13.716500 5.570800
13.729500 4.950300
13.742400 4.288700
13.755400 3.489500
13.768300 2.948400
13.781300 2.518200
13.794200 2.079300
13.807100 1.545600
13.820100 1.077000
13.833000 0.551700
13.846000 0.283600
13.858900 0.127300
13.871900 0.067700
13.884800 0.036400
13.897800 0.019700
13.910700 0.009000
13.923700 0.002500
13.936600 0.000000
13.949600 0.000000
13.962500 0.000000
13.975400 0.000000
13.988400 0.000000
14.001300 0.000000
14.014300 0.000000
14.027200 0.000000
14.040200 0.000000
14.053100 0.000000
14.066100 0.000000
14.079000 0.000000
14.092000 0.000000
14.104900 0.000000
14.117900 0.000000
14.130800 0.000000
14.143700 0.000000
14.156700 0.000000
14.169600 0.000000
14.182600 0.000000
14.195500 0.000000
14.208500 0.000000
14.221400 0.000000
14.234400 0.000000
14.247300 0.000000
14.260300 0.000000
14.273200 0.000000
14.286100 0.000000
14.299100 0.000000
14.312000 0.000000
14.325000 0.000000
14.337900 0.000000
14.350900 0.000000
14.363800 0.000000
14.376800 0.000000
14.389700 0.000000
14.402700 0.000000
14.415600 0.000000
14.428600 0.000000
14.441500 0.000000
14.454400 0.000000
14.467400 0.000000
14.480300 0.000000
14.493300 0.000000
14.506200 0.000000
14.519200 0.000000
14.532100 0.000000
14.545100 0.000000
14.558000 0.000000
14.571000 0.000000
14.583900 0.000000
14.596900 0.000000
14.609800 0.000000
14.622700 0.000000
14.635700 0.000000
14.648600 0.000000
14.661600 0.000000
14.674500 0.000000
14.687500 0.000000
14.700400 0.000000
14.713400 0.000000
14.726300 0.000000
14.739300 0.000000
14.752200 0.000000
14.765200 0.000000
14.778100 0.000000
14.791000 0.000000
14.804000 0.000000
14.816900 0.000000
14.829900 0.000000
14.842800 0.000000
14.855800 0.000000
14.868700 0.000000
14.881700 0.000000
14.894600 0.000000
14.907600 0.000000
14.920500 0.000000
14.933400 0.000000
14.946400 0.000000
14.959300 0.000000
14.972300 0.000000
14.985200 0.000000
14.998200 0.000000
15.011100 0.000000
15.024100 0.000000
15.037000 0.000000
15.050000 0.000000
15.062900 0.000000
15.075900 0.000000
15.088800 0.000000
15.101700 0.000000
15.114700 0.000000
e
