set title 'mp-1220954 - Density of States'
set xlabel 'Energy (eV)'
set ylabel 'DOS (states/eV)'
set grid
set xrange [-10:10]
set yrange [0:3.199]
set xzeroaxis lt -1
set terminal png size 800,600
set output 'mp-1220954_dos_gnuplot.png'
plot '-' using 1:2 with lines title 'DOS'
-26.084200 0.000000
-26.039900 0.000000
-25.995600 0.000000
-25.951300 0.000000
-25.907100 0.000000
-25.862800 0.000000
-25.818500 0.000000
-25.774200 0.000000
-25.729900 0.000000
-25.685700 0.000000
-25.641400 0.000000
-25.597100 0.000000
-25.552800 0.000000
-25.508600 0.000000
-25.464300 0.000000
-25.420000 0.000000
-25.375700 0.000000
-25.331500 0.000000
-25.287200 0.000000
-25.242900 0.000000
-25.198600 0.000000
-25.154400 0.000000
-25.110100 0.000000
-25.065800 0.000000
-25.021500 0.000000
-24.977300 0.000000
-24.933000 0.000000
-24.888700 0.000000
-24.844400 0.000000
-24.800100 0.000000
-24.755900 0.000000
-24.711600 0.000000
-24.667300 0.000000
-24.623000 0.000000
-24.578800 0.000000
-24.534500 0.000000
-24.490200 0.000000
-24.445900 0.000000
-24.401700 0.000000
-24.357400 0.000000
-24.313100 0.000000
-24.268800 0.000000
-24.224600 0.000000
-24.180300 0.000000
-24.136000 0.000000
-24.091700 0.000000
-24.047500 0.000000
-24.003200 0.000000
-23.958900 0.000000
-23.914600 0.000000
-23.870300 0.000000
-23.826100 0.000000
-23.781800 0.000000
-23.737500 0.000000
-23.693200 0.000000
-23.649000 0.000000
-23.604700 0.000000
-23.560400 0.000000
-23.516100 0.000000
-23.471900 0.000000
-23.427600 0.000000
-23.383300 0.000000
-23.339000 0.000000
-23.294800 0.000000
-23.250500 0.000000
-23.206200 0.000000
-23.161900 0.000000
-23.117700 0.000000
-23.073400 0.000000
-23.029100 0.000000
-22.984800 0.000000
-22.940500 0.000000
-22.896300 0.000000
-22.852000 0.000000
-22.807700 0.000000
-22.763400 0.000000
-22.719200 0.000000
-22.674900 0.000000
-22.630600 0.000000
-22.586300 0.000000
-22.542100 0.000000
-22.497800 0.000000
-22.453500 0.000000
-22.409200 0.000000
-22.365000 0.000000
-22.320700 0.000000
-22.276400 0.000000
-22.232100 0.000000
-22.187900 0.000000
-22.143600 0.000000
-22.099300 0.000000
-22.055000 0.636400
-22.010700 2.727000
-21.966500 4.935800
-21.922200 3.188500
-21.877900 2.641000
-21.833600 2.357700
-21.789400 2.253700
-21.745100 2.999500
-21.700800 13.990500
-21.656500 11.138100
-21.612300 25.604100
-21.568000 0.870900
-21.523700 2.561100
-21.479400 8.374000
-21.435200 6.508400
-21.390900 4.035400
-21.346600 0.000000
-21.302300 0.000000
-21.258100 0.000000
-21.213800 0.000000
-21.169500 0.000000
-21.125200 0.000000
-21.080900 0.000000
-21.036700 0.000000
-20.992400 0.000000
-20.948100 0.000000
-20.903800 0.000000
-20.859600 0.000000
-20.815300 0.000000
-20.771000 0.000000
-20.726700 0.000000
-20.682500 0.000000
-20.638200 0.000000
-20.593900 0.000000
-20.549600 0.000000
-20.505400 0.000000
-20.461100 0.000000
-20.416800 0.000000
-20.372500 0.000000
-20.328300 0.000000
-20.284000 0.000000
-20.239700 0.000000
-20.195400 0.000000
-20.151100 0.000000
-20.106900 0.000000
-20.062600 0.000000
-20.018300 0.000000
-19.974000 0.000000
-19.929800 0.000000
-19.885500 0.000000
-19.841200 0.000000
-19.796900 0.000000
-19.752700 0.000000
-19.708400 0.000000
-19.664100 0.000000
-19.619800 0.000000
-19.575600 0.000000
-19.531300 0.000000
-19.487000 0.000000
-19.442700 0.000000
-19.398400 0.000000
-19.354200 0.000000
-19.309900 0.000000
-19.265600 0.000000
-19.221300 0.000000
-19.177100 0.000000
-19.132800 0.000000
-19.088500 0.000000
-19.044200 0.000000
-19.000000 0.000000
-18.955700 0.000000
-18.911400 0.000000
-18.867100 0.000000
-18.822900 0.000000
-18.778600 0.000000
-18.734300 0.000000
-18.690000 0.000000
-18.645800 0.000000
-18.601500 0.000000
-18.557200 0.000000
-18.512900 0.000000
-18.468600 0.000000
-18.424400 0.000000
-18.380100 0.000000
-18.335800 0.000000
-18.291500 0.000000
-18.247300 0.000000
-18.203000 0.000000
-18.158700 0.000000
-18.114400 0.000000
-18.070200 0.000000
-18.025900 0.000000
-17.981600 0.000000
-17.937300 0.000000
-17.893100 0.000000
-17.848800 0.000000
-17.804500 0.000000
-17.760200 0.000000
-17.716000 0.000000
-17.671700 0.000000
-17.627400 0.000000
-17.583100 0.000000
-17.538800 0.000000
-17.494600 0.000000
-17.450300 0.000000
-17.406000 0.000000
-17.361700 0.000000
-17.317500 0.000000
-17.273200 0.000000
-17.228900 0.000000
-17.184600 0.000000
-17.140400 0.000000
-17.096100 0.000000
-17.051800 0.000000
-17.007500 0.000000
-16.963300 0.000000
-16.919000 0.000000
-16.874700 0.000000
-16.830400 0.000000
-16.786200 0.000000
-16.741900 0.000000
-16.697600 0.000000
-16.653300 0.000000
-16.609000 0.000000
-16.564800 0.000000
-16.520500 0.000000
-16.476200 0.000000
-16.431900 0.000000
-16.387700 0.000000
-16.343400 0.000000
-16.299100 0.000000
-16.254800 0.000000
-16.210600 0.000000
-16.166300 0.000000
-16.122000 0.000000
-16.077700 0.000000
-16.033500 0.000000
-15.989200 0.000000
-15.944900 0.000000
-15.900600 0.000000
-15.856400 0.000000
-15.812100 0.000000
-15.767800 0.000000
-15.723500 0.000000
-15.679200 0.000000
-15.635000 0.000000
-15.590700 0.000000
-15.546400 0.000000
-15.502100 0.000000
-15.457900 0.000000
-15.413600 0.000000
-15.369300 0.000000
-15.325000 0.000000
-15.280800 0.000000
-15.236500 0.000000
-15.192200 0.000000
-15.147900 0.000000
-15.103700 0.000000
-15.059400 0.000000
-15.015100 0.000000
-14.970800 0.000000
-14.926600 0.000000
-14.882300 0.000000
-14.838000 0.000000
-14.793700 0.000000
-14.749400 0.000000
-14.705200 0.000000
-14.660900 0.000000
-14.616600 0.000000
-14.572300 0.000000
-14.528100 0.000000
-14.483800 0.000000
-14.439500 0.000000
-14.395200 0.000000
-14.351000 0.000000
-14.306700 0.000000
-14.262400 0.000000
-14.218100 0.000000
-14.173900 0.000000
-14.129600 0.000000
-14.085300 0.000000
-14.041000 0.000000
-13.996800 0.000000
-13.952500 0.000000
-13.908200 0.000000
-13.863900 0.000000
-13.819600 0.000000
-13.775400 0.000000
-13.731100 0.000000
-13.686800 0.000000
-13.642500 0.000000
-13.598300 0.000000
-13.554000 0.189900
-13.509700 0.371300
-13.465400 0.540100
-13.421200 0.725800
-13.376900 0.949000
-13.332600 1.279900
-13.288300 2.007300
-13.244100 2.058900
-13.199800 2.046300
-13.155500 2.042500
-13.111200 2.024300
-13.067000 2.020700
-13.022700 1.584800
-12.978400 1.134600
-12.934100 0.903900
-12.889800 0.724000
-12.845600 0.590600
-12.801300 0.472600
-12.757000 0.374100
-12.712700 0.273700
-12.668500 0.195100
-12.624200 0.000000
-12.579900 0.000000
-12.535600 0.000000
-12.491400 0.000000
-12.447100 0.000000
-12.402800 0.000000
-12.358500 0.000000
-12.314300 0.000000
-12.270000 0.000000
-12.225700 0.000000
-12.181400 0.000000
-12.137200 0.000000
-12.092900 0.000000
-12.048600 0.000000
-12.004300 0.000000
-11.960000 0.000000
-11.915800 0.000000
-11.871500 0.000000
-11.827200 0.000000
-11.782900 0.000000
-11.738700 0.000000
-11.694400 0.000000
-11.650100 0.000000
-11.605800 0.000000
-11.561600 0.000000
-11.517300 0.000000
-11.473000 0.000000
-11.428700 0.000000
-11.384500 0.000000
-11.340200 0.000000
-11.295900 0.000000
-11.251600 0.000000
-11.207400 0.000000
-11.163100 0.000000
-11.118800 0.000000
-11.074500 0.000000
-11.030200 0.000000
-10.986000 0.000000
-10.941700 0.000000
-10.897400 0.000000
-10.853100 0.000000
-10.808900 0.000000
-10.764600 0.000000
-10.720300 0.000000
-10.676000 0.000000
-10.631800 0.000000
-10.587500 0.000000
-10.543200 0.000000
-10.498900 0.000000
-10.454700 0.000000
-10.410400 0.000000
-10.366100 0.000000
-10.321800 0.000000
-10.277500 0.000000
-10.233300 0.000000
-10.189000 0.000000
-10.144700 0.000000
-10.100400 0.000000
-10.056200 0.000000
-10.011900 0.000000
-9.967600 0.000000
-9.923300 0.000000
-9.879100 0.000000
-9.834800 0.000000
-9.790500 0.000000
-9.746200 0.000000
-9.702000 0.000000
-9.657700 0.000000
-9.613400 0.000000
-9.569100 0.000000
-9.524900 0.000000
-9.480600 0.000000
-9.436300 0.000000
-9.392000 0.000000
-9.347700 0.000000
-9.303500 0.000000
-9.259200 0.000000
-9.214900 0.000000
-9.170600 0.000000
-9.126400 0.000000
-9.082100 0.000000
-9.037800 0.000000
-8.993500 0.000000
-8.949300 0.000000
-8.905000 0.000000
-8.860700 0.000000
-8.816400 0.000000
-8.772200 0.000000
-8.727900 0.000000
-8.683600 0.000000
-8.639300 0.000000
-8.595100 0.000000
-8.550800 0.000000
-8.506500 0.000000
-8.462200 0.000000
-8.417900 0.000000
-8.373700 0.000000
-8.329400 0.000000
-8.285100 0.000000
-8.240800 0.000000
-8.196600 0.000000
-8.152300 0.000000
-8.108000 0.000000
-8.063700 0.000000
-8.019500 0.000000
-7.975200 0.000000
-7.930900 0.000000
-7.886600 0.000000
-7.842400 0.000000
-7.798100 0.000000
-7.753800 0.000000
-7.709500 0.000000
-7.665300 0.000000
-7.621000 0.000000
-7.576700 0.000000
-7.532400 0.000000
-7.488100 0.000000
-7.443900 0.000000
-7.399600 0.000000
-7.355300 0.000000
-7.311000 0.000000
-7.266800 0.000000
-7.222500 0.000000
-7.178200 0.000000
-7.133900 0.000000
-7.089700 0.000000
-7.045400 0.000000
-7.001100 0.000000
-6.956800 0.000000
-6.912600 0.000000
-6.868300 0.000000
-6.824000 0.000000
-6.779700 0.000000
-6.735500 0.000000
-6.691200 0.000000
-6.646900 0.000000
-6.602600 0.000000
-6.558300 0.000000
-6.514100 0.000000
-6.469800 0.000000
-6.425500 0.000000
-6.381200 0.000000
-6.337000 0.000000
-6.292700 0.000000
-6.248400 0.000000
-6.204100 0.000000
-6.159900 0.000000
-6.115600 0.000000
-6.071300 0.000000
-6.027000 0.000000
-5.982800 0.000000
-5.938500 0.000000
-5.894200 0.000000
-5.849900 0.000000
-5.805700 0.000000
-5.761400 0.000000
-5.717100 0.000000
-5.672800 0.000000
-5.628500 0.801400
-5.584300 1.323700
-5.540000 1.115000
-5.495700 1.120100
-5.451400 1.180200
-5.407200 1.229500
-5.362900 1.346200
-5.318600 1.503500
-5.274300 1.961900
-5.230100 2.023300
-5.185800 1.933200
-5.141500 1.651900
-5.097200 1.374900
-5.053000 1.198300
-5.008700 1.065300
-4.964400 0.880600
-4.920100 0.557800
-4.875900 0.324400
-4.831600 0.149900
-4.787300 0.128600
-4.743000 0.313800
-4.698700 0.529000
-4.654500 0.797100
-4.610200 1.345400
-4.565900 1.854500
-4.521600 1.946300
-4.477400 1.847200
-4.433100 1.737200
-4.388800 1.609600
-4.344500 1.378300
-4.300300 1.227800
-4.256000 1.107100
-4.211700 1.010800
-4.167400 0.960400
-4.123200 0.929200
-4.078900 0.898700
-4.034600 0.886800
-3.990300 0.905300
-3.946100 0.884900
-3.901800 0.883500
-3.857500 0.918900
-3.813200 0.970500
-3.768900 1.058900
-3.724700 1.086500
-3.680400 1.219300
-3.636100 1.434500
-3.591800 1.759300
-3.547600 2.379300
-3.503300 2.035300
-3.459000 1.919700
-3.414700 1.676600
-3.370500 1.770200
-3.326200 1.401600
-3.281900 0.938700
-3.237600 0.694500
-3.193400 0.326400
-3.149100 0.000000
-3.104800 0.000000
-3.060500 0.000000
-3.016300 0.000000
-2.972000 0.000000
-2.927700 0.000000
-2.883400 0.000000
-2.839100 0.000000
-2.794900 0.000000
-2.750600 0.000000
-2.706300 0.000000
-2.662000 0.000000
-2.617800 0.000000
-2.573500 0.000000
-2.529200 0.000000
-2.484900 0.000000
-2.440700 0.000000
-2.396400 0.000000
-2.352100 0.000000
-2.307800 0.000000
-2.263600 0.000000
-2.219300 0.000000
-2.175000 0.000000
-2.130700 0.000000
-2.086500 0.000000
-2.042200 0.000000
-1.997900 0.000000
-1.953600 0.000000
-1.909300 0.000000
-1.865100 0.000000
-1.820800 0.000000
-1.776500 0.000000
-1.732200 0.000000
-1.688000 0.000000
-1.643700 0.000000
-1.599400 0.000000
-1.555100 0.000000
-1.510900 0.000000
-1.466600 0.000000
-1.422300 0.000000
-1.378000 0.000000
-1.333800 0.000000
-1.289500 0.000000
-1.245200 0.000000
-1.200900 0.000000
-1.156600 0.000000
-1.112400 0.000000
-1.068100 0.000000
-1.023800 0.000000
-0.979500 0.000000
-0.935300 0.000000
-0.891000 0.000000
-0.846700 0.000000
-0.802400 0.000000
-0.758200 0.000000
-0.713900 0.000000
-0.669600 0.000000
-0.625300 0.000000
-0.581100 0.000000
-0.536800 0.000000
-0.492500 0.000000
-0.448200 0.000000
-0.404000 0.000000
-0.359700 0.000000
-0.315400 0.000000
-0.271100 0.000000
-0.226800 0.000000
-0.182600 0.000000
-0.138300 0.000000
-0.094000 0.000000
-0.049700 0.000000
-0.005500 0.000000
0.038800 0.000000
0.083100 0.601700
0.127400 0.896300
0.171600 1.169000
0.215900 1.542300
0.260200 2.223500
0.304500 2.908400
0.348700 1.993500
0.393000 1.630200
0.437300 1.316900
0.481600 1.149100
0.525800 1.086200
0.570100 1.050000
0.614400 0.991300
0.658700 0.900400
0.703000 0.855600
0.747200 0.840300
0.791500 0.843600
0.835800 0.864100
0.880100 0.860800
0.924300 0.857000
0.968600 0.855400
1.012900 0.946700
1.057200 1.003900
1.101400 1.078800
1.145700 1.215200
1.190000 1.545800
1.234300 1.997200
1.278500 1.877500
1.322800 2.289500
1.367100 2.063700
1.411400 1.443500
1.455600 1.160700
1.499900 0.966500
1.544200 0.794700
1.588500 0.632700
1.632800 0.485400
1.677000 0.274800
1.721300 0.000000
1.765600 0.000000
1.809900 0.000000
1.854100 0.000000
1.898400 0.000000
1.942700 0.000000
1.987000 0.000000
2.031200 0.000000
2.075500 0.000000
2.119800 0.000000
2.164100 0.000000
2.208300 0.000000
2.252600 0.000000
2.296900 0.000000
2.341200 0.000000
2.385400 0.000000
2.429700 0.000000
2.474000 0.000000
2.518300 0.000000
2.562600 0.000000
2.606800 0.000000
2.651100 0.000000
2.695400 0.000000
2.739700 0.000000
2.783900 0.000000
2.828200 0.000000
2.872500 0.000000
2.916800 0.000000
2.961000 0.000000
3.005300 0.000000
3.049600 0.000000
3.093900 0.000000
3.138100 0.000000
3.182400 0.000000
3.226700 0.000000
3.271000 0.000000
3.315200 0.000000
3.359500 0.000000
3.403800 0.000000
3.448100 0.000000
3.492400 0.000000
3.536600 0.000000
3.580900 0.000000
3.625200 0.000000
3.669500 0.000000
3.713700 0.000000
3.758000 0.000000
3.802300 0.000000
3.846600 0.000000
3.890800 0.000000
3.935100 0.000000
3.979400 0.000000
4.023700 0.000000
4.067900 0.000000
4.112200 0.000000
4.156500 0.000000
4.200800 0.000000
4.245000 0.000000
4.289300 0.000000
4.333600 0.000000
4.377900 0.000000
4.422200 0.000000
4.466400 0.000000
4.510700 0.000000
4.555000 0.000000
4.599300 0.000000
4.643500 0.000000
4.687800 0.000000
4.732100 0.000000
4.776400 0.000000
4.820600 0.000000
4.864900 0.000000
4.909200 0.000000
4.953500 0.000100
4.997700 0.016700
5.042000 0.044000
5.086300 0.061700
5.130600 0.069900
5.174800 0.080100
5.219100 0.093700
5.263400 0.108000
5.307700 0.117600
5.352000 0.127100
5.396200 0.137400
5.440500 0.147600
5.484800 0.157300
5.529100 0.167300
5.573300 0.178900
5.617600 0.193800
5.661900 0.208100
5.706200 0.223400
5.750400 0.233900
5.794700 0.244700
5.839000 0.255700
5.883300 0.276000
5.927500 0.296000
5.971800 0.317300
6.016100 0.337900
6.060400 0.357700
6.104600 0.383900
6.148900 0.407000
6.193200 0.432400
6.237500 0.457500
6.281800 0.486000
6.326000 0.547900
6.370300 0.653200
6.414600 0.686700
6.458900 0.645600
6.503100 0.657700
6.547400 0.675000
6.591700 0.671500
6.636000 0.687900
6.680200 0.709000
6.724500 0.731500
6.768800 0.768700
6.813100 0.826800
6.857300 0.913300
6.901600 1.120900
6.945900 1.219500
6.990200 1.266900
7.034500 0.717500
7.078700 0.643300
7.123000 0.442600
7.167300 0.298200
7.211600 0.217800
7.255800 0.169000
7.300100 0.140100
7.344400 0.122100
7.388700 0.106800
7.432900 0.092100
7.477200 0.078300
7.521500 0.066700
7.565800 0.087500
7.610000 0.113400
7.654300 0.149200
7.698600 0.183400
7.742900 0.171500
7.787100 0.140400
7.831400 0.131700
7.875700 0.125600
7.920000 0.119500
7.964300 0.118400
8.008500 0.122100
8.052800 0.121700
8.097100 0.122100
8.141400 0.125900
8.185600 0.130200
8.229900 0.134600
8.274200 0.139100
8.318500 0.142900
8.362700 0.147800
8.407000 0.152000
8.451300 0.155900
8.495600 0.159300
8.539800 0.162800
8.584100 0.168000
8.628400 0.175100
8.672700 0.181500
8.716900 0.187900
8.761200 0.194400
8.805500 0.201000
8.849800 0.207700
8.894100 0.216200
8.938300 0.226700
8.982600 0.238000
9.026900 0.248400
9.071200 0.285600
9.115400 0.366700
9.159700 0.455000
9.204000 0.527900
9.248300 0.547300
9.292500 0.567400
9.336800 0.585100
9.381100 0.611600
9.425400 0.633800
9.469600 0.669800
9.513900 0.723900
9.558200 0.771000
9.602500 1.002700
9.646700 0.956800
9.691000 0.858100
9.735300 0.841400
9.779600 0.836200
9.823900 0.960100
9.868100 1.013200
9.912400 1.010700
9.956700 0.693700
10.001000 0.488900
10.045200 0.422900
10.089500 0.360800
10.133800 0.307100
10.178100 0.267600
10.222300 0.191800
10.266600 0.143900
10.310900 0.115000
10.355200 0.069900
10.399400 0.057500
10.443700 0.069000
10.488000 0.103100
10.532300 0.207400
10.576500 0.188100
10.620800 0.179800
10.665100 0.184000
10.709400 0.198800
10.753700 0.247000
10.797900 0.326500
10.842200 0.405700
10.886500 0.526000
10.930800 0.641700
10.975000 0.746100
11.019300 0.742500
11.063600 0.809800
11.107900 0.879700
11.152100 0.926400
11.196400 0.904400
11.240700 0.811800
11.285000 0.786500
11.329200 0.795600
11.373500 0.790800
11.417800 0.788100
11.462100 0.842100
11.506300 0.957800
11.550600 0.894800
11.594900 0.820900
11.639200 0.764600
11.683500 0.714700
11.727700 0.699800
11.772000 0.703800
11.816300 0.709100
11.860600 0.720900
11.904800 0.748700
11.949100 0.814000
11.993400 0.921200
12.037700 0.913600
12.081900 0.916900
12.126200 0.938500
12.170500 0.969400
12.214800 1.170500
12.259000 1.060800
12.303300 0.993100
12.347600 0.911400
12.391900 0.812900
12.436100 0.759100
12.480400 0.725700
12.524700 0.707800
12.569000 0.673700
12.613300 0.642000
12.657500 0.605500
12.701800 0.570900
12.746100 0.540800
12.790400 0.525000
12.834600 0.506100
12.878900 0.487500
12.923200 0.471500
12.967500 0.457800
13.011700 0.444500
13.056000 0.427600
13.100300 0.411200
13.144600 0.396400
13.188800 0.379100
13.233100 0.365900
13.277400 0.354600
13.321700 0.342400
13.365900 0.329900
13.410200 0.318300
13.454500 0.309100
13.498800 0.319300
13.543100 0.304000
13.587300 0.281100
13.631600 0.247600
13.675900 0.222800
13.720200 0.204100
13.764400 0.186700
13.808700 0.190100
13.853000 0.180500
13.897300 0.141600
13.941500 0.095000
13.985800 0.109900
14.030100 0.129600
14.074400 0.145600
14.118600 0.149500
14.162900 0.151200
14.207200 0.160200
14.251500 0.168500
14.295700 0.176500
14.340000 0.186100
14.384300 0.197600
14.428600 0.210500
14.472900 0.227500
14.517100 0.244200
14.561400 0.255600
14.605700 0.276700
14.650000 0.285600
14.694200 0.285500
14.738500 0.291000
14.782800 0.295200
14.827100 0.299200
14.871300 0.304100
14.915600 0.310000
14.959900 0.318100
15.004200 0.325700
15.048400 0.332200
15.092700 0.338100
15.137000 0.342800
15.181300 0.346600
15.225500 0.351700
15.269800 0.385500
15.314100 0.366200
15.358400 0.358000
15.402700 0.367600
15.446900 0.416600
15.491200 0.497500
15.535500 0.485100
15.579800 0.481100
15.624000 0.485800
15.668300 0.491700
15.712600 0.497700
15.756900 0.504000
15.801100 0.512800
15.845400 0.523900
15.889700 0.570200
15.934000 0.592000
15.978200 0.607800
16.022500 0.606300
16.066800 0.620900
16.111100 0.634200
16.155400 0.643600
16.199600 0.644900
16.243900 0.646800
16.288200 0.653100
16.332500 0.692400
16.376700 0.685800
16.421000 0.701500
16.465300 0.704800
16.509600 0.729800
16.553800 0.623300
16.598100 0.487400
16.642400 0.506100
16.686700 0.746500
16.730900 0.695200
16.775200 0.776700
16.819500 0.757700
16.863800 0.773600
16.908000 0.822000
16.952300 0.898800
16.996600 0.929600
17.040900 0.897200
17.085200 0.900900
17.129400 0.827100
17.173700 0.797300
17.218000 0.768300
17.262300 0.750900
17.306500 0.742500
17.350800 0.735200
17.395100 0.729900
17.439400 0.736700
17.483600 0.723300
17.527900 0.711100
17.572200 0.712500
17.616500 0.680000
17.660700 0.674800
17.705000 0.661400
17.749300 0.648000
17.793600 0.646200
17.837800 0.657200
17.882100 0.646800
17.926400 0.642200
17.970700 0.645300
18.015000 0.661000
18.059200 0.679000
18.103500 0.684900
18.147800 0.669600
18.192100 0.681000
18.236300 0.702400
18.280600 0.726500
18.324900 0.744800
18.369200 0.753200
18.413400 0.744100
18.457700 0.736500
18.502000 0.736100
18.546300 0.702600
18.590500 0.686000
18.634800 0.687500
18.679100 0.680500
18.723400 0.696400
18.767600 0.700200
18.811900 0.691900
18.856200 0.655000
18.900500 0.635900
18.944800 0.644000
18.989000 0.579000
19.033300 0.557700
19.077600 0.550700
19.121900 0.548000
19.166100 0.572400
19.210400 0.509900
19.254700 0.496800
19.299000 0.501100
19.343200 0.511000
19.387500 0.530500
19.431800 0.595700
19.476100 0.654700
19.520300 0.729800
19.564600 0.762900
19.608900 0.782300
19.653200 0.830000
19.697400 0.872800
19.741700 0.879800
19.786000 0.910200
19.830300 0.939800
19.874600 0.981000
19.918800 0.989300
19.963100 0.959900
20.007400 0.881500
20.051700 0.772200
20.095900 0.706200
20.140200 0.677900
20.184500 0.672800
20.228800 0.667200
20.273000 0.663400
20.317300 0.707400
20.361600 0.724900
20.405900 0.692400
20.450100 0.658200
20.494400 0.674900
20.538700 0.720800
20.583000 0.789000
20.627200 0.864500
20.671500 0.873400
20.715800 0.868400
20.760100 0.881100
20.804400 0.911800
20.848600 1.040800
20.892900 1.025000
20.937200 1.011100
20.981500 0.940000
21.025700 0.874900
21.070000 0.784600
21.114300 0.817600
21.158600 0.654700
21.202800 0.644100
21.247100 0.659300
21.291400 0.640700
21.335700 0.623400
21.379900 0.611900
21.424200 0.612300
21.468500 0.616000
21.512800 0.638500
21.557000 0.645800
21.601300 0.654800
21.645600 0.668900
21.689900 0.682500
21.734200 0.679600
21.778400 0.671200
21.822700 0.643800
21.867000 0.623100
21.911300 0.615900
21.955500 0.614200
21.999800 0.617000
22.044100 0.569600
22.088400 0.547200
22.132600 0.541500
22.176900 0.549200
22.221200 0.554100
22.265500 0.557600
22.309700 0.567900
22.354000 0.621000
22.398300 0.655400
22.442600 0.582400
22.486800 0.559200
22.531100 0.550900
22.575400 0.556400
22.619700 0.558300
22.664000 0.559200
22.708200 0.554500
22.752500 0.544600
22.796800 0.539700
22.841100 0.535100
22.885300 0.527800
22.929600 0.518600
22.973900 0.508400
23.018200 0.507000
23.062400 0.517800
23.106700 0.490700
23.151000 0.497400
23.195300 0.511800
23.239500 0.526300
23.283800 0.546100
23.328100 0.570900
23.372400 0.593600
23.416600 0.618100
23.460900 0.653200
23.505200 0.679500
23.549500 0.676300
23.593800 0.670000
23.638000 0.666000
23.682300 0.650800
23.726600 0.636000
23.770900 0.622000
23.815100 0.622300
23.859400 0.633300
23.903700 0.636500
23.948000 0.634100
23.992200 0.626300
24.036500 0.617300
24.080800 0.612500
24.125100 0.623000
24.169300 0.561700
24.213600 0.564100
24.257900 0.577000
24.302200 0.587600
24.346400 0.597200
24.390700 0.589900
24.435000 0.611200
24.479300 0.601500
24.523600 0.560400
24.567800 0.536000
24.612100 0.512300
24.656400 0.488300
24.700700 0.465500
24.744900 0.460400
24.789200 0.460900
24.833500 0.443700
24.877800 0.411000
24.922000 0.407700
24.966300 0.412400
25.010600 0.417500
25.054900 0.426700
25.099100 0.424100
25.143400 0.424400
25.187700 0.428100
25.232000 0.431800
25.276300 0.436800
25.320500 0.443400
25.364800 0.451600
25.409100 0.462300
25.453400 0.470900
25.497600 0.481900
25.541900 0.489300
25.586200 0.492100
25.630500 0.498300
25.674700 0.521400
25.719000 0.542200
25.763300 0.548300
25.807600 0.553600
25.851800 0.560100
25.896100 0.567000
25.940400 0.595200
25.984700 0.568400
26.028900 0.572100
26.073200 0.577200
26.117500 0.583700
26.161800 0.586000
26.206100 0.589300
26.250300 0.590700
26.294600 0.590000
26.338900 0.596600
26.383200 0.589700
26.427400 0.617500
26.471700 0.620500
26.516000 0.637900
26.560300 0.658300
26.604500 0.714600
26.648800 0.650900
26.693100 0.647200
26.737400 0.648700
26.781600 0.645700
26.825900 0.633900
26.870200 0.639600
26.914500 0.656400
26.958700 0.682600
27.003000 0.702700
27.047300 0.690200
27.091600 0.679800
27.135900 0.678800
27.180100 0.676100
27.224400 0.676400
27.268700 0.679900
27.313000 0.683400
27.357200 0.698400
27.401500 0.718800
27.445800 0.726000
27.490100 0.699300
27.534300 0.679300
27.578600 0.668500
27.622900 0.659100
27.667200 0.650500
27.711400 0.641100
27.755700 0.627400
27.800000 0.615200
27.844300 0.606400
27.888500 0.603900
27.932800 0.596500
27.977100 0.590100
28.021400 0.585600
28.065700 0.588900
28.109900 0.600500
28.154200 0.618400
28.198500 0.644600
28.242800 0.681800
28.287000 0.710900
28.331300 0.748400
28.375600 0.772800
28.419900 0.797400
28.464100 0.829500
28.508400 0.880700
28.552700 0.930100
28.597000 0.949300
28.641200 0.960700
28.685500 1.002100
28.729800 1.052800
28.774100 0.961400
28.818300 0.954800
28.862600 0.961900
28.906900 0.957200
28.951200 0.979000
28.995500 1.024800
29.039700 0.982200
29.084000 0.903100
29.128300 0.846900
29.172600 0.870000
29.216800 0.868500
29.261100 0.943700
29.305400 0.869400
29.349700 0.836400
29.393900 0.812800
29.438200 0.831300
29.482500 0.801600
29.526800 0.783100
29.571000 0.765000
29.615300 0.746200
29.659600 0.740900
29.703900 0.744000
29.748100 0.737700
29.792400 0.732100
29.836700 0.728900
29.881000 0.733800
29.925300 0.748700
29.969500 0.782600
30.013800 0.815700
30.058100 0.913500
30.102400 0.922900
30.146600 1.017800
30.190900 0.987800
30.235200 1.041400
30.279500 1.084700
30.323700 1.075700
30.368000 0.983900
30.412300 0.875500
30.456600 0.973700
30.500800 0.962200
30.545100 0.983900
30.589400 1.048300
30.633700 0.937500
30.677900 0.882600
30.722200 0.871100
30.766500 0.827800
30.810800 0.770700
30.855100 0.644100
30.899300 0.637700
30.943600 0.622000
30.987900 0.619400
31.032200 0.620000
31.076400 0.625200
31.120700 0.634800
31.165000 0.647200
31.209300 0.662900
31.253500 0.669500
31.297800 0.641700
31.342100 0.621700
31.386400 0.641800
31.430600 0.700300
31.474900 0.673500
31.519200 0.718100
31.563500 0.767200
31.607700 0.723100
31.652000 0.710800
31.696300 0.859400
31.740600 1.056400
31.784900 0.910200
31.829100 0.820500
31.873400 0.778600
31.917700 0.791700
31.962000 0.817400
32.006200 0.861600
32.050500 0.889500
32.094800 0.919100
32.139100 0.836400
32.183300 0.812300
32.227600 0.802800
32.271900 0.789200
32.316200 0.793600
32.360400 0.803600
32.404700 0.811500
32.449000 0.830500
32.493300 0.844200
32.537500 0.848400
32.581800 0.865300
32.626100 0.872400
32.670400 0.882000
32.714700 0.859900
32.758900 0.858900
32.803200 0.861900
32.847500 0.871500
32.891800 0.871100
32.936000 0.878400
32.980300 0.943800
33.024600 0.911700
33.068900 0.869600
33.113100 0.778900
33.157400 0.701400
33.201700 0.672900
33.246000 0.667200
33.290200 0.668200
33.334500 0.673100
33.378800 0.683400
33.423100 0.717900
33.467400 0.772200
33.511600 0.801800
33.555900 0.821400
33.600200 0.893000
33.644500 0.956800
33.688700 1.013600
33.733000 1.048600
33.777300 1.049500
33.821600 1.049800
33.865800 1.033400
33.910100 1.073800
33.954400 1.052300
33.998700 1.029900
34.042900 1.040100
34.087200 1.071600
34.131500 1.090800
34.175800 0.921800
34.220000 0.796700
34.264300 0.740000
34.308600 0.723900
34.352900 0.692800
34.397200 0.702600
34.441400 0.780400
34.485700 0.858800
34.530000 0.850000
34.574300 0.833500
34.618500 0.734200
34.662800 0.702900
34.707100 0.679300
34.751400 0.656200
34.795600 0.659800
34.839900 0.643500
34.884200 0.620900
34.928500 0.604200
34.972700 0.594400
35.017000 0.590800
35.061300 0.598200
35.105600 0.597300
35.149800 0.619600
35.194100 0.655300
35.238400 0.688700
35.282700 0.683000
35.327000 0.690200
35.371200 0.713700
35.415500 0.707400
35.459800 0.713900
35.504100 0.755400
35.548300 0.738500
35.592600 0.734200
35.636900 0.713400
35.681200 0.697900
35.725400 0.692400
35.769700 0.693500
35.814000 0.704200
35.858300 0.722100
35.902500 0.705600
35.946800 0.713200
35.991100 0.718200
36.035400 0.695300
36.079600 0.659000
36.123900 0.639900
36.168200 0.620500
36.212500 0.597600
36.256800 0.557700
36.301000 0.549900
36.345300 0.557200
36.389600 0.578000
36.433900 0.613800
36.478100 0.672400
36.522400 0.734900
36.566700 0.777000
36.611000 0.821700
36.655200 0.869400
36.699500 0.913700
36.743800 0.960700
36.788100 1.020500
36.832300 1.129500
36.876600 1.274200
36.920900 1.487200
36.965200 1.925000
37.009400 5.693900
37.053700 14.865400
37.098000 2.350400
37.142300 1.657200
37.186600 1.416200
37.230800 1.293800
37.275100 1.230100
37.319400 1.147700
37.363700 1.034300
37.407900 0.934400
37.452200 0.861100
37.496500 0.742800
37.540800 0.676700
37.585000 0.664300
37.629300 0.655000
37.673600 0.659400
37.717900 0.641500
37.762100 0.658600
37.806400 0.684100
37.850700 0.702000
37.895000 0.719600
37.939200 0.739900
37.983500 0.765500
38.027800 0.812300
38.072100 0.855900
38.116400 0.851100
38.160600 0.817300
38.204900 0.775500
38.249200 0.744100
38.293500 0.747400
38.337700 0.763900
38.382000 0.762100
38.426300 0.773800
38.470600 0.790200
38.514800 0.840200
38.559100 0.755900
38.603400 0.732100
38.647700 0.726500
38.691900 0.751900
38.736200 0.789200
38.780500 0.799100
38.824800 0.781600
38.869000 0.818000
38.913300 0.831400
38.957600 0.834100
39.001900 0.868100
39.046200 0.922300
39.090400 0.929100
39.134700 0.943300
39.179000 1.014000
39.223300 1.098600
39.267500 0.840800
39.311800 0.794600
39.356100 0.763200
39.400400 0.720700
39.444600 0.671300
39.488900 0.684800
39.533200 0.708900
39.577500 0.740200
39.621700 0.773200
39.666000 0.804700
39.710300 0.905500
39.754600 0.943600
39.798800 0.952300
39.843100 1.004900
39.887400 0.974100
39.931700 0.987400
39.976000 0.987500
40.020200 0.982300
40.064500 0.922600
40.108800 0.970200
40.153100 0.938400
40.197300 0.930000
40.241600 0.943200
40.285900 0.963100
40.330200 0.968300
40.374400 0.962000
40.418700 0.976600
40.463000 1.025400
40.507300 1.045300
40.551500 1.072700
40.595800 1.089700
40.640100 1.132200
40.684400 1.141100
40.728600 1.099700
40.772900 1.072600
40.817200 0.982100
40.861500 0.986700
40.905800 1.002000
40.950000 0.974200
40.994300 0.982400
41.038600 0.944300
41.082900 0.886500
41.127100 0.827500
41.171400 0.782600
41.215700 0.761400
41.260000 0.777000
41.304200 0.792400
41.348500 0.801100
41.392800 0.816400
41.437100 0.813800
41.481300 0.839000
41.525600 0.864100
41.569900 0.852800
41.614200 0.831700
41.658400 0.812500
41.702700 0.796500
41.747000 0.833600
41.791300 0.855300
41.835600 0.898500
41.879800 0.934800
41.924100 0.945500
41.968400 0.968100
42.012700 0.957200
42.056900 0.934600
42.101200 0.903300
42.145500 0.903800
42.189800 0.907700
42.234000 0.887200
42.278300 0.866000
42.322600 0.832400
42.366900 0.804900
42.411100 0.792400
42.455400 0.788900
42.499700 0.788800
42.544000 0.801600
42.588300 0.852300
42.632500 0.868500
42.676800 0.885400
42.721100 0.903400
42.765400 0.885500
42.809600 0.867300
42.853900 0.876700
42.898200 0.932300
42.942500 0.928400
42.986700 0.893300
43.031000 0.897900
43.075300 0.881700
43.119600 0.824300
43.163800 0.812500
43.208100 0.843200
43.252400 0.888100
43.296700 0.966900
43.340900 1.024900
43.385200 1.068600
43.429500 1.095400
43.473800 1.114900
43.518100 1.098900
43.562300 1.074800
43.606600 1.101400
43.650900 1.131400
43.695200 1.137500
43.739400 1.121400
43.783700 1.096900
43.828000 1.069400
43.872300 1.034700
43.916500 1.032800
43.960800 1.045700
44.005100 1.000200
44.049400 1.049400
44.093600 1.091500
44.137900 1.093300
44.182200 1.117700
44.226500 1.158200
44.270700 1.164300
44.315000 1.192000
44.359300 1.261200
44.403600 1.300400
44.447900 1.325100
44.492100 1.344800
44.536400 1.277100
44.580700 1.243600
44.625000 1.418700
44.669200 1.546200
44.713500 1.502300
44.757800 1.270200
44.802100 1.185800
44.846300 1.141700
44.890600 1.121900
44.934900 1.106800
44.979200 1.139700
45.023400 1.190100
45.067700 1.164400
45.112000 1.206500
45.156300 1.218900
45.200500 1.170300
45.244800 1.153800
45.289100 1.165500
45.333400 1.151500
45.377700 1.165700
45.421900 1.175700
45.466200 1.168300
45.510500 1.160000
45.554800 1.160200
45.599000 1.235200
45.643300 1.187300
45.687600 1.152700
45.731900 1.154900
45.776100 1.183000
45.820400 1.223600
45.864700 1.211000
45.909000 1.211400
45.953200 1.210900
45.997500 1.202000
46.041800 1.174000
46.086100 1.190000
46.130300 1.237200
46.174600 1.266000
46.218900 1.237500
46.263200 1.214200
46.307500 1.216400
46.351700 1.222300
46.396000 1.208000
46.440300 1.227100
46.484600 1.234100
46.528800 1.249800
46.573100 1.283700
46.617400 1.257400
46.661700 1.306000
46.705900 1.393300
46.750200 1.458100
46.794500 1.447200
46.838800 1.444000
46.883000 1.347000
46.927300 1.392300
46.971600 1.415900
47.015900 1.463100
47.060100 1.496100
47.104400 1.692500
47.148700 1.627700
47.193000 1.575600
47.237300 1.388100
47.281500 1.223900
47.325800 1.125300
47.370100 1.078600
47.414400 1.082800
47.458600 1.029800
47.502900 1.022100
47.547200 0.947500
47.591500 0.895400
47.635700 0.860800
47.680000 0.866400
47.724300 0.900600
47.768600 0.843900
47.812800 0.838700
47.857100 0.856700
47.901400 0.887400
47.945700 0.967500
47.989900 0.972300
48.034200 1.009700
48.078500 1.079700
48.122800 1.112400
48.167100 1.130500
48.211300 1.144900
48.255600 1.147400
48.299900 1.169400
48.344200 1.025100
48.388400 0.924900
48.432700 0.868600
48.477000 0.822800
48.521300 0.811200
48.565500 0.818300
48.609800 0.848200
48.654100 0.866100
48.698400 0.890400
48.742600 0.898400
48.786900 0.919000
48.831200 0.921900
48.875500 0.908600
48.919700 0.889400
48.964000 0.894900
49.008300 0.908000
49.052600 0.931700
49.096900 0.955400
49.141100 0.970800
49.185400 0.964500
49.229700 0.908900
49.274000 0.864900
49.318200 0.835500
49.362500 0.798500
49.406800 0.784700
49.451100 0.786800
49.495300 0.784000
49.539600 0.784200
49.583900 0.807400
49.628200 0.823200
49.672400 0.820500
49.716700 0.811600
49.761000 0.834300
49.805300 0.849700
49.849500 0.863700
49.893800 0.890900
49.938100 0.925800
49.982400 0.940900
50.026700 0.923500
50.070900 0.850800
50.115200 0.782500
50.159500 0.702100
50.203800 0.654300
50.248000 0.625000
50.292300 0.628600
50.336600 0.623300
50.380900 0.585900
50.425100 0.583200
50.469400 0.590400
50.513700 0.591600
50.558000 0.586600
50.602200 0.584400
50.646500 0.601900
50.690800 0.615700
50.735100 0.617500
50.779300 0.645000
50.823600 0.667200
50.867900 0.685800
50.912200 0.704300
50.956500 0.731800
51.000700 0.765100
51.045000 0.783900
51.089300 0.791600
51.133600 0.758100
51.177800 0.714600
51.222100 0.695000
51.266400 0.704800
51.310700 0.731700
51.354900 0.767800
51.399200 0.846500
51.443500 0.918400
51.487800 0.972700
51.532000 1.009300
51.576300 1.032000
51.620600 1.006900
51.664900 0.974600
51.709200 0.946700
51.753400 0.942800
51.797700 1.006600
51.842000 0.948700
51.886300 0.885700
51.930500 0.930900
51.974800 0.976800
52.019100 1.060400
52.063400 1.143300
52.107600 1.161800
52.151900 1.168800
52.196200 1.173200
52.240500 1.180700
52.284700 1.187100
52.329000 1.198000
52.373300 1.242600
52.417600 1.142800
52.461800 1.052600
52.506100 1.030500
52.550400 1.033900
52.594700 1.114800
52.639000 1.068500
52.683200 1.044700
52.727500 1.018000
52.771800 0.994100
52.816100 0.991300
52.860300 0.978500
52.904600 0.928100
52.948900 0.864800
52.993200 0.867100
53.037400 0.888900
53.081700 0.917800
53.126000 0.925700
53.170300 0.925000
53.214500 0.922200
53.258800 0.916000
53.303100 0.935000
53.347400 1.014900
53.391600 0.913000
53.435900 0.871600
53.480200 0.857100
53.524500 0.848500
53.568800 0.815200
53.613000 0.782300
53.657300 0.733300
53.701600 0.728800
53.745900 0.721800
53.790100 0.714500
53.834400 0.714600
53.878700 0.721200
53.923000 0.744200
53.967200 0.776100
54.011500 0.813000
54.055800 0.863100
54.100100 0.911300
54.144300 0.942000
54.188600 0.994000
54.232900 0.905000
54.277200 0.841700
54.321400 0.805300
54.365700 0.718100
54.410000 0.687400
54.454300 0.675300
54.498600 0.645400
54.542800 0.614900
54.587100 0.582800
54.631400 0.556400
54.675700 0.547200
54.719900 0.529400
54.764200 0.514800
54.808500 0.532000
54.852800 0.550300
54.897000 0.524800
54.941300 0.507100
54.985600 0.485600
55.029900 0.469700
55.074100 0.453600
55.118400 0.439200
55.162700 0.427600
55.207000 0.420900
55.251200 0.417900
55.295500 0.417900
55.339800 0.422700
55.384100 0.432100
55.428400 0.448000
55.472600 0.472200
55.516900 0.479800
55.561200 0.540300
55.605500 0.545000
55.649700 0.517600
55.694000 0.470900
55.738300 0.430300
55.782600 0.398000
55.826800 0.372400
55.871100 0.349400
55.915400 0.328500
55.959700 0.313000
56.003900 0.295600
56.048200 0.283000
56.092500 0.271200
56.136800 0.258000
56.181000 0.216600
56.225300 0.178000
56.269600 0.159200
56.313900 0.145400
56.358200 0.133400
56.402400 0.122900
56.446700 0.104000
56.491000 0.098000
56.535300 0.093400
56.579500 0.089000
56.623800 0.084500
56.668100 0.080300
56.712400 0.077500
56.756600 0.074500
56.800900 0.071300
56.845200 0.068300
56.889500 0.065600
56.933700 0.062900
56.978000 0.060700
57.022300 0.059200
57.066600 0.056100
57.110800 0.052400
57.155100 0.048700
57.199400 0.044700
57.243700 0.040300
57.288000 0.035700
57.332200 0.031300
57.376500 0.029600
57.420800 0.028200
57.465100 0.026800
57.509300 0.025400
57.553600 0.024000
57.597900 0.022600
57.642200 0.021200
57.686400 0.019900
57.730700 0.018600
57.775000 0.017600
57.819300 0.016500
57.863500 0.015000
57.907800 0.011400
57.952100 0.010400
57.996400 0.009100
58.040600 0.007600
58.084900 0.006000
58.129200 0.004300
58.173500 0.002500
58.217800 0.000500
58.262000 0.000000
58.306300 0.000000
58.350600 0.000000
58.394900 0.000000
58.439100 0.000000
58.483400 0.000000
58.527700 0.000000
58.572000 0.000000
58.616200 0.000000
58.660500 0.000000
58.704800 0.000000
58.749100 0.000000
58.793300 0.000000
58.837600 0.000000
58.881900 0.000000
58.926200 0.000000
58.970400 0.000000
59.014700 0.000000
59.059000 0.000000
59.103300 0.000000
59.147600 0.000000
59.191800 0.000000
59.236100 0.000000
59.280400 0.000000
59.324700 0.000000
59.368900 0.000000
59.413200 0.000000
59.457500 0.000000
59.501800 0.000000
59.546000 0.000000
59.590300 0.000000
59.634600 0.000000
59.678900 0.000000
59.723100 0.000000
59.767400 0.000000
59.811700 0.000000
59.856000 0.000000
59.900200 0.000000
59.944500 0.000000
59.988800 0.000000
60.033100 0.000000
60.077400 0.000000
60.121600 0.000000
60.165900 0.000000
60.210200 0.000000
60.254500 0.000000
60.298700 0.000000
60.343000 0.000000
60.387300 0.000000
60.431600 0.000000
60.475800 0.000000
60.520100 0.000000
60.564400 0.000000
60.608700 0.000000
60.652900 0.000000
60.697200 0.000000
60.741500 0.000000
60.785800 0.000000
60.830100 0.000000
60.874300 0.000000
60.918600 0.000000
60.962900 0.000000
61.007200 0.000000
61.051400 0.000000
61.095700 0.000000
61.140000 0.000000
61.184300 0.000000
61.228500 0.000000
61.272800 0.000000
61.317100 0.000000
61.361400 0.000000
61.405600 0.000000
61.449900 0.000000
61.494200 0.000000
61.538500 0.000000
61.582700 0.000000
61.627000 0.000000
61.671300 0.000000
61.715600 0.000000
61.759900 0.000000
61.804100 0.000000
61.848400 0.000000
61.892700 0.000000
61.937000 0.000000
61.981200 0.000000
62.025500 0.000000
62.069800 0.000000
62.114100 0.000000
62.158300 0.000000
62.202600 0.000000
62.246900 0.000000
62.291200 0.000000
62.335400 0.000000
62.379700 0.000000
62.424000 0.000000
62.468300 0.000000
e
