set title 'mp-1147746 - Density of States'
set xlabel 'Energy (eV)'
set ylabel 'DOS (states/eV)'
set grid
set xrange [-10:10]
set yrange [0:16.513]
set xzeroaxis lt -1
set terminal png size 800,600
set output 'mp-1147746_dos_gnuplot.png'
plot '-' using 1:2 with lines title 'DOS'
-12.963800 0.000000
-12.939400 0.000000
-12.915000 0.000000
-12.890600 0.000000
-12.866300 0.000000
-12.841900 0.000000
-12.817500 0.000000
-12.793100 0.000000
-12.768700 0.000000
-12.744300 0.000000
-12.719900 0.000000
-12.695500 0.000000
-12.671100 0.000000
-12.646700 0.000000
-12.622300 0.000000
-12.597900 0.000000
-12.573500 0.000000
-12.549100 0.000000
-12.524700 0.000000
-12.500300 0.000000
-12.475900 0.000000
-12.451500 0.000000
-12.427100 0.000000
-12.402700 0.000000
-12.378300 0.000000
-12.353900 0.000000
-12.329500 0.000000
-12.305100 0.000000
-12.280700 0.000000
-12.256300 0.000000
-12.231900 0.000000
-12.207600 0.000000
-12.183200 0.000000
-12.158800 0.000000
-12.134400 0.000000
-12.110000 0.000000
-12.085600 0.000000
-12.061200 0.000000
-12.036800 0.000000
-12.012400 0.000000
-11.988000 0.000000
-11.963600 0.000000
-11.939200 0.000000
-11.914800 0.000000
-11.890400 0.000000
-11.866000 0.000000
-11.841600 0.000000
-11.817200 0.000000
-11.792800 0.000000
-11.768400 0.000000
-11.744000 0.000000
-11.719600 0.000000
-11.695200 0.000000
-11.670800 0.000000
-11.646400 0.000000
-11.622000 0.000000
-11.597600 0.000000
-11.573300 0.000000
-11.548900 0.000000
-11.524500 0.000000
-11.500100 0.000000
-11.475700 0.000000
-11.451300 0.000000
-11.426900 0.000000
-11.402500 0.000000
-11.378100 0.000000
-11.353700 0.000000
-11.329300 0.000000
-11.304900 0.000000
-11.280500 0.000000
-11.256100 0.000000
-11.231700 0.000000
-11.207300 0.000000
-11.182900 0.000000
-11.158500 0.000000
-11.134100 0.000000
-11.109700 0.000000
-11.085300 0.000000
-11.060900 0.000000
-11.036500 0.000000
-11.012100 0.000000
-10.987700 0.000000
-10.963300 0.000000
-10.939000 0.000000
-10.914600 0.000000
-10.890200 0.000000
-10.865800 0.000000
-10.841400 0.000000
-10.817000 0.000000
-10.792600 0.000000
-10.768200 0.000000
-10.743800 0.000900
-10.719400 0.121400
-10.695000 0.318700
-10.670600 0.380000
-10.646200 0.457900
-10.621800 0.546700
-10.597400 0.643600
-10.573000 0.721200
-10.548600 0.802300
-10.524200 0.907200
-10.499800 1.074800
-10.475400 1.133000
-10.451000 1.118300
-10.426600 1.165200
-10.402200 1.186600
-10.377800 1.185700
-10.353400 1.185200
-10.329000 1.206400
-10.304600 1.226900
-10.280300 1.250200
-10.255900 1.273400
-10.231500 1.293500
-10.207100 1.310200
-10.182700 1.330000
-10.158300 1.351300
-10.133900 1.374700
-10.109500 1.403200
-10.085100 1.431400
-10.060700 1.459200
-10.036300 1.486000
-10.011900 1.516000
-9.987500 1.548000
-9.963100 1.584300
-9.938700 1.626400
-9.914300 1.668800
-9.889900 1.713800
-9.865500 1.764400
-9.841100 1.820900
-9.816700 1.873700
-9.792300 1.924000
-9.767900 1.978300
-9.743500 2.640500
-9.719100 2.647700
-9.694700 2.918600
-9.670300 2.209800
-9.646000 1.991200
-9.621600 1.812500
-9.597200 1.675200
-9.572800 1.956000
-9.548400 4.865100
-9.524000 4.796800
-9.499600 5.868700
-9.475200 7.040100
-9.450800 7.273100
-9.426400 7.303800
-9.402000 7.546700
-9.377600 7.636200
-9.353200 7.926200
-9.328800 8.526300
-9.304400 8.956000
-9.280000 10.050600
-9.255600 7.358600
-9.231200 0.000000
-9.206800 0.000000
-9.182400 0.000000
-9.158000 0.000000
-9.133600 0.000000
-9.109200 0.000000
-9.084800 0.000000
-9.060400 0.000000
-9.036000 0.000000
-9.011700 0.000000
-8.987300 0.000000
-8.962900 0.000000
-8.938500 0.000000
-8.914100 0.000000
-8.889700 0.000000
-8.865300 0.000000
-8.840900 0.000000
-8.816500 0.000000
-8.792100 0.000000
-8.767700 0.000000
-8.743300 0.000000
-8.718900 0.000000
-8.694500 0.000000
-8.670100 0.000000
-8.645700 0.000000
-8.621300 0.000000
-8.596900 0.000000
-8.572500 0.000000
-8.548100 0.000000
-8.523700 0.000000
-8.499300 0.000000
-8.474900 0.000000
-8.450500 0.000000
-8.426100 0.000000
-8.401700 0.000000
-8.377300 0.000000
-8.353000 0.000000
-8.328600 0.000000
-8.304200 0.000000
-8.279800 0.000000
-8.255400 0.000000
-8.231000 0.000000
-8.206600 0.000000
-8.182200 0.000000
-8.157800 0.000000
-8.133400 0.000000
-8.109000 0.000000
-8.084600 0.000000
-8.060200 0.000000
-8.035800 0.000000
-8.011400 0.000000
-7.987000 0.000000
-7.962600 0.000000
-7.938200 0.000000
-7.913800 0.000000
-7.889400 0.000000
-7.865000 0.000000
-7.840600 0.000000
-7.816200 0.000000
-7.791800 0.000000
-7.767400 0.000000
-7.743000 0.000000
-7.718700 0.000000
-7.694300 0.000000
-7.669900 0.000000
-7.645500 0.000000
-7.621100 0.000000
-7.596700 0.000000
-7.572300 0.000000
-7.547900 0.000000
-7.523500 0.000000
-7.499100 0.000000
-7.474700 0.000000
-7.450300 0.000000
-7.425900 0.000000
-7.401500 0.000000
-7.377100 0.000000
-7.352700 0.000000
-7.328300 0.000000
-7.303900 0.000000
-7.279500 0.000000
-7.255100 0.000000
-7.230700 0.000000
-7.206300 0.000000
-7.181900 0.000000
-7.157500 0.000000
-7.133100 0.000000
-7.108700 0.000000
-7.084400 0.000000
-7.060000 0.000000
-7.035600 0.000000
-7.011200 0.000000
-6.986800 0.000000
-6.962400 0.000000
-6.938000 0.000000
-6.913600 0.000000
-6.889200 0.000000
-6.864800 0.000000
-6.840400 0.000000
-6.816000 0.000000
-6.791600 0.000000
-6.767200 0.000000
-6.742800 0.000000
-6.718400 0.000000
-6.694000 0.000000
-6.669600 0.000000
-6.645200 0.000000
-6.620800 0.000000
-6.596400 0.000000
-6.572000 0.000000
-6.547600 0.000000
-6.523200 0.000000
-6.498800 0.000000
-6.474400 0.000000
-6.450000 0.000000
-6.425700 0.000000
-6.401300 0.000000
-6.376900 0.000000
-6.352500 0.000000
-6.328100 0.000000
-6.303700 0.000000
-6.279300 0.000000
-6.254900 0.000000
-6.230500 0.000000
-6.206100 0.000000
-6.181700 0.000000
-6.157300 0.000000
-6.132900 0.000000
-6.108500 0.000000
-6.084100 0.000000
-6.059700 0.000000
-6.035300 0.000000
-6.010900 0.000000
-5.986500 0.000000
-5.962100 0.000000
-5.937700 0.000000
-5.913300 0.000000
-5.888900 0.000000
-5.864500 0.000000
-5.840100 0.000000
-5.815700 0.000000
-5.791400 0.000000
-5.767000 0.000000
-5.742600 0.000000
-5.718200 0.000000
-5.693800 0.000000
-5.669400 0.000000
-5.645000 0.000000
-5.620600 0.000000
-5.596200 0.000000
-5.571800 0.000000
-5.547400 0.000000
-5.523000 0.000000
-5.498600 0.000000
-5.474200 0.000000
-5.449800 0.000000
-5.425400 0.000000
-5.401000 0.000000
-5.376600 0.000000
-5.352200 0.000000
-5.327800 0.000000
-5.303400 0.000000
-5.279000 0.000000
-5.254600 0.000000
-5.230200 0.000000
-5.205800 0.000000
-5.181400 0.000000
-5.157100 0.000000
-5.132700 0.000000
-5.108300 0.000000
-5.083900 0.000000
-5.059500 0.000000
-5.035100 0.000000
-5.010700 0.000000
-4.986300 0.000000
-4.961900 0.000000
-4.937500 0.000000
-4.913100 0.000000
-4.888700 0.000000
-4.864300 0.000000
-4.839900 0.000000
-4.815500 0.000000
-4.791100 0.000000
-4.766700 0.000000
-4.742300 0.000000
-4.717900 0.000000
-4.693500 0.000000
-4.669100 0.000000
-4.644700 0.000000
-4.620300 0.000000
-4.595900 0.000000
-4.571500 0.000000
-4.547100 0.000000
-4.522700 0.000000
-4.498400 0.000000
-4.474000 0.000000
-4.449600 0.000000
-4.425200 0.000000
-4.400800 0.000000
-4.376400 0.000000
-4.352000 0.000000
-4.327600 0.000000
-4.303200 0.000000
-4.278800 0.000000
-4.254400 0.000000
-4.230000 0.000000
-4.205600 0.000000
-4.181200 0.000000
-4.156800 0.000000
-4.132400 0.000000
-4.108000 0.000000
-4.083600 0.000000
-4.059200 0.000000
-4.034800 0.000000
-4.010400 0.000000
-3.986000 0.000000
-3.961600 0.000000
-3.937200 0.000000
-3.912800 0.000000
-3.888400 0.000000
-3.864100 0.000000
-3.839700 0.000000
-3.815300 0.000000
-3.790900 0.000000
-3.766500 0.000000
-3.742100 0.000000
-3.717700 0.000000
-3.693300 0.000000
-3.668900 0.000000
-3.644500 0.000000
-3.620100 0.000000
-3.595700 0.000000
-3.571300 0.000000
-3.546900 0.000000
-3.522500 0.000000
-3.498100 0.000000
-3.473700 0.000000
-3.449300 0.000000
-3.424900 0.000000
-3.400500 0.000000
-3.376100 0.000000
-3.351700 0.000000
-3.327300 0.000000
-3.302900 0.000000
-3.278500 0.000000
-3.254100 0.000000
-3.229800 0.000000
-3.205400 0.000000
-3.181000 0.000000
-3.156600 0.000000
-3.132200 0.000000
-3.107800 0.000000
-3.083400 0.000000
-3.059000 0.000000
-3.034600 0.000000
-3.010200 0.000000
-2.985800 0.000000
-2.961400 0.000000
-2.937000 0.000000
-2.912600 0.000000
-2.888200 0.000000
-2.863800 0.000000
-2.839400 0.000000
-2.815000 0.000000
-2.790600 0.000000
-2.766200 0.000000
-2.741800 0.000000
-2.717400 0.000000
-2.693000 0.000000
-2.668600 0.000000
-2.644200 0.000000
-2.619800 0.000000
-2.595400 0.000000
-2.571100 0.000000
-2.546700 0.000000
-2.522300 0.000000
-2.497900 0.000000
-2.473500 0.000000
-2.449100 0.000000
-2.424700 0.000000
-2.400300 0.000000
-2.375900 0.000000
-2.351500 0.377500
-2.327100 0.441200
-2.302700 0.624800
-2.278300 0.823600
-2.253900 0.975800
-2.229500 1.100800
-2.205100 1.302300
-2.180700 1.557000
-2.156300 1.887600
-2.131900 2.374800
-2.107500 2.388900
-2.083100 2.563500
-2.058700 2.682000
-2.034300 2.749200
-2.009900 2.864100
-1.985500 4.812000
-1.961100 3.986700
-1.936800 4.570900
-1.912400 4.522300
-1.888000 4.454200
-1.863600 4.382100
-1.839200 4.215300
-1.814800 4.353100
-1.790400 4.405100
-1.766000 4.413200
-1.741600 4.439200
-1.717200 4.497900
-1.692800 4.575900
-1.668400 4.657600
-1.644000 4.754800
-1.619600 5.031500
-1.595200 5.547400
-1.570800 6.687600
-1.546400 6.121300
-1.522000 5.137700
-1.497600 3.925900
-1.473200 3.137600
-1.448800 2.331300
-1.424400 1.939100
-1.400000 1.763300
-1.375600 1.692200
-1.351200 1.695700
-1.326800 1.811100
-1.302500 1.768700
-1.278100 1.702600
-1.253700 1.630600
-1.229300 1.588500
-1.204900 1.546100
-1.180500 1.483200
-1.156100 1.422600
-1.131700 1.404400
-1.107300 1.351800
-1.082900 1.224800
-1.058500 1.171300
-1.034100 1.125100
-1.009700 1.044700
-0.985300 0.962300
-0.960900 0.910700
-0.936500 0.958800
-0.912100 1.161300
-0.887700 1.460500
-0.863300 1.809700
-0.838900 1.783100
-0.814500 1.923900
-0.790100 2.048900
-0.765700 2.132500
-0.741300 2.177100
-0.716900 2.248000
-0.692500 2.366500
-0.668100 2.476200
-0.643800 3.325000
-0.619400 4.702600
-0.595000 6.689400
-0.570600 9.371400
-0.546200 6.482500
-0.521800 5.314100
-0.497400 6.470900
-0.473000 8.048700
-0.448600 9.692400
-0.424200 11.582200
-0.399800 11.941800
-0.375400 11.789200
-0.351000 8.752900
-0.326600 8.028100
-0.302200 7.364700
-0.277800 6.544900
-0.253400 6.023900
-0.229000 6.010800
-0.204600 6.542400
-0.180200 6.976100
-0.155800 6.523400
-0.131400 6.459500
-0.107000 6.805300
-0.082600 7.073000
-0.058200 7.423700
-0.033800 8.017300
-0.009500 9.044800
0.014900 9.371300
0.039300 9.025400
0.063700 9.101300
0.088100 8.697500
0.112500 8.794600
0.136900 8.420300
0.161300 6.732600
0.185700 5.135900
0.210100 4.146300
0.234500 3.399600
0.258900 3.074200
0.283300 2.828700
0.307700 2.624600
0.332100 2.441100
0.356500 2.243300
0.380900 2.123100
0.405300 2.021800
0.429700 1.904700
0.454100 1.785900
0.478500 1.681500
0.502900 1.589600
0.527300 1.543700
0.551700 1.459500
0.576100 1.305900
0.600500 1.087600
0.624800 0.892500
0.649200 0.727500
0.673600 0.626900
0.698000 0.506500
0.722400 0.405300
0.746800 0.322800
0.771200 0.290000
0.795600 0.138700
0.820000 0.135600
0.844400 0.082300
0.868800 0.000000
0.893200 0.000000
0.917600 0.641400
0.942000 1.227400
0.966400 0.920800
0.990800 0.936600
1.015200 1.050200
1.039600 1.163700
1.064000 1.117800
1.088400 1.073200
1.112800 1.089000
1.137200 1.104800
1.161600 1.124500
1.186000 1.195200
1.210400 1.268600
1.234800 1.327300
1.259200 1.249500
1.283500 1.229700
1.307900 1.279500
1.332300 1.325200
1.356700 1.353500
1.381100 1.381800
1.405500 1.426600
1.429900 1.506900
1.454300 1.590300
1.478700 1.625300
1.503100 1.602400
1.527500 1.637700
1.551900 1.752300
1.576300 1.835600
1.600700 1.896000
1.625100 1.996500
1.649500 2.148200
1.673900 2.323000
1.698300 2.485600
1.722700 2.866300
1.747100 3.162700
1.771500 3.394800
1.795900 4.185600
1.820300 5.147500
1.844700 4.699100
1.869100 3.708500
1.893500 3.431200
1.917800 3.216800
1.942200 3.125300
1.966600 3.212900
1.991000 4.157200
2.015400 3.793700
2.039800 3.726300
2.064200 3.518700
2.088600 2.667700
2.113000 2.731000
2.137400 2.778200
2.161800 2.921600
2.186200 3.008500
2.210600 3.054900
2.235000 3.174000
2.259400 3.174200
2.283800 3.329700
2.308200 3.417000
2.332600 3.543300
2.357000 3.707900
2.381400 3.711100
2.405800 3.650800
2.430200 3.758200
2.454600 3.926300
2.479000 4.212900
2.503400 4.450900
2.527800 4.724200
2.552100 4.916300
2.576500 5.289300
2.600900 5.739500
2.625300 6.208600
2.649700 6.836800
2.674100 7.539100
2.698500 7.847800
2.722900 7.355200
2.747300 6.724600
2.771700 6.338500
2.796100 7.214400
2.820500 11.562500
2.844900 13.274200
2.869300 15.011700
2.893700 13.618700
2.918100 13.127300
2.942500 13.272400
2.966900 12.274500
2.991300 11.516500
3.015700 10.120100
3.040100 9.587900
3.064500 8.927500
3.088900 9.234900
3.113300 9.730100
3.137700 10.728600
3.162100 12.086200
3.186500 7.430400
3.210800 6.201300
3.235200 5.459400
3.259600 5.050600
3.284000 5.003600
3.308400 5.019400
3.332800 4.905500
3.357200 4.660300
3.381600 4.531400
3.406000 4.712400
3.430400 4.125800
3.454800 3.111300
3.479200 2.638100
3.503600 2.044300
3.528000 1.897300
3.552400 1.902500
3.576800 1.836100
3.601200 1.830600
3.625600 1.803900
3.650000 1.769500
3.674400 1.740400
3.698800 1.733800
3.723200 1.727800
3.747600 1.719700
3.772000 1.707800
3.796400 1.670200
3.820800 1.551500
3.845100 1.376000
3.869500 1.220000
3.893900 1.124800
3.918300 1.069000
3.942700 1.057200
3.967100 1.084800
3.991500 1.114400
4.015900 1.144400
4.040300 1.173700
4.064700 1.203000
4.089100 1.232400
4.113500 1.264800
4.137900 1.305200
4.162300 1.350900
4.186700 1.398000
4.211100 1.446500
4.235500 1.494000
4.259900 1.533500
4.284300 1.559300
4.308700 1.742500
4.333100 2.055800
4.357500 2.462900
4.381900 2.650500
4.406300 2.777200
4.430700 2.976800
4.455100 3.289700
4.479400 4.066100
4.503800 4.985400
4.528200 6.837700
4.552600 6.676300
4.577000 6.765700
4.601400 7.427200
4.625800 6.839800
4.650200 6.166500
4.674600 5.566000
4.699000 5.230000
4.723400 5.109600
4.747800 5.020300
4.772200 5.037200
4.796600 5.144900
4.821000 5.248700
4.845400 5.441600
4.869800 5.439400
4.894200 5.216200
4.918600 5.215300
4.943000 5.301600
4.967400 5.529600
4.991800 5.726900
5.016200 6.059900
5.040600 6.412800
5.065000 7.074200
5.089400 7.469700
5.113800 6.155000
5.138100 5.480500
5.162500 5.088800
5.186900 4.867700
5.211300 4.622700
5.235700 4.448100
5.260100 4.315700
5.284500 4.153600
5.308900 3.979600
5.333300 3.877200
5.357700 3.857600
5.382100 4.234200
5.406500 4.055000
5.430900 3.287700
5.455300 2.819100
5.479700 2.813400
5.504100 2.828200
5.528500 2.785800
5.552900 2.572000
5.577300 2.485100
5.601700 2.413500
5.626100 2.353400
5.650500 2.316800
5.674900 2.300900
5.699300 2.265600
5.723700 2.206500
5.748100 2.156600
5.772400 2.160400
5.796800 2.198800
5.821200 2.154400
5.845600 2.152800
5.870000 2.356000
5.894400 2.547600
5.918800 2.432500
5.943200 1.836500
5.967600 1.589500
5.992000 1.324100
6.016400 1.152000
6.040800 1.073800
6.065200 0.780700
6.089600 0.596300
6.114000 0.471100
6.138400 0.357700
6.162800 0.245600
6.187200 0.182800
6.211600 0.091000
6.236000 0.000000
6.260400 0.000000
6.284800 0.000000
6.309200 0.000000
6.333600 0.000000
6.358000 0.000000
6.382400 0.000000
6.406700 0.000000
6.431100 0.000000
6.455500 0.000000
6.479900 0.000000
6.504300 0.000000
6.528700 0.000000
6.553100 0.000000
6.577500 0.000000
6.601900 0.000000
6.626300 0.000000
6.650700 0.000000
6.675100 0.000000
6.699500 0.000000
6.723900 0.000000
6.748300 0.000000
6.772700 0.000000
6.797100 0.000000
6.821500 0.000000
6.845900 0.000000
6.870300 0.000000
6.894700 0.000000
6.919100 0.000000
6.943500 0.000000
6.967900 0.000000
6.992300 0.000000
7.016700 0.000000
7.041100 0.000000
7.065400 0.000000
7.089800 0.000000
7.114200 0.000000
7.138600 0.000000
7.163000 0.000000
7.187400 0.000000
7.211800 0.000000
7.236200 0.000000
7.260600 0.000000
7.285000 0.000000
7.309400 0.000000
7.333800 0.000000
7.358200 0.000000
7.382600 0.000000
7.407000 0.000000
7.431400 0.000000
7.455800 0.000000
7.480200 0.000000
7.504600 0.000000
7.529000 0.000000
7.553400 0.000000
7.577800 0.000000
7.602200 0.000000
7.626600 0.000000
7.651000 0.000000
7.675400 0.000000
7.699700 0.000000
7.724100 0.000000
7.748500 0.000000
7.772900 0.000000
7.797300 0.000000
7.821700 0.000100
7.846100 0.000700
7.870500 0.002000
7.894900 0.003900
7.919300 0.006500
7.943700 0.009800
7.968100 0.013700
7.992500 0.018200
8.016900 0.023400
8.041300 0.029800
8.065700 0.036700
8.090100 0.042800
8.114500 0.048200
8.138900 0.053000
8.163300 0.057000
8.187700 0.060200
8.212100 0.062800
8.236500 0.064900
8.260900 0.066900
8.285300 0.069500
8.309700 0.072500
8.334000 0.076000
8.358400 0.080000
8.382800 0.084500
8.407200 0.089300
8.431600 0.094300
8.456000 0.099500
8.480400 0.104700
8.504800 0.110100
8.529200 0.115600
8.553600 0.121000
8.578000 0.125900
8.602400 0.130500
8.626800 0.134600
8.651200 0.139300
8.675600 0.145200
8.700000 0.151200
8.724400 0.157800
8.748800 0.164600
8.773200 0.171700
8.797600 0.178800
8.822000 0.185000
8.846400 0.191300
8.870800 0.197500
8.895200 0.203800
8.919600 0.210200
8.944000 0.217600
8.968400 0.233600
8.992700 0.260200
9.017100 0.292400
9.041500 0.328800
9.065900 0.360500
9.090300 0.387500
9.114700 0.416300
9.139100 0.447000
9.163500 0.477700
9.187900 0.508200
9.212300 0.537900
9.236700 0.566400
9.261100 0.596200
9.285500 0.630200
9.309900 0.668200
9.334300 0.748600
9.358700 0.860700
9.383100 1.044100
9.407500 1.320900
9.431900 1.525100
9.456300 1.645300
9.480700 1.707900
9.505100 1.829600
9.529500 1.936500
9.553900 2.101700
9.578300 2.218100
9.602700 2.311000
9.627000 2.377100
9.651400 2.426300
9.675800 2.522200
9.700200 2.600300
9.724600 2.681900
9.749000 2.744200
9.773400 2.788300
9.797800 2.807000
9.822200 2.855700
9.846600 2.954900
9.871000 3.075400
9.895400 3.125600
9.919800 3.105800
9.944200 3.165100
9.968600 3.165500
9.993000 3.186300
10.017400 3.221900
10.041800 3.236600
10.066200 3.254600
10.090600 3.262700
10.115000 3.342800
10.139400 3.192800
10.163800 3.143400
10.188200 3.083800
10.212600 3.095700
10.237000 2.962400
10.261300 2.959300
10.285700 2.903500
10.310100 2.414600
10.334500 2.356200
10.358900 2.316500
10.383300 2.317800
10.407700 2.363300
10.432100 2.356600
10.456500 2.339700
10.480900 2.336600
10.505300 2.358200
10.529700 2.367800
10.554100 2.295000
10.578500 2.355700
10.602900 2.396300
10.627300 2.399600
10.651700 2.373000
10.676100 2.436800
10.700500 2.403900
10.724900 2.390400
10.749300 2.268800
10.773700 2.231800
10.798100 2.280000
10.822500 2.185200
10.846900 1.879300
10.871300 1.778500
10.895700 1.956000
10.920000 1.564900
10.944400 1.526500
10.968800 1.507600
10.993200 1.505400
11.017600 1.529800
11.042000 1.577300
11.066400 1.654900
11.090800 1.744500
11.115200 1.865300
11.139600 2.017000
11.164000 2.366400
11.188400 2.610100
11.212800 2.958500
11.237200 3.133700
11.261600 3.539500
11.286000 3.600600
11.310400 3.676500
11.334800 3.691600
11.359200 3.713200
11.383600 3.933300
11.408000 4.056400
11.432400 3.983000
11.456800 3.749800
11.481200 3.309200
11.505600 2.930300
11.530000 2.907700
11.554300 3.155200
11.578700 4.460400
11.603100 3.719000
11.627500 3.602100
11.651900 3.502600
11.676300 3.358300
11.700700 3.226300
11.725100 3.190400
11.749500 3.248900
11.773900 3.620200
11.798300 4.053800
11.822700 4.531000
11.847100 4.766400
11.871500 4.734200
11.895900 4.359900
11.920300 4.129600
11.944700 3.842900
11.969100 3.326200
11.993500 3.183500
12.017900 3.168000
12.042300 3.152500
12.066700 3.131500
12.091100 3.139300
12.115500 3.177500
12.139900 3.133600
12.164300 3.045100
12.188600 3.042600
12.213000 3.076800
12.237400 3.085700
12.261800 3.077400
12.286200 3.244000
12.310600 2.965800
12.335000 2.691100
12.359400 2.525800
12.383800 2.605300
12.408200 2.617900
12.432600 2.651900
12.457000 2.894700
12.481400 2.920600
12.505800 2.788900
12.530200 2.663200
12.554600 2.650200
12.579000 2.673300
12.603400 2.681000
12.627800 2.718500
12.652200 2.816700
12.676600 2.770800
12.701000 2.700000
12.725400 2.642100
12.749800 2.684000
12.774200 2.703500
12.798600 2.708800
12.823000 2.729800
12.847300 2.736100
12.871700 2.773600
12.896100 2.756900
12.920500 2.666700
12.944900 2.664900
12.969300 2.637900
12.993700 2.519000
13.018100 2.504800
13.042500 2.566200
13.066900 2.195500
13.091300 1.907800
13.115700 1.922200
13.140100 1.955500
13.164500 2.033700
13.188900 2.109000
13.213300 2.178300
13.237700 2.436900
13.262100 2.363200
13.286500 2.493200
13.310900 2.585200
13.335300 2.674000
13.359700 2.754100
13.384100 2.841900
13.408500 2.916900
13.432900 2.955400
13.457300 2.983300
13.481600 3.112500
13.506000 3.223100
13.530400 3.157400
13.554800 2.986300
13.579200 2.726400
13.603600 2.548500
13.628000 2.671700
13.652400 2.721600
13.676800 2.651900
13.701200 2.606900
13.725600 2.616100
13.750000 2.789500
13.774400 2.656100
13.798800 2.547300
13.823200 2.476200
13.847600 2.435800
13.872000 2.455100
13.896400 2.476900
13.920800 2.516200
13.945200 2.576500
13.969600 2.719000
13.994000 2.978500
14.018400 3.117500
14.042800 3.192200
14.067200 3.047300
14.091600 3.022600
14.115900 3.000300
14.140300 3.019700
14.164700 3.118700
14.189100 3.355000
14.213500 3.390800
14.237900 2.870000
14.262300 2.727300
14.286700 2.678000
14.311100 2.680600
14.335500 2.683700
14.359900 2.753500
14.384300 2.497800
14.408700 2.380100
14.433100 2.272100
14.457500 2.147400
14.481900 2.057500
14.506300 2.047400
14.530700 2.032900
14.555100 2.009200
14.579500 1.995600
14.603900 1.948100
14.628300 1.878200
14.652700 1.831900
14.677100 1.794300
14.701500 1.760600
14.725900 1.751300
14.750300 1.723000
14.774600 1.695400
14.799000 1.684200
14.823400 1.678600
14.847800 1.684800
14.872200 1.690700
14.896600 1.696300
14.921000 1.701600
14.945400 1.710100
14.969800 1.724100
14.994200 1.730000
15.018600 1.734800
15.043000 1.727400
15.067400 1.726000
15.091800 1.733600
15.116200 1.745700
15.140600 1.776300
15.165000 1.821900
15.189400 1.882000
15.213800 1.960400
15.238200 2.061500
15.262600 2.157600
15.287000 2.232200
15.311400 2.165000
15.335800 2.109000
15.360200 2.056400
15.384600 1.989200
15.408900 1.940700
15.433300 1.896400
15.457700 1.858400
15.482100 1.820700
15.506500 1.767100
15.530900 1.724800
15.555300 1.710600
15.579700 1.705100
15.604100 1.698000
15.628500 1.671000
15.652900 1.661400
15.677300 1.651100
15.701700 1.611100
15.726100 1.562400
15.750500 1.520100
15.774900 1.488700
15.799300 1.464200
15.823700 1.438900
15.848100 1.435900
15.872500 1.389000
15.896900 1.367600
15.921300 1.352700
15.945700 1.340600
15.970100 1.330100
15.994500 1.322100
16.018900 1.316500
16.043200 1.307600
16.067600 1.307700
16.092000 1.313100
16.116400 1.322900
16.140800 1.335800
16.165200 1.354000
16.189600 1.367100
16.214000 1.386900
16.238400 1.411900
16.262800 1.464500
16.287200 1.509200
16.311600 1.541400
16.336000 1.555200
16.360400 1.644900
16.384800 1.575300
16.409200 1.588600
16.433600 1.614100
16.458000 1.627600
16.482400 1.616300
16.506800 1.617300
16.531200 1.630000
16.555600 1.661200
16.580000 1.712100
16.604400 1.784700
16.628800 1.924800
16.653200 2.220300
16.677600 2.348900
16.701900 2.345300
16.726300 2.345600
16.750700 2.354000
16.775100 2.410300
16.799500 2.439600
16.823900 2.471100
16.848300 2.517300
16.872700 2.572200
16.897100 2.624700
16.921500 2.689100
16.945900 2.781900
16.970300 2.824200
16.994700 2.890100
17.019100 2.908200
17.043500 2.745600
17.067900 2.753700
17.092300 2.794300
17.116700 2.796400
17.141100 2.689000
17.165500 2.689600
17.189900 2.684700
17.214300 2.723200
17.238700 2.730100
17.263100 2.751200
17.287500 2.728300
17.311900 2.729300
17.336200 2.735300
17.360600 2.667800
17.385000 2.660500
17.409400 2.618900
17.433800 2.542200
17.458200 2.474000
17.482600 2.439300
17.507000 2.395300
17.531400 2.382200
17.555800 2.378500
17.580200 2.357100
17.604600 2.339300
17.629000 2.306500
17.653400 2.255600
17.677800 2.248400
17.702200 2.256200
17.726600 2.292100
17.751000 2.282300
17.775400 2.348000
17.799800 2.374300
17.824200 2.329700
17.848600 2.306800
17.873000 2.278200
17.897400 2.520800
17.921800 2.702700
17.946200 2.787600
17.970500 2.617300
17.994900 2.538500
18.019300 2.518800
18.043700 2.699800
18.068100 2.694900
18.092500 2.736600
18.116900 2.866400
18.141300 2.959500
18.165700 2.918700
18.190100 3.132100
18.214500 3.244000
18.238900 3.025800
18.263300 2.895400
18.287700 3.233700
18.312100 3.409800
18.336500 3.193500
18.360900 2.790000
18.385300 2.711000
18.409700 2.651800
18.434100 2.796400
18.458500 3.073600
18.482900 2.682900
18.507300 2.760100
18.531700 2.677400
18.556100 2.613800
18.580500 2.529600
18.604900 2.518500
18.629200 2.523300
18.653600 2.603600
18.678000 2.656700
18.702400 2.677900
18.726800 2.615700
18.751200 2.530200
18.775600 2.445000
18.800000 2.382000
18.824400 2.361600
18.848800 2.324700
18.873200 2.269500
18.897600 2.176100
18.922000 2.073000
18.946400 1.941900
18.970800 1.807600
18.995200 1.702000
19.019600 1.621700
19.044000 1.517900
19.068400 1.450400
19.092800 1.428600
19.117200 1.400100
19.141600 1.375900
19.166000 1.354200
19.190400 1.338400
19.214800 1.400500
19.239200 1.283300
19.263500 1.258500
19.287900 1.184000
19.312300 1.113900
19.336700 1.088900
19.361100 1.081800
19.385500 1.064200
19.409900 1.074400
19.434300 1.077200
19.458700 1.077100
19.483100 1.076100
19.507500 1.076200
19.531900 1.090600
19.556300 1.113000
19.580700 1.117100
19.605100 1.125300
19.629500 1.132500
19.653900 1.110500
19.678300 1.134500
19.702700 1.325400
19.727100 1.318700
19.751500 1.372200
19.775900 1.429600
19.800300 1.580800
19.824700 1.989000
19.849100 2.560200
19.873500 2.121800
19.897800 2.136600
19.922200 2.177200
19.946600 2.362200
19.971000 2.489600
19.995400 2.604400
20.019800 2.512700
20.044200 2.559800
20.068600 2.689300
20.093000 2.793900
20.117400 2.874500
20.141800 2.914800
20.166200 3.068800
20.190600 3.028000
20.215000 3.019000
20.239400 3.009000
20.263800 2.997500
20.288200 2.844400
20.312600 2.902500
20.337000 2.952600
20.361400 2.947700
20.385800 2.942700
20.410200 2.949300
20.434600 2.886900
20.459000 2.809800
20.483400 2.828600
20.507800 2.849400
20.532200 2.872000
20.556500 2.794700
20.580900 2.775300
20.605300 2.742900
20.629700 2.728400
20.654100 2.715200
20.678500 2.695600
20.702900 2.644600
20.727300 2.615200
20.751700 2.590800
20.776100 2.640100
20.800500 2.636000
20.824900 2.598900
20.849300 2.537600
20.873700 2.511400
20.898100 2.525400
20.922500 2.514100
20.946900 2.551400
20.971300 2.490500
20.995700 2.434200
21.020100 2.417800
21.044500 2.436700
21.068900 2.451000
21.093300 2.437700
21.117700 2.416000
21.142100 2.381500
21.166500 2.368500
21.190800 2.355000
21.215200 2.361600
21.239600 2.371700
21.264000 2.255300
21.288400 2.425100
21.312800 2.479300
21.337200 2.427300
21.361600 2.376800
21.386000 2.372100
21.410400 2.420600
21.434800 2.376700
21.459200 2.381900
21.483600 2.412700
21.508000 2.436900
21.532400 2.448100
21.556800 2.452900
21.581200 2.469400
21.605600 2.511600
21.630000 2.562300
21.654400 2.620300
21.678800 2.685600
21.703200 2.785900
21.727600 2.831800
21.752000 2.786900
21.776400 2.728400
21.800800 2.660400
21.825100 2.617200
21.849500 2.542300
21.873900 2.441100
21.898300 2.462300
21.922700 2.288000
21.947100 2.144700
21.971500 2.082700
21.995900 2.030100
22.020300 1.992700
22.044700 1.966900
22.069100 1.949800
22.093500 1.928600
22.117900 1.901100
22.142300 1.876200
22.166700 1.809700
22.191100 1.668800
22.215500 1.649700
22.239900 1.693800
22.264300 1.777300
22.288700 1.926700
22.313100 2.017000
22.337500 2.103800
22.361900 2.182700
22.386300 2.167600
22.410700 2.200500
22.435100 2.136700
22.459500 2.185900
22.483800 2.293200
22.508200 2.391800
22.532600 2.489900
22.557000 2.589900
22.581400 2.705500
22.605800 2.769200
22.630200 2.830800
22.654600 2.948900
22.679000 3.005400
22.703400 3.051900
22.727800 3.173300
22.752200 3.302600
22.776600 3.438200
22.801000 3.449300
22.825400 3.531300
22.849800 3.891200
22.874200 3.835400
22.898600 3.867900
22.923000 3.851800
22.947400 3.823100
22.971800 3.811100
22.996200 3.805200
23.020600 3.820000
23.045000 3.792500
23.069400 3.746800
23.093800 3.574600
23.118100 3.409200
23.142500 3.474500
23.166900 3.416500
23.191300 3.512200
23.215700 3.655500
23.240100 3.598000
23.264500 3.541700
23.288900 3.505600
23.313300 3.498200
23.337700 3.464900
23.362100 3.375100
23.386500 3.318500
23.410900 3.144500
23.435300 3.043500
23.459700 2.979600
23.484100 2.926400
23.508500 2.872200
23.532900 2.828600
23.557300 2.789900
23.581700 2.723600
23.606100 2.632700
23.630500 2.617200
23.654900 2.599800
23.679300 2.558000
23.703700 2.489100
23.728100 2.454600
23.752400 2.367400
23.776800 2.276500
23.801200 2.126800
23.825600 1.988900
23.850000 1.890400
23.874400 1.777600
23.898800 1.671800
23.923200 1.578900
23.947600 1.518600
23.972000 1.488300
23.996400 1.475400
24.020800 1.488600
24.045200 1.523400
24.069600 1.538300
24.094000 1.531500
24.118400 1.505600
24.142800 1.500300
24.167200 1.512400
24.191600 1.580400
24.216000 1.587500
24.240400 1.583200
24.264800 1.557800
24.289200 1.512500
24.313600 1.487800
24.338000 1.431000
24.362400 1.454900
24.386800 1.488600
24.411100 1.540800
24.435500 1.603300
24.459900 1.701300
24.484300 1.882400
24.508700 2.133200
24.533100 2.599500
24.557500 2.429000
24.581900 2.414700
24.606300 2.438800
24.630700 2.494800
24.655100 2.477600
24.679500 2.431700
24.703900 2.352300
24.728300 2.282200
24.752700 2.258600
24.777100 1.889700
24.801500 1.893600
24.825900 1.862600
24.850300 1.893700
24.874700 1.989400
24.899100 2.045600
24.923500 2.170300
24.947900 2.308300
24.972300 2.474900
24.996700 2.570400
25.021100 2.657200
25.045400 2.691400
25.069800 2.707000
25.094200 2.776900
25.118600 2.855700
25.143000 2.949800
25.167400 3.065100
25.191800 3.111200
25.216200 3.080700
25.240600 2.969500
25.265000 2.789100
25.289400 2.569000
25.313800 2.380900
25.338200 2.226700
25.362600 2.213900
25.387000 2.236200
25.411400 2.307200
25.435800 2.161400
25.460200 2.276400
25.484600 2.410700
25.509000 2.469400
25.533400 2.561000
25.557800 2.632100
25.582200 2.662200
25.606600 2.669900
25.631000 2.683800
25.655400 2.781100
25.679700 2.793600
25.704100 2.691800
25.728500 2.670800
25.752900 2.666400
25.777300 2.637900
25.801700 2.659900
25.826100 2.743800
25.850500 2.744800
25.874900 2.710600
25.899300 2.592500
25.923700 2.510000
25.948100 2.450100
25.972500 2.375600
25.996900 2.295400
26.021300 2.279500
26.045700 2.285400
26.070100 2.296000
26.094500 2.328500
26.118900 2.355500
26.143300 2.379600
26.167700 2.718900
26.192100 2.721300
26.216500 2.898600
26.240900 2.550900
26.265300 2.471800
26.289700 2.486000
26.314100 2.948300
26.338400 2.828000
26.362800 2.587800
26.387200 2.283500
26.411600 2.336500
26.436000 2.396700
26.460400 2.440000
26.484800 2.530200
26.509200 2.720200
26.533600 2.951800
26.558000 3.096000
26.582400 2.878700
26.606800 2.966500
26.631200 2.708900
26.655600 2.670700
26.680000 2.642600
26.704400 2.680400
26.728800 2.897300
26.753200 2.758600
26.777600 2.545900
26.802000 2.489400
26.826400 2.444900
26.850800 2.424800
26.875200 2.434600
26.899600 2.540800
26.924000 2.748700
26.948400 2.675700
26.972700 2.610800
26.997100 2.765100
27.021500 2.880700
27.045900 2.880000
27.070300 2.796300
27.094700 2.828400
27.119100 2.789500
27.143500 2.814800
27.167900 2.820100
27.192300 2.862000
27.216700 2.968900
27.241100 3.121200
27.265500 3.221700
27.289900 3.329400
27.314300 3.375700
27.338700 3.259200
27.363100 3.145300
27.387500 3.085500
27.411900 3.032900
27.436300 3.028400
27.460700 3.013400
27.485100 2.992100
27.509500 2.995000
27.533900 2.911300
27.558300 2.849500
27.582700 2.805600
27.607000 2.744600
27.631400 2.690200
27.655800 2.732000
27.680200 2.721500
27.704600 2.739000
27.729000 2.769500
27.753400 2.842400
27.777800 2.881700
27.802200 2.987600
27.826600 2.995000
27.851000 2.945900
27.875400 2.933300
27.899800 2.894200
27.924200 2.921100
27.948600 2.862600
27.973000 2.827800
27.997400 2.786900
28.021800 2.755100
28.046200 2.725200
28.070600 2.697500
28.095000 2.702300
28.119400 2.639600
28.143800 2.593800
28.168200 2.567900
28.192600 2.538600
28.217000 2.563100
28.241400 2.502900
28.265700 2.475300
28.290100 2.443900
28.314500 2.392600
28.338900 2.381000
28.363300 2.447300
28.387700 2.431600
28.412100 2.426500
28.436500 2.453000
28.460900 2.558600
28.485300 2.699600
28.509700 2.783600
28.534100 2.898200
28.558500 2.675000
28.582900 2.703700
28.607300 2.704800
28.631700 2.755200
28.656100 2.679700
28.680500 2.589500
28.704900 2.611600
28.729300 2.623700
28.753700 2.640100
28.778100 2.671800
28.802500 2.688600
28.826900 2.682700
28.851300 2.688500
28.875700 2.735700
28.900000 2.761900
28.924400 2.786800
28.948800 2.816200
28.973200 2.832700
28.997600 2.843000
29.022000 2.792700
29.046400 2.731500
29.070800 2.796600
29.095200 2.694200
29.119600 2.658600
29.144000 2.598800
29.168400 2.552600
29.192800 2.507700
29.217200 2.432200
29.241600 2.349500
29.266000 2.304400
29.290400 2.264200
29.314800 2.273400
29.339200 2.271400
29.363600 2.273600
29.388000 2.327300
29.412400 2.321600
29.436800 2.298200
29.461200 2.262200
29.485600 2.252400
29.510000 2.203100
29.534300 2.261300
29.558700 2.233300
29.583100 2.249900
29.607500 2.265100
29.631900 2.302100
29.656300 2.344800
29.680700 2.384500
29.705100 2.463200
29.729500 2.397500
29.753900 2.347200
29.778300 2.372500
29.802700 2.298100
29.827100 2.325800
29.851500 2.360500
29.875900 2.420900
29.900300 2.496900
29.924700 2.573700
29.949100 2.570400
29.973500 2.589300
29.997900 2.590700
30.022300 2.600400
30.046700 2.631400
30.071100 2.711600
30.095500 2.751400
30.119900 2.788000
30.144300 2.792800
30.168700 2.822000
30.193000 2.887700
30.217400 2.977900
30.241800 3.283300
30.266200 2.940000
30.290600 2.899200
30.315000 3.102000
30.339400 2.716600
30.363800 2.704300
30.388200 2.697800
30.412600 2.707200
30.437000 2.767000
30.461400 2.836400
30.485800 2.913700
30.510200 2.889400
30.534600 2.929400
30.559000 3.001200
30.583400 3.057500
30.607800 3.055500
30.632200 2.972800
30.656600 2.951800
30.681000 2.841700
30.705400 2.855700
30.729800 2.804300
30.754200 2.729900
30.778600 2.723000
30.803000 2.747900
30.827300 2.759100
30.851700 2.771300
30.876100 2.805100
30.900500 2.831000
30.924900 2.848300
30.949300 2.793100
30.973700 2.733300
30.998100 2.702100
31.022500 2.675700
31.046900 2.889400
31.071300 2.602200
31.095700 2.589700
31.120100 2.566800
31.144500 2.540700
31.168900 2.538200
31.193300 2.514500
31.217700 2.494200
31.242100 2.468300
31.266500 2.444000
31.290900 2.460500
31.315300 2.496400
31.339700 2.500700
31.364100 2.584000
31.388500 2.729600
31.412900 2.828600
31.437300 2.927900
31.461600 3.016300
31.486000 3.099400
31.510400 3.190900
31.534800 3.215700
31.559200 3.229500
31.583600 3.246200
31.608000 3.275400
31.632400 3.293600
31.656800 3.289100
31.681200 3.293100
31.705600 3.307800
31.730000 3.312100
31.754400 3.311700
31.778800 3.368100
31.803200 3.470900
31.827600 3.243900
31.852000 3.116300
31.876400 3.143100
31.900800 2.760300
31.925200 2.706400
31.949600 2.738200
31.974000 2.948700
31.998400 2.881800
32.022800 2.967400
32.047200 3.008000
32.071600 3.105900
32.096000 3.195200
32.120300 3.251800
32.144700 3.240200
32.169100 3.307100
32.193500 3.412200
32.217900 3.447500
32.242300 3.390800
32.266700 3.328400
32.291100 3.243300
32.315500 3.162700
32.339900 3.091800
32.364300 2.950900
32.388700 2.914200
32.413100 2.938900
32.437500 3.021300
32.461900 2.961800
32.486300 2.949500
32.510700 2.892500
32.535100 2.817700
32.559500 2.810500
32.583900 2.732300
32.608300 2.507400
32.632700 2.379800
32.657100 2.255100
32.681500 2.125300
32.705900 1.965700
32.730300 1.785400
32.754600 1.609200
32.779000 1.532600
32.803400 1.576700
32.827800 1.559500
32.852200 1.501400
32.876600 1.452700
32.901000 1.395500
32.925400 1.281600
32.949800 1.232400
32.974200 1.182500
32.998600 1.127200
33.023000 1.067700
33.047400 1.004200
33.071800 0.943000
33.096200 0.886000
33.120600 0.829800
33.145000 0.774100
33.169400 0.725000
33.193800 0.679700
33.218200 0.654800
33.242600 0.632200
33.267000 0.721200
33.291400 0.693400
33.315800 0.634200
33.340200 0.574100
33.364600 0.511100
33.388900 0.441500
33.413300 0.351400
33.437700 0.282200
33.462100 0.225300
33.486500 0.168200
33.510900 0.113200
33.535300 0.098300
33.559700 0.084300
33.584100 0.041200
33.608500 0.003200
33.632900 0.000000
33.657300 0.000000
33.681700 0.000000
33.706100 0.000000
33.730500 0.000000
33.754900 0.000000
33.779300 0.000000
33.803700 0.000000
33.828100 0.000000
33.852500 0.000000
33.876900 0.000000
33.901300 0.000000
33.925700 0.000000
33.950100 0.000000
33.974500 0.000000
33.998900 0.000000
34.023300 0.000000
34.047600 0.000000
34.072000 0.000000
34.096400 0.000000
34.120800 0.000000
34.145200 0.000000
34.169600 0.000000
34.194000 0.000000
34.218400 0.000000
34.242800 0.000000
34.267200 0.000000
34.291600 0.000000
34.316000 0.000000
34.340400 0.000000
34.364800 0.000000
34.389200 0.000000
34.413600 0.000000
34.438000 0.000000
34.462400 0.000000
34.486800 0.000000
34.511200 0.000000
34.535600 0.000000
34.560000 0.000000
34.584400 0.000000
34.608800 0.000000
34.633200 0.000000
34.657600 0.000000
34.681900 0.000000
34.706300 0.000000
34.730700 0.000000
34.755100 0.000000
34.779500 0.000000
34.803900 0.000000
34.828300 0.000000
34.852700 0.000000
34.877100 0.000000
34.901500 0.000000
34.925900 0.000000
34.950300 0.000000
34.974700 0.000000
34.999100 0.000000
35.023500 0.000000
35.047900 0.000000
35.072300 0.000000
35.096700 0.000000
35.121100 0.000000
35.145500 0.000000
35.169900 0.000000
35.194300 0.000000
35.218700 0.000000
35.243100 0.000000
35.267500 0.000000
35.291900 0.000000
35.316200 0.000000
35.340600 0.000000
35.365000 0.000000
35.389400 0.000000
35.413800 0.000000
35.438200 0.000000
35.462600 0.000000
35.487000 0.000000
35.511400 0.000000
35.535800 0.000000
35.560200 0.000000
35.584600 0.000000
35.609000 0.000000
35.633400 0.000000
35.657800 0.000000
35.682200 0.000000
35.706600 0.000000
35.731000 0.000000
35.755400 0.000000
35.779800 0.000000
35.804200 0.000000
35.828600 0.000000
e
