set title 'mp-1120747 - Density of States'
set xlabel 'Energy (eV)'
set ylabel 'DOS (states/eV)'
set grid
set xrange [-10:10]
set yrange [0:3.954]
set xzeroaxis lt -1
set terminal png size 800,600
set output 'mp-1120747_dos_gnuplot.png'
plot '-' using 1:2 with lines title 'DOS'
-7.243200 0.000000
-7.224200 0.000000
-7.205300 0.000000
-7.186300 0.000000
-7.167400 0.000000
-7.148400 0.000000
-7.129500 0.000000
-7.110500 0.000000
-7.091500 0.000000
-7.072600 0.000000
-7.053600 0.000000
-7.034700 0.000000
-7.015700 0.000000
-6.996800 0.000000
-6.977800 0.000000
-6.958900 0.000000
-6.939900 0.000000
-6.920900 0.000000
-6.902000 0.000000
-6.883000 0.000000
-6.864100 0.000000
-6.845100 0.000000
-6.826200 0.000000
-6.807200 0.000000
-6.788300 0.000000
-6.769300 0.000000
-6.750300 0.000000
-6.731400 0.000000
-6.712400 0.000000
-6.693500 0.000000
-6.674500 0.000000
-6.655600 0.000000
-6.636600 0.000000
-6.617700 0.000000
-6.598700 0.000000
-6.579700 0.000000
-6.560800 0.000000
-6.541800 0.000000
-6.522900 0.000000
-6.503900 0.000000
-6.485000 0.000000
-6.466000 0.000000
-6.447000 0.000000
-6.428100 0.000000
-6.409100 0.000000
-6.390200 0.000000
-6.371200 0.000000
-6.352300 0.000000
-6.333300 0.000000
-6.314400 0.000000
-6.295400 0.000000
-6.276400 0.000000
-6.257500 0.000000
-6.238500 0.000000
-6.219600 0.000000
-6.200600 0.000000
-6.181700 0.000000
-6.162700 0.000000
-6.143800 0.000000
-6.124800 0.000000
-6.105800 0.000000
-6.086900 0.000000
-6.067900 0.000000
-6.049000 0.000000
-6.030000 0.000000
-6.011100 0.000000
-5.992100 0.000000
-5.973200 0.000000
-5.954200 0.000000
-5.935200 0.000000
-5.916300 0.000000
-5.897300 0.000000
-5.878400 0.000000
-5.859400 0.000000
-5.840500 0.000000
-5.821500 0.000000
-5.802600 0.000000
-5.783600 0.000000
-5.764600 0.000000
-5.745700 0.000000
-5.726700 0.000000
-5.707800 0.000000
-5.688800 0.000000
-5.669900 0.000000
-5.650900 0.000000
-5.632000 0.000000
-5.613000 0.000000
-5.594000 0.000000
-5.575100 0.000000
-5.556100 0.000000
-5.537200 0.000000
-5.518200 0.000100
-5.499300 0.019700
-5.480300 0.072300
-5.461400 0.158100
-5.442400 0.216700
-5.423400 0.244500
-5.404500 0.253200
-5.385500 0.268900
-5.366600 0.297800
-5.347600 0.327800
-5.328700 0.358500
-5.309700 0.386200
-5.290700 0.408900
-5.271800 0.426300
-5.252800 0.439300
-5.233900 0.451000
-5.214900 0.463000
-5.196000 0.481200
-5.177000 0.499400
-5.158100 0.517700
-5.139100 0.536000
-5.120100 0.554300
-5.101200 0.572600
-5.082200 0.588500
-5.063300 0.603100
-5.044300 0.617700
-5.025400 0.633700
-5.006400 0.651000
-4.987500 0.668200
-4.968500 0.684900
-4.949500 0.700400
-4.930600 0.714700
-4.911600 0.729300
-4.892700 0.745300
-4.873700 0.761300
-4.854800 0.777400
-4.835800 0.794100
-4.816900 0.810900
-4.797900 0.828500
-4.778900 0.847200
-4.760000 0.867400
-4.741000 0.889300
-4.722100 0.912300
-4.703100 0.936300
-4.684200 0.960900
-4.665200 0.986100
-4.646300 1.012000
-4.627300 1.040100
-4.608300 1.071000
-4.589400 1.104900
-4.570400 1.140800
-4.551500 1.177500
-4.532500 1.214600
-4.513600 1.252300
-4.494600 1.317100
-4.475700 1.563700
-4.456700 1.664400
-4.437700 1.684200
-4.418800 1.586700
-4.399800 1.513800
-4.380900 1.494900
-4.361900 1.470400
-4.343000 1.447200
-4.324000 1.458100
-4.305100 1.556500
-4.286100 1.479500
-4.267100 1.387100
-4.248200 1.270900
-4.229200 1.160900
-4.210300 1.132200
-4.191300 1.105800
-4.172400 1.081200
-4.153400 1.058400
-4.134500 1.037400
-4.115500 1.018300
-4.096500 0.998900
-4.077600 0.975500
-4.058600 0.946600
-4.039700 0.937900
-4.020700 0.979900
-4.001800 1.017800
-3.982800 1.051600
-3.963800 0.963900
-3.944900 0.946200
-3.925900 0.922300
-3.907000 0.908400
-3.888000 0.895000
-3.869100 0.882000
-3.850100 0.866900
-3.831200 0.845800
-3.812200 0.825800
-3.793200 0.806400
-3.774300 0.791500
-3.755300 0.774900
-3.736400 0.766000
-3.717400 0.756800
-3.698500 0.747400
-3.679500 0.737800
-3.660600 0.727800
-3.641600 0.717600
-3.622600 0.707200
-3.603700 0.689300
-3.584700 0.677500
-3.565800 0.665600
-3.546800 0.653000
-3.527900 0.637300
-3.508900 0.620000
-3.490000 0.608500
-3.471000 0.597200
-3.452000 0.586300
-3.433100 0.575700
-3.414100 0.565400
-3.395200 0.563700
-3.376200 0.610200
-3.357300 0.658500
-3.338300 0.708000
-3.319400 0.627200
-3.300400 0.629200
-3.281400 0.632700
-3.262500 0.636200
-3.243500 0.639700
-3.224600 0.643200
-3.205600 0.641300
-3.186700 0.634500
-3.167700 0.628300
-3.148800 0.626500
-3.129800 0.628400
-3.110800 0.630000
-3.091900 0.631100
-3.072900 0.631800
-3.054000 0.632100
-3.035000 0.632000
-3.016100 0.675800
-2.997100 1.085600
-2.978200 0.587500
-2.959200 0.558600
-2.940200 0.531100
-2.921300 0.505100
-2.902300 0.480600
-2.883400 0.457600
-2.864400 0.436700
-2.845500 0.453500
-2.826500 0.483600
-2.807500 0.511500
-2.788600 0.316700
-2.769600 0.325500
-2.750700 0.339800
-2.731700 0.369800
-2.712800 0.415800
-2.693800 0.472100
-2.674900 0.534100
-2.655900 0.603200
-2.636900 0.678700
-2.618000 0.793000
-2.599000 0.886200
-2.580100 0.948900
-2.561100 0.966100
-2.542200 0.993200
-2.523200 1.037700
-2.504300 1.095700
-2.485300 1.156500
-2.466300 1.217500
-2.447400 1.279200
-2.428400 1.342800
-2.409500 1.404100
-2.390500 1.511900
-2.371600 1.562300
-2.352600 1.613300
-2.333700 1.745200
-2.314700 1.868800
-2.295700 1.818200
-2.276800 1.697600
-2.257800 1.616000
-2.238900 1.615500
-2.219900 1.622400
-2.201000 1.650100
-2.182000 1.678600
-2.163100 1.709400
-2.144100 1.586000
-2.125100 1.587800
-2.106200 1.594900
-2.087200 1.625000
-2.068300 1.657900
-2.049300 1.693700
-2.030400 1.727000
-2.011400 1.753900
-1.992500 1.765000
-1.973500 1.760100
-1.954500 1.694200
-1.935600 1.634200
-1.916600 1.580000
-1.897700 1.559900
-1.878700 1.538600
-1.859800 1.530000
-1.840800 1.476600
-1.821900 1.413200
-1.802900 1.352000
-1.783900 1.293700
-1.765000 1.227900
-1.746000 1.172200
-1.727100 1.115100
-1.708100 1.067200
-1.689200 1.028200
-1.670200 0.996800
-1.651300 0.970300
-1.632300 0.948700
-1.613300 0.932700
-1.594400 0.922400
-1.575400 0.906100
-1.556500 0.956300
-1.537500 0.997200
-1.518600 1.020200
-1.499600 1.023600
-1.480600 1.023000
-1.461700 1.019400
-1.442700 1.052600
-1.423800 1.095100
-1.404800 1.146900
-1.385900 1.229100
-1.366900 1.445200
-1.348000 2.081400
-1.329000 2.115700
-1.310000 2.177700
-1.291100 2.472200
-1.272100 2.579700
-1.253200 1.935300
-1.234200 1.942300
-1.215300 1.905900
-1.196300 1.859200
-1.177400 1.883400
-1.158400 1.867500
-1.139400 1.852000
-1.120500 1.860500
-1.101500 1.814200
-1.082600 1.772400
-1.063600 1.708900
-1.044700 1.685900
-1.025700 1.664100
-1.006800 1.654200
-0.987800 1.669700
-0.968800 1.694500
-0.949900 1.722800
-0.930900 1.747400
-0.912000 1.766900
-0.893000 1.781300
-0.874100 1.815800
-0.855100 1.911700
-0.836200 2.010300
-0.817200 1.888800
-0.798200 1.892100
-0.779300 1.819200
-0.760300 1.774600
-0.741400 1.746900
-0.722400 1.733700
-0.703500 1.722700
-0.684500 1.716800
-0.665600 1.719700
-0.646600 1.720800
-0.627600 1.717000
-0.608700 1.708100
-0.589700 1.698500
-0.570800 1.667600
-0.551800 1.681000
-0.532900 1.693900
-0.513900 1.708600
-0.495000 1.725100
-0.476000 1.739100
-0.457000 1.715400
-0.438100 1.717700
-0.419100 1.716700
-0.400200 1.704100
-0.381200 1.679800
-0.362300 1.642600
-0.343300 1.595700
-0.324300 1.585200
-0.305400 1.578200
-0.286400 1.561700
-0.267500 1.546000
-0.248500 1.530400
-0.229600 1.514800
-0.210600 1.499700
-0.191700 1.486700
-0.172700 1.474400
-0.153700 1.462700
-0.134800 1.451700
-0.115800 1.441400
-0.096900 1.431600
-0.077900 1.422500
-0.059000 1.414000
-0.040000 1.405200
-0.021100 1.390100
-0.002100 1.361800
0.016900 1.342300
0.035800 1.319700
0.054800 1.348900
0.073700 1.328300
0.092700 1.314200
0.111600 1.304600
0.130600 1.298500
0.149500 1.294800
0.168500 1.296200
0.187500 1.304900
0.206400 1.311300
0.225400 1.315800
0.244300 1.360900
0.263300 1.453800
0.282200 1.590400
0.301200 1.633600
0.320100 1.636600
0.339100 1.596100
0.358100 1.519500
0.377000 1.432500
0.396000 1.396900
0.414900 1.383600
0.433900 1.378100
0.452800 1.376200
0.471800 1.375500
0.490700 1.376500
0.509700 1.379000
0.528700 1.383700
0.547600 1.390800
0.566600 1.407500
0.585500 1.430100
0.604500 1.457000
0.623400 1.488300
0.642400 1.647200
0.661300 1.706200
0.680300 1.769100
0.699300 1.819600
0.718200 1.789400
0.737200 1.735500
0.756100 1.761500
0.775100 1.797100
0.794000 1.889300
0.813000 1.950400
0.831900 2.041500
0.850900 2.208600
0.869900 2.334600
0.888800 2.387000
0.907800 2.376800
0.926700 2.302600
0.945700 2.216100
0.964600 2.168300
0.983600 2.101400
1.002600 2.094500
1.021500 2.085300
1.040500 2.075400
1.059400 2.064000
1.078400 2.047000
1.097300 2.022100
1.116300 1.999500
1.135200 1.980000
1.154200 1.967700
1.173200 1.941000
1.192100 1.922100
1.211100 1.904400
1.230000 1.889900
1.249000 1.878300
1.267900 1.869200
1.286900 1.860600
1.305800 1.848800
1.324800 1.837400
1.343800 1.826900
1.362700 1.817500
1.381700 1.809400
1.400600 1.803100
1.419600 1.798700
1.438500 1.796000
1.457500 1.783700
1.476400 1.760400
1.495400 1.750000
1.514400 1.740700
1.533300 1.735900
1.552300 1.719900
1.571200 1.704900
1.590200 1.693500
1.609100 1.684200
1.628100 1.681400
1.647000 1.678900
1.666000 1.676500
1.685000 1.675900
1.703900 1.686700
1.722900 1.690900
1.741800 1.695900
1.760800 1.703400
1.779700 1.731400
1.798700 1.740900
1.817600 1.750600
1.836600 1.759400
1.855600 1.767400
1.874500 1.775500
1.893500 1.783700
1.912400 1.791300
1.931400 1.804700
1.950300 1.829300
1.969300 1.856400
1.988200 1.888400
2.007200 1.923600
2.026200 1.962700
2.045100 1.994500
2.064100 2.018500
2.083000 2.031500
2.102000 2.023000
2.120900 2.018400
2.139900 2.012000
2.158800 2.013500
2.177800 2.015900
2.196800 2.016000
2.215700 2.016300
2.234700 1.714100
2.253600 1.550000
2.272600 1.409300
2.291500 1.363500
2.310500 1.353900
2.329500 1.325400
2.348400 1.300900
2.367400 1.279900
2.386300 1.263600
2.405300 1.251200
2.424200 1.243500
2.443200 1.242300
2.462100 1.225100
2.481100 1.189500
2.500100 1.177400
2.519000 1.177800
2.538000 1.178500
2.556900 1.180000
2.575900 1.180600
2.594800 1.188000
2.613800 1.200000
2.632700 1.214100
2.651700 1.234000
2.670700 1.257200
2.689600 1.285700
2.708600 1.328700
2.727500 1.355600
2.746500 1.396100
2.765400 1.443900
2.784400 1.493000
2.803300 1.541200
2.822300 1.588500
2.841300 1.635300
2.860200 1.685500
2.879200 1.761100
2.898100 2.024100
2.917100 1.863400
2.936000 1.699200
2.955000 1.760400
2.973900 1.821600
2.992900 1.891700
3.011900 1.917200
3.030800 2.039400
3.049800 2.193300
3.068700 2.300600
3.087700 2.349700
3.106600 2.393900
3.125600 2.427100
3.144500 2.425900
3.163500 2.386600
3.182500 2.301400
3.201400 2.292600
3.220400 2.284600
3.239300 2.280400
3.258300 2.240800
3.277200 2.238700
3.296200 2.237300
3.315100 2.241700
3.334100 2.250900
3.353100 2.267700
3.372000 2.279700
3.391000 2.285400
3.409900 2.281700
3.428900 2.288400
3.447800 2.303400
3.466800 2.322600
3.485800 2.372700
3.504700 2.412800
3.523700 2.442000
3.542600 2.505600
3.561600 2.583700
3.580500 2.660000
3.599500 2.796900
3.618400 2.715600
3.637400 2.554700
3.656400 2.332600
3.675300 2.340800
3.694300 2.348300
3.713200 2.355300
3.732200 2.361200
3.751100 2.367800
3.770100 2.393100
3.789000 2.441400
3.808000 2.506900
3.827000 2.594800
3.845900 2.689400
3.864900 2.782000
3.883800 2.865800
3.902800 2.969300
3.921700 3.093000
3.940700 3.212700
3.959600 3.379700
3.978600 3.435100
3.997600 3.494700
4.016500 3.538100
4.035500 3.594800
4.054400 3.474900
4.073400 3.198500
4.092300 3.076800
4.111300 2.995100
4.130200 2.885500
4.149200 2.742000
4.168200 2.561500
4.187100 2.353300
4.206100 2.233900
4.225000 2.126600
4.244000 1.982100
4.262900 1.878200
4.281900 1.812700
4.300800 1.820300
4.319800 1.830600
4.338800 1.658300
4.357700 1.636700
4.376700 1.627800
4.395600 1.625400
4.414600 1.636200
4.433500 1.650200
4.452500 1.663000
4.471400 1.677000
4.490400 1.695200
4.509400 1.722700
4.528300 1.772200
4.547300 1.839900
4.566200 1.923200
4.585200 2.032200
4.604100 2.157200
4.623100 2.339200
4.642000 2.430500
4.661000 2.457000
4.680000 2.529700
4.698900 2.598700
4.717900 2.683700
4.736800 2.774400
4.755800 2.975600
4.774700 3.192400
4.793700 3.234000
4.812700 3.225800
4.831600 3.201600
4.850600 3.173100
4.869500 3.213200
4.888500 2.851900
4.907400 2.537800
4.926400 2.480000
4.945300 2.463000
4.964300 2.455800
4.983300 2.440400
5.002200 2.425800
5.021200 2.380500
5.040100 2.354700
5.059100 2.331500
5.078000 2.288600
5.097000 2.232200
5.115900 2.134200
5.134900 2.101700
5.153900 2.063200
5.172800 2.020300
5.191800 1.917600
5.210700 1.963900
5.229700 2.002000
5.248600 2.029700
5.267600 2.036200
5.286500 2.123700
5.305500 2.110900
5.324500 2.082100
5.343400 2.056900
5.362400 2.030800
5.381300 1.992700
5.400300 1.970500
5.419200 1.966000
5.438200 1.947300
5.457100 1.952900
5.476100 1.962800
5.495100 1.964200
5.514000 1.959900
5.533000 1.950800
5.551900 1.936200
5.570900 1.918100
5.589800 1.905500
5.608800 1.898400
5.627700 2.162400
5.646700 2.069400
5.665700 2.181900
5.684600 2.105100
5.703600 2.241700
5.722500 2.100700
5.741500 2.019800
5.760400 1.917500
5.779400 1.856100
5.798300 1.810600
5.817300 1.781500
5.836300 1.767600
5.855200 1.787800
5.874200 1.847400
5.893100 1.918200
5.912100 2.020300
5.931000 2.135400
5.950000 2.267400
5.969000 2.420600
5.987900 2.583800
6.006900 2.738100
6.025800 2.860000
6.044800 2.961800
6.063700 3.047300
6.082700 3.070400
6.101600 3.061000
6.120600 3.085000
6.139600 3.110600
6.158500 3.292800
6.177500 3.121600
6.196400 3.045200
6.215400 2.959600
6.234300 2.893600
6.253300 2.844800
6.272200 2.807600
6.291200 2.787500
6.310200 2.790600
6.329100 2.813800
6.348100 2.828900
6.367000 2.790600
6.386000 2.795800
6.404900 2.777300
6.423900 2.746000
6.442800 2.730100
6.461800 2.733300
6.480800 2.733500
6.499700 2.714600
6.518700 2.680700
6.537600 2.702100
6.556600 2.679900
6.575500 2.655900
6.594500 2.630500
6.613400 2.603900
6.632400 2.576900
6.651400 2.556800
6.670300 2.542200
6.689300 2.542200
6.708200 2.569500
6.727200 2.549600
6.746100 2.508400
6.765100 2.411300
6.784000 2.359800
6.803000 2.319200
6.822000 2.285200
6.840900 2.254000
6.859900 2.228400
6.878800 2.208400
6.897800 2.184900
6.916700 2.161400
6.935700 2.149600
6.954600 2.144900
6.973600 2.142300
6.992600 2.564600
7.011500 2.597600
7.030500 2.384500
7.049400 2.332700
7.068400 2.281000
7.087300 2.238600
7.106300 2.205700
7.125200 2.194600
7.144200 2.165000
7.163200 2.147700
7.182100 2.152900
7.201100 2.168600
7.220000 2.174800
7.239000 2.162500
7.257900 2.206500
7.276900 2.239400
7.295900 2.324300
7.314800 2.432100
7.333800 2.539300
7.352700 2.616700
7.371700 2.678500
7.390600 2.732400
7.409600 2.786500
7.428500 2.867900
7.447500 2.947900
7.466500 2.993600
7.485400 3.021900
7.504400 3.054000
7.523300 3.048900
7.542300 3.008200
7.561200 2.950600
7.580200 2.894800
7.599100 2.811300
7.618100 2.726300
7.637100 2.621300
7.656000 2.525900
7.675000 2.455700
7.693900 2.401200
7.712900 2.354400
7.731800 2.329300
7.750800 2.315400
7.769700 2.303800
7.788700 2.286500
7.807700 2.249000
7.826600 2.314400
7.845600 2.310500
7.864500 2.310700
7.883500 2.305200
7.902400 2.354100
7.921400 2.355700
7.940300 2.361700
7.959300 2.370900
7.978300 2.300400
7.997200 2.329800
8.016200 2.364000
8.035100 2.404300
8.054100 2.444600
8.073000 2.491500
8.092000 2.526400
8.110900 2.546900
8.129900 2.611100
8.148900 2.602800
8.167800 2.620800
8.186800 2.578000
8.205700 2.571900
8.224700 2.587500
8.243600 2.614600
8.262600 2.637000
8.281500 2.767800
8.300500 2.833300
8.319500 2.797400
8.338400 2.711400
8.357400 2.721400
8.376300 2.727200
8.395300 2.689100
8.414200 2.646000
8.433200 2.586300
8.452100 2.536900
8.471100 2.490600
8.490100 2.449000
8.509000 2.423700
8.528000 2.410500
8.546900 2.407200
8.565900 2.353100
8.584800 2.360700
8.603800 2.379000
8.622800 2.413300
8.641700 2.442800
8.660700 2.479400
8.679600 2.563900
8.698600 2.729700
8.717500 2.853700
8.736500 2.821800
8.755400 2.771800
8.774400 2.694900
8.793400 2.582100
8.812300 2.452100
8.831300 2.298300
8.850200 2.171500
8.869200 2.042600
8.888100 1.939500
8.907100 1.924500
8.926000 1.979200
8.945000 1.988300
8.964000 2.005400
8.982900 2.089700
9.001900 2.203700
9.020800 2.237900
9.039800 2.248200
9.058700 2.257900
9.077700 2.266700
9.096600 2.274600
9.115600 2.277200
9.134600 2.238800
9.153500 2.208500
9.172500 2.171200
9.191400 2.169700
9.210400 2.250000
9.229300 2.260300
9.248300 2.178100
9.267200 2.089300
9.286200 2.020900
9.305200 2.001500
9.324100 2.002500
9.343100 1.980600
9.362000 1.999000
9.381000 2.031300
9.399900 2.081700
9.418900 2.214200
9.437800 2.273300
9.456800 2.332500
9.475800 2.567100
9.494700 2.412500
9.513700 2.430000
9.532600 2.503800
9.551600 2.563200
9.570500 2.633400
9.589500 2.739500
9.608400 2.876700
9.627400 3.021700
9.646400 3.082900
9.665300 3.152000
9.684300 3.241900
9.703200 3.273600
9.722200 3.349000
9.741100 3.423100
9.760100 3.491400
9.779100 3.563700
9.798000 3.543600
9.817000 3.530700
9.835900 3.539200
9.854900 3.412600
9.873800 3.131800
9.892800 3.075200
9.911700 3.026200
9.930700 2.986500
9.949700 2.945900
9.968600 2.914000
9.987600 2.898400
10.006500 2.896500
10.025500 3.458600
10.044400 2.978700
10.063400 3.033900
10.082300 3.122800
10.101300 3.222000
10.120300 3.316900
10.139200 3.398000
10.158200 3.497100
10.177100 3.524000
10.196100 3.530300
10.215000 3.530600
10.234000 3.536500
10.252900 3.546200
10.271900 3.554500
10.290900 3.559200
10.309800 3.610600
10.328800 3.629400
10.347700 3.611600
10.366700 3.453900
10.385600 3.285300
10.404600 3.259500
10.423500 3.233400
10.442500 3.208600
10.461500 3.170400
10.480400 3.112800
10.499400 3.044000
10.518300 2.961000
10.537300 2.803700
10.556200 2.755200
10.575200 2.699000
10.594100 2.649300
10.613100 2.594900
10.632100 2.544600
10.651000 2.511800
10.670000 2.472800
10.688900 2.423700
10.707900 2.406300
10.726800 2.424500
10.745800 2.456500
10.764700 2.450900
10.783700 2.415700
10.802700 2.402100
10.821600 2.376400
10.840600 2.409100
10.859500 2.456800
10.878500 2.426000
10.897400 2.363800
10.916400 2.329500
10.935300 2.219200
10.954300 2.261000
10.973300 2.288000
10.992200 2.347600
11.011200 2.405100
11.030100 2.451400
11.049100 2.500400
11.068000 2.555000
11.087000 2.615100
11.106000 2.674300
11.124900 2.772100
11.143900 2.885400
11.162800 3.016000
11.181800 3.153600
11.200700 3.289700
11.219700 3.409300
11.238600 3.456200
11.257600 3.479700
11.276600 3.524700
11.295500 3.508500
11.314500 3.407200
11.333400 3.399100
11.352400 3.483000
11.371300 3.549700
11.390300 3.583200
11.409200 3.543200
11.428200 3.371600
11.447200 3.196700
11.466100 3.072900
11.485100 2.952800
11.504000 2.847800
11.523000 2.797800
11.541900 3.309900
11.560900 3.491700
11.579800 2.902100
11.598800 2.583500
11.617800 2.490300
11.636700 2.806600
11.655700 2.643600
11.674600 2.703500
11.693600 2.767400
11.712500 2.818500
11.731500 2.843000
11.750400 2.848600
11.769400 2.898800
11.788400 2.953300
11.807300 3.002200
11.826300 3.061900
11.845200 3.136800
11.864200 3.227700
11.883100 3.283300
11.902100 3.314800
11.921000 3.386600
11.940000 3.388600
11.959000 3.382200
11.977900 3.321500
11.996900 3.358000
12.015800 3.457400
12.034800 3.613000
12.053700 3.629500
12.072700 3.585300
12.091600 3.546900
12.110600 3.461600
12.129600 3.361900
12.148500 3.254300
12.167500 3.148000
12.186400 2.951800
12.205400 2.893300
12.224300 2.854200
12.243300 2.820700
12.262300 2.834200
12.281200 2.870500
12.300200 2.743400
12.319100 2.765900
12.338100 2.780600
12.357000 2.699000
12.376000 2.717200
12.394900 2.764000
12.413900 2.817100
12.432900 2.910600
12.451800 2.968600
12.470800 3.010800
12.489700 3.027700
12.508700 3.066900
12.527600 3.295000
12.546600 3.473900
12.565500 3.510800
12.584500 3.836700
12.603500 3.966200
12.622400 4.121300
12.641400 4.209300
12.660300 4.319500
12.679300 4.920400
12.698200 3.979700
12.717200 3.843100
12.736100 3.750100
12.755100 3.655800
12.774100 3.616800
12.793000 3.464700
12.812000 3.314400
12.830900 3.165700
12.849900 3.017000
12.868800 2.828400
12.887800 2.561000
12.906700 2.365500
12.925700 2.251400
12.944700 2.160200
12.963600 2.101900
12.982600 2.068200
13.001500 2.055200
13.020500 2.061700
13.039400 2.092600
13.058400 2.148200
13.077300 2.230700
13.096300 2.434100
13.115300 2.667100
13.134200 2.910100
13.153200 2.956200
13.172100 3.186600
13.191100 3.430100
13.210000 3.688200
13.229000 4.132800
13.247900 4.069400
13.266900 3.777600
13.285900 3.734000
13.304800 3.732200
13.323800 3.740400
13.342700 3.769000
13.361700 3.864100
13.380600 3.863300
13.399600 3.685000
13.418500 3.576900
13.437500 3.505600
13.456500 3.431600
13.475400 3.333100
13.494400 3.208000
13.513300 3.058700
13.532300 2.902400
13.551200 2.786900
13.570200 2.460400
13.589200 2.354800
13.608100 2.341700
13.627100 2.329100
13.646000 2.381300
13.665000 2.509500
13.683900 2.634400
13.702900 2.777800
13.721800 2.952200
13.740800 3.184600
13.759800 3.386000
13.778700 3.337600
13.797700 3.275500
13.816600 3.223000
13.835600 3.198800
13.854500 3.202200
13.873500 3.236400
13.892400 3.265800
13.911400 3.290500
13.930400 3.310500
13.949300 3.325700
13.968300 3.338200
13.987200 3.345300
14.006200 3.519400
14.025100 3.514800
14.044100 3.454700
14.063000 3.405800
14.082000 3.574300
14.101000 3.420700
14.119900 3.334700
14.138900 3.297100
14.157800 3.132800
14.176800 2.835500
14.195700 2.610600
14.214700 2.526800
14.233600 2.444700
14.252600 2.278900
14.271600 2.134800
14.290500 2.063000
14.309500 2.025700
14.328400 2.019000
14.347400 2.048700
14.366300 2.082300
14.385300 2.463600
14.404200 2.663400
14.423200 2.738400
14.442200 2.626900
14.461100 2.558100
14.480100 2.511900
14.499000 2.652900
14.518000 2.693100
14.536900 2.746300
14.555900 2.921000
14.574800 3.145800
14.593800 3.381200
14.612800 3.746100
14.631700 4.283000
14.650700 4.815800
14.669600 5.088500
14.688600 5.289800
14.707500 5.285200
14.726500 4.938400
14.745500 4.167300
14.764400 3.857300
14.783400 3.600800
14.802300 3.388600
14.821300 3.248000
14.840200 3.106100
14.859200 3.065000
14.878100 3.010900
14.897100 2.979200
14.916100 2.982500
14.935000 3.032300
14.954000 3.129000
14.972900 3.151700
14.991900 3.204500
15.010800 3.432100
15.029800 3.740400
15.048700 4.127600
15.067700 4.289500
15.086700 4.262600
15.105600 4.077700
15.124600 3.982700
15.143500 3.949700
15.162500 3.918400
15.181400 3.915200
15.200400 4.047300
15.219300 4.237200
15.238300 4.397000
15.257300 4.286600
15.276200 3.560300
15.295200 3.173400
15.314100 2.944100
15.333100 2.831500
15.352000 2.733000
15.371000 2.657900
15.389900 2.628200
15.408900 2.617300
15.427900 2.616700
15.446800 2.654200
15.465800 2.662500
15.484700 2.672500
15.503700 2.688900
15.522600 2.763100
15.541600 2.808400
15.560500 2.862100
15.579500 2.944500
15.598500 2.998600
15.617400 3.035400
15.636400 3.035400
15.655300 3.874300
15.674300 3.838100
15.693200 3.792600
15.712200 3.596800
15.731100 3.714900
15.750100 3.811000
15.769100 4.020400
15.788000 4.112600
15.807000 4.135000
15.825900 4.187200
15.844900 3.980900
15.863800 3.977100
15.882800 3.968500
15.901700 3.990400
15.920700 4.125900
15.939700 4.112400
15.958600 4.129400
15.977600 4.175600
15.996500 4.203900
16.015500 4.134000
16.034400 4.119500
16.053400 4.168500
16.072400 4.530200
16.091300 4.656900
16.110300 4.674400
16.129200 4.409100
16.148200 4.205600
16.167100 3.959300
16.186100 3.832400
16.205000 3.779000
16.224000 3.764300
16.243000 4.000900
16.261900 3.880400
16.280900 3.852300
16.299800 3.753300
16.318800 3.651700
16.337700 3.513600
16.356700 3.342100
16.375600 3.115500
16.394600 2.905600
16.413600 2.786100
16.432500 2.742400
16.451500 2.710700
16.470400 2.734400
16.489400 2.858200
16.508300 2.997800
16.527300 3.180900
16.546200 3.319400
16.565200 3.407100
16.584200 3.474500
16.603100 3.570800
16.622100 3.582400
16.641000 3.519500
16.660000 3.523100
16.678900 3.540400
16.697900 3.569700
16.716800 3.610900
16.735800 3.630300
16.754800 3.637200
16.773700 3.707300
16.792700 4.066300
16.811600 3.929400
16.830600 3.764700
16.849500 3.639900
16.868500 3.619300
16.887400 3.645800
16.906400 3.681400
16.925400 3.726200
16.944300 3.832400
16.963300 3.902200
16.982200 4.161000
17.001200 4.247400
17.020100 4.251500
17.039100 4.320700
17.058000 4.336500
17.077000 4.241700
17.096000 4.080000
17.114900 3.960000
17.133900 3.806900
17.152800 3.883900
17.171800 3.918800
17.190700 3.878000
17.209700 3.817900
17.228600 3.750500
17.247600 3.618800
17.266600 3.485700
17.285500 3.367800
17.304500 3.261200
17.323400 3.182300
17.342400 3.317700
17.361300 3.176800
17.380300 3.026900
17.399300 2.942800
17.418200 3.066700
17.437200 3.090000
17.456100 3.102200
17.475100 3.102500
17.494000 3.101200
17.513000 3.088700
17.531900 3.068500
17.550900 3.088600
17.569900 3.122000
17.588800 3.177500
17.607800 3.239700
17.626700 3.317900
17.645700 3.339300
17.664600 3.342700
17.683600 3.328600
17.702500 3.295900
17.721500 3.258500
17.740500 3.213800
17.759400 3.127200
17.778400 3.116700
17.797300 3.109800
17.816300 3.046500
17.835200 3.007700
17.854200 3.012800
17.873100 3.131600
17.892100 3.289100
17.911100 3.441900
17.930000 3.574800
17.949000 3.688000
17.967900 3.781900
17.986900 3.812900
18.005800 3.867700
18.024800 3.936100
18.043700 3.982300
18.062700 3.950000
18.081700 3.921800
18.100600 3.849400
18.119600 3.621200
18.138500 3.345700
18.157500 3.281900
18.176400 3.275000
18.195400 3.257500
18.214300 3.225600
18.233300 3.227200
18.252300 3.409200
18.271200 3.399000
18.290200 3.385200
18.309100 3.381000
18.328100 3.370800
18.347000 3.399700
18.366000 3.462700
18.384900 3.521000
18.403900 3.608100
18.422900 3.725900
18.441800 3.826700
18.460800 3.787200
18.479700 3.948200
18.498700 4.137300
18.517600 4.477600
18.536600 3.880100
18.555600 3.725100
18.574500 3.604400
18.593500 3.537300
18.612400 3.472000
18.631400 3.418300
18.650300 3.387000
18.669300 3.367000
18.688200 3.366700
18.707200 3.487400
18.726200 3.466800
18.745100 3.426300
18.764100 3.276700
18.783000 3.281800
18.802000 3.261200
18.820900 3.252400
18.839900 3.258400
18.858800 3.340600
18.877800 3.429600
18.896800 3.579400
18.915700 3.761000
18.934700 3.968900
18.953600 4.172500
18.972600 4.141000
18.991500 4.077100
19.010500 4.113500
19.029400 4.231800
19.048400 4.348500
19.067400 4.378000
19.086300 4.460700
19.105300 4.432900
19.124200 4.355100
19.143200 4.243500
19.162100 4.152300
19.181100 4.018700
19.200000 3.888000
19.219000 3.791000
19.238000 3.719600
19.256900 3.690600
19.275900 3.642400
19.294800 3.553400
19.313800 3.512600
19.332700 3.476900
19.351700 3.359100
19.370600 3.299300
19.389600 3.230500
19.408600 3.185300
19.427500 3.166500
19.446500 3.122400
19.465400 3.259600
19.484400 3.394400
19.503300 3.277900
19.522300 3.196700
19.541200 3.244700
19.560200 3.324100
19.579200 3.396400
19.598100 3.438400
19.617100 3.448700
19.636000 3.512100
19.655000 3.521600
19.673900 3.458600
19.692900 3.332400
19.711800 3.267900
19.730800 3.201000
19.749800 3.093700
19.768700 3.006600
19.787700 3.062800
19.806600 3.194800
19.825600 3.331300
19.844500 3.500400
19.863500 3.608800
19.882500 3.812900
19.901400 4.050400
19.920400 4.050600
19.939300 4.001300
19.958300 3.933600
19.977200 3.886700
19.996200 3.869200
20.015100 3.885200
20.034100 4.139500
20.053100 3.710800
20.072000 3.666800
20.091000 3.515500
20.109900 3.398400
20.128900 3.357700
20.147800 3.321500
20.166800 3.288000
20.185700 3.232500
20.204700 3.128800
20.223700 3.025200
20.242600 2.929200
20.261600 2.833700
20.280500 2.751100
20.299500 2.692400
20.318400 2.636500
20.337400 2.586300
20.356300 2.552000
20.375300 2.545100
20.394300 2.612400
20.413200 2.698000
20.432200 2.829300
20.451100 2.894200
20.470100 2.942300
20.489000 3.033500
20.508000 3.042300
20.526900 3.022400
20.545900 3.152100
20.564900 3.284700
20.583800 3.338800
20.602800 3.368600
20.621700 3.271000
20.640700 3.323000
20.659600 3.427100
20.678600 3.566400
20.697500 3.571100
20.716500 3.568900
20.735500 3.396600
20.754400 3.370300
20.773400 3.369300
20.792300 3.378400
20.811300 3.506000
20.830200 3.690900
20.849200 3.979900
20.868100 4.325000
20.887100 4.504000
20.906100 4.334000
20.925000 3.990700
20.944000 3.846200
20.962900 3.791100
20.981900 3.758300
21.000800 3.744000
21.019800 3.775500
21.038800 3.802100
21.057700 3.828800
21.076700 3.844500
21.095600 3.847100
21.114600 3.810800
21.133500 3.688400
21.152500 3.624900
21.171400 3.568800
21.190400 3.476000
21.209400 3.485800
21.228300 3.587800
21.247300 3.667700
21.266200 3.941600
21.285200 4.149700
21.304100 4.407900
21.323100 4.670500
21.342000 4.894200
21.361000 5.039700
21.380000 5.129000
21.398900 5.122400
21.417900 5.087600
21.436800 5.038500
21.455800 5.002200
21.474700 5.118500
21.493700 5.007500
21.512600 5.612600
21.531600 4.901700
21.550600 5.012200
21.569500 5.180900
21.588500 5.004400
21.607400 4.837300
21.626400 4.690800
21.645300 4.393500
21.664300 4.209500
21.683200 4.087600
21.702200 3.933400
21.721200 3.857200
21.740100 3.794100
21.759100 3.742100
21.778000 3.707000
21.797000 3.689800
21.815900 3.682200
21.834900 3.678600
21.853800 3.713300
21.872800 3.769600
21.891800 3.823500
21.910700 3.880900
21.929700 3.941500
21.948600 4.032000
21.967600 3.934600
21.986500 3.925600
22.005500 4.023400
22.024400 4.091400
22.043400 4.310900
22.062400 4.350400
22.081300 4.429600
22.100300 4.462200
22.119200 4.484000
22.138200 4.478900
22.157100 4.456100
22.176100 4.204500
22.195000 4.132400
22.214000 4.050900
22.233000 4.005900
22.251900 3.992100
22.270900 3.990200
22.289800 4.000800
22.308800 4.059800
22.327700 4.166600
22.346700 4.253900
22.365700 4.317900
22.384600 4.362900
22.403600 4.385000
22.422500 4.442100
22.441500 4.456400
22.460400 4.475300
22.479400 4.479300
22.498300 4.476900
22.517300 4.609900
22.536300 4.531300
22.555200 4.411300
22.574200 4.322500
22.593100 4.270500
22.612100 4.221800
22.631000 4.209500
22.650000 4.344700
22.668900 4.431000
22.687900 4.431400
22.706900 4.422100
22.725800 4.439000
22.744800 4.441000
22.763700 4.418500
22.782700 4.412800
22.801600 4.464900
22.820600 4.515100
22.839500 4.735400
22.858500 4.442900
22.877500 4.122500
22.896400 3.930400
22.915400 3.778600
22.934300 3.663800
22.953300 3.630400
22.972200 3.602500
22.991200 3.610900
23.010100 3.551400
23.029100 3.524000
23.048100 3.518700
23.067000 3.533200
23.086000 3.595000
23.104900 3.661800
23.123900 3.678000
23.142800 3.606600
23.161800 3.522700
23.180700 3.520900
23.199700 3.532600
23.218700 3.557300
23.237600 3.595900
23.256600 3.582900
23.275500 3.636600
23.294500 3.731000
23.313400 3.853300
23.332400 3.855600
23.351300 3.906800
23.370300 3.963400
23.389300 4.264600
23.408200 4.360700
23.427200 4.479600
23.446100 4.634600
23.465100 4.854400
23.484000 5.012700
23.503000 5.357100
23.521900 5.272500
23.540900 5.059100
23.559900 4.614900
23.578800 4.444800
23.597800 4.684000
23.616700 4.457000
23.635700 4.362600
23.654600 4.215000
23.673600 4.265100
23.692600 4.312500
23.711500 4.338100
23.730500 4.331000
23.749400 4.345500
23.768400 4.361200
23.787300 4.371800
23.806300 4.295800
23.825200 4.413100
23.844200 4.514600
23.863200 4.599000
23.882100 4.658700
23.901100 4.789800
23.920000 4.390100
23.939000 4.177100
23.957900 4.180900
23.976900 4.151200
23.995800 4.120400
24.014800 4.106300
24.033800 4.076000
24.052700 4.042500
24.071700 3.859500
24.090600 3.706300
24.109600 3.630400
24.128500 3.593800
24.147500 3.664100
24.166400 3.725200
24.185400 3.823300
24.204400 3.851000
24.223300 3.880200
24.242300 3.936100
24.261200 4.242400
24.280200 3.919600
24.299100 4.212300
24.318100 4.366300
24.337000 4.293300
24.356000 4.416900
24.375000 4.515200
24.393900 4.589100
24.412900 4.638900
24.431800 4.662400
24.450800 4.694000
24.469700 4.724800
24.488700 4.745000
24.507600 4.736900
24.526600 4.629100
24.545600 4.683100
24.564500 4.723600
24.583500 4.739200
24.602400 4.709700
24.621400 4.693100
24.640300 4.642900
24.659300 4.579900
24.678200 4.502900
24.697200 4.412500
24.716200 4.362200
24.735100 4.454600
24.754100 4.533900
24.773000 4.476300
24.792000 4.365700
24.810900 4.362200
24.829900 4.483400
24.848900 4.496200
24.867800 4.478000
24.886800 4.324200
24.905700 4.265500
24.924700 4.286600
24.943600 4.357500
24.962600 4.583500
24.981500 4.816900
25.000500 5.066800
25.019500 5.352400
25.038400 5.570500
25.057400 5.756000
25.076300 5.510500
25.095300 5.092500
25.114200 4.870400
25.133200 4.682900
25.152100 4.510200
25.171100 4.383800
25.190100 4.228900
25.209000 3.990900
25.228000 3.789800
25.246900 3.699100
25.265900 3.658500
25.284800 3.631200
25.303800 3.607800
25.322700 3.587900
25.341700 3.573200
25.360700 3.538600
25.379600 3.649800
25.398600 3.839600
25.417500 4.151400
25.436500 4.317600
25.455400 4.838700
25.474400 4.758200
25.493300 4.970600
25.512300 4.734000
25.531300 4.558100
25.550200 4.408700
25.569200 4.207900
25.588100 4.064900
25.607100 3.989700
25.626000 3.934900
25.645000 3.891200
25.663900 3.860500
25.682900 3.934500
25.701900 4.153200
25.720800 4.047600
25.739800 4.073400
25.758700 4.150600
25.777700 4.238800
25.796600 4.299200
25.815600 4.386200
25.834500 4.562600
25.853500 4.290700
25.872500 4.234500
25.891400 4.222200
25.910400 4.241900
25.929300 4.356500
25.948300 4.320300
25.967200 4.256000
25.986200 4.212600
26.005100 4.175000
26.024100 4.188500
26.043100 4.168900
26.062000 4.154600
26.081000 4.142200
26.099900 4.140100
26.118900 4.143900
26.137800 4.082300
26.156800 4.126100
26.175800 4.114100
26.194700 4.063200
26.213700 4.002200
26.232600 4.040600
26.251600 3.968100
26.270500 3.892600
26.289500 3.821400
26.308400 3.739400
26.327400 3.593200
26.346400 3.387800
26.365300 3.445400
26.384300 3.614900
26.403200 4.168900
26.422200 4.134500
26.441100 4.007200
26.460100 3.990300
26.479000 4.064700
26.498000 4.265100
26.517000 4.447000
26.535900 4.315500
26.554900 4.203700
26.573800 4.254600
26.592800 4.245400
26.611700 4.334700
26.630700 3.669100
26.649600 3.624500
26.668600 3.640900
26.687600 3.711600
26.706500 4.695100
26.725500 4.462000
26.744400 4.364000
26.763400 4.387700
26.782300 4.539100
26.801300 4.838500
26.820200 5.079700
26.839200 5.287900
26.858200 5.112400
26.877100 5.103600
26.896100 4.941900
26.915000 4.860200
26.934000 4.717300
26.952900 4.454000
26.971900 4.399700
26.990800 4.432200
27.009800 4.418200
27.028800 4.655500
27.047700 4.513800
27.066700 4.437400
27.085600 4.409300
27.104600 4.298600
27.123500 4.275900
27.142500 4.241900
27.161400 4.220400
27.180400 4.215100
27.199400 4.262100
27.218300 4.332400
27.237300 4.573700
27.256200 4.799800
27.275200 4.574800
27.294100 4.466900
27.313100 4.417000
27.332100 4.381500
27.351000 4.381800
27.370000 4.619300
27.388900 4.731800
27.407900 4.802100
27.426800 5.876300
27.445800 4.879000
27.464700 4.859600
27.483700 4.743700
27.502700 4.677400
27.521600 4.606700
27.540600 4.619600
27.559500 4.663200
27.578500 4.713100
27.597400 4.804700
27.616400 5.033900
27.635300 5.389500
27.654300 5.412900
27.673300 4.983500
27.692200 4.865300
27.711200 4.836300
27.730100 4.659100
27.749100 4.309500
27.768000 4.103900
27.787000 3.910900
27.805900 3.719600
27.824900 3.560600
27.843900 3.347000
27.862800 3.225300
27.881800 3.089000
27.900700 2.959700
27.919700 2.654500
27.938600 2.340000
27.957600 2.342500
27.976500 2.305500
27.995500 2.178000
28.014500 2.159300
28.033400 2.148500
28.052400 2.124900
28.071300 2.068200
28.090300 1.980300
28.109200 1.862600
28.128200 1.744000
28.147100 1.649700
28.166100 1.576300
28.185100 1.538500
28.204000 1.496700
28.223000 1.463300
28.241900 1.435100
28.260900 1.410600
28.279800 1.407600
28.298800 1.431400
28.317700 1.384800
28.336700 1.357900
28.355700 1.322300
28.374600 1.352200
28.393600 1.372000
28.412500 1.339200
28.431500 1.215200
28.450400 1.156500
28.469400 1.116500
28.488300 1.074300
28.507300 1.029600
28.526300 0.982200
28.545200 0.932100
28.564200 1.102800
28.583100 0.988700
28.602100 0.818900
28.621000 0.554100
28.640000 0.327900
28.659000 0.278800
28.677900 0.236000
28.696900 0.199400
28.715800 0.169200
28.734800 0.144600
28.753700 0.122200
28.772700 0.101800
28.791600 0.083300
28.810600 0.066700
28.829600 0.052000
28.848500 0.039200
28.867500 0.028300
28.886400 0.019200
28.905400 0.011500
28.924300 0.005200
28.943300 0.000400
28.962200 0.000000
28.981200 0.000000
29.000200 0.000000
29.019100 0.000000
29.038100 0.000000
29.057000 0.000000
29.076000 0.000000
29.094900 0.000000
29.113900 0.000000
29.132800 0.000000
29.151800 0.000000
29.170800 0.000000
29.189700 0.000000
29.208700 0.000000
29.227600 0.000000
29.246600 0.000000
29.265500 0.000000
29.284500 0.000000
29.303400 0.000000
29.322400 0.000000
29.341400 0.000000
29.360300 0.000000
29.379300 0.000000
29.398200 0.000000
29.417200 0.000000
29.436100 0.000000
29.455100 0.000000
29.474000 0.000000
29.493000 0.000000
29.512000 0.000000
29.530900 0.000000
29.549900 0.000000
29.568800 0.000000
29.587800 0.000000
29.606700 0.000000
29.625700 0.000000
29.644600 0.000000
29.663600 0.000000
29.682600 0.000000
29.701500 0.000000
29.720500 0.000000
29.739400 0.000000
29.758400 0.000000
29.777300 0.000000
29.796300 0.000000
29.815300 0.000000
29.834200 0.000000
29.853200 0.000000
29.872100 0.000000
29.891100 0.000000
29.910000 0.000000
29.929000 0.000000
29.947900 0.000000
29.966900 0.000000
29.985900 0.000000
30.004800 0.000000
30.023800 0.000000
30.042700 0.000000
30.061700 0.000000
30.080600 0.000000
30.099600 0.000000
30.118500 0.000000
30.137500 0.000000
30.156500 0.000000
30.175400 0.000000
30.194400 0.000000
30.213300 0.000000
30.232300 0.000000
30.251200 0.000000
30.270200 0.000000
30.289100 0.000000
30.308100 0.000000
30.327100 0.000000
30.346000 0.000000
30.365000 0.000000
30.383900 0.000000
30.402900 0.000000
30.421800 0.000000
30.440800 0.000000
30.459700 0.000000
30.478700 0.000000
30.497700 0.000000
30.516600 0.000000
30.535600 0.000000
30.554500 0.000000
30.573500 0.000000
30.592400 0.000000
30.611400 0.000000
30.630300 0.000000
30.649300 0.000000
30.668300 0.000000
e
