set title 'mp-1183256 - Density of States'
set xlabel 'Energy (eV)'
set ylabel 'DOS (states/eV)'
set grid
set xrange [-10:10]
set yrange [0:29.917]
set xzeroaxis lt -1
set terminal png size 800,600
set output 'mp-1183256_dos_gnuplot.png'
plot '-' using 1:2 with lines title 'DOS'
-12.836000 0.000000
-12.816400 0.000000
-12.796800 0.000000
-12.777200 0.000000
-12.757700 0.000000
-12.738100 0.000000
-12.718500 0.000000
-12.698900 0.000000
-12.679300 0.000000
-12.659800 0.000000
-12.640200 0.000000
-12.620600 0.000000
-12.601000 0.000000
-12.581400 0.000000
-12.561900 0.000000
-12.542300 0.000000
-12.522700 0.000000
-12.503100 0.000000
-12.483500 0.000000
-12.464000 0.000000
-12.444400 0.000000
-12.424800 0.000000
-12.405200 0.000000
-12.385600 0.000000
-12.366100 0.000000
-12.346500 0.000000
-12.326900 0.000000
-12.307300 0.000000
-12.287700 0.000000
-12.268200 0.000000
-12.248600 0.000000
-12.229000 0.000000
-12.209400 0.000000
-12.189800 0.000000
-12.170200 0.000000
-12.150700 0.000000
-12.131100 0.000000
-12.111500 0.000000
-12.091900 0.000000
-12.072300 0.000000
-12.052800 0.000000
-12.033200 0.000000
-12.013600 0.000000
-11.994000 0.000000
-11.974400 0.000000
-11.954900 0.000000
-11.935300 0.000000
-11.915700 0.000000
-11.896100 0.000000
-11.876500 0.000000
-11.857000 0.000000
-11.837400 0.000000
-11.817800 0.000000
-11.798200 0.000000
-11.778600 0.000000
-11.759100 0.000000
-11.739500 0.000000
-11.719900 0.000000
-11.700300 0.000000
-11.680700 0.000000
-11.661200 0.000000
-11.641600 0.000000
-11.622000 0.000000
-11.602400 0.000000
-11.582800 0.000000
-11.563300 0.000000
-11.543700 0.000000
-11.524100 0.000000
-11.504500 0.000000
-11.484900 0.000000
-11.465400 0.000000
-11.445800 0.000000
-11.426200 0.000000
-11.406600 0.000000
-11.387000 0.000000
-11.367500 0.000000
-11.347900 0.000000
-11.328300 0.000000
-11.308700 0.000000
-11.289100 0.000000
-11.269600 0.000000
-11.250000 0.000000
-11.230400 0.000000
-11.210800 0.000000
-11.191200 0.000300
-11.171700 0.002900
-11.152100 0.020900
-11.132500 0.117100
-11.112900 0.507600
-11.093300 1.730500
-11.073800 4.720100
-11.054200 10.522400
-11.034600 19.647200
-11.015000 31.556600
-10.995400 44.807900
-10.975900 57.684500
-10.956300 68.574300
-10.936700 75.843200
-10.917100 78.163200
-10.897500 75.909000
-10.878000 71.922800
-10.858400 69.941500
-10.838800 72.178300
-10.819200 78.269900
-10.799600 85.575500
-10.780100 90.410800
-10.760500 90.259100
-10.740900 85.624800
-10.721300 79.525200
-10.701700 74.636300
-10.682200 70.592800
-10.662600 64.239000
-10.643000 52.917500
-10.623400 37.541900
-10.603800 22.181700
-10.584300 10.693100
-10.564700 4.157500
-10.545100 1.296000
-10.525500 0.322800
-10.505900 0.063900
-10.486400 0.010000
-10.466800 0.001200
-10.447200 0.000100
-10.427600 0.000000
-10.408000 0.000000
-10.388500 0.000000
-10.368900 0.000000
-10.349300 0.000000
-10.329700 0.000000
-10.310100 0.000000
-10.290600 0.000000
-10.271000 0.000000
-10.251400 0.000000
-10.231800 0.000000
-10.212200 0.000000
-10.192700 0.000000
-10.173100 0.000000
-10.153500 0.000000
-10.133900 0.000000
-10.114300 0.000000
-10.094800 0.000000
-10.075200 0.000000
-10.055600 0.000000
-10.036000 0.000000
-10.016400 0.000000
-9.996900 0.000000
-9.977300 0.000000
-9.957700 0.000000
-9.938100 0.000000
-9.918500 0.000000
-9.899000 0.000000
-9.879400 0.000000
-9.859800 0.000000
-9.840200 0.000000
-9.820600 0.000000
-9.801100 0.000000
-9.781500 0.000000
-9.761900 0.000000
-9.742300 0.000000
-9.722700 0.000000
-9.703200 0.000000
-9.683600 0.000000
-9.664000 0.000000
-9.644400 0.000000
-9.624800 0.000000
-9.605300 0.000000
-9.585700 0.000000
-9.566100 0.000000
-9.546500 0.000000
-9.526900 0.000000
-9.507400 0.000000
-9.487800 0.000000
-9.468200 0.000000
-9.448600 0.000000
-9.429000 0.000000
-9.409500 0.000000
-9.389900 0.000000
-9.370300 0.000000
-9.350700 0.000000
-9.331100 0.000000
-9.311600 0.000000
-9.292000 0.000000
-9.272400 0.000000
-9.252800 0.000000
-9.233200 0.000000
-9.213700 0.000000
-9.194100 0.000000
-9.174500 0.000000
-9.154900 0.000000
-9.135300 0.000000
-9.115800 0.000000
-9.096200 0.000000
-9.076600 0.000000
-9.057000 0.000000
-9.037400 0.000000
-9.017900 0.000000
-8.998300 0.000000
-8.978700 0.000000
-8.959100 0.000000
-8.939500 0.000000
-8.920000 0.000000
-8.900400 0.000000
-8.880800 0.000000
-8.861200 0.000000
-8.841600 0.000000
-8.822100 0.000000
-8.802500 0.000000
-8.782900 0.000000
-8.763300 0.000000
-8.743700 0.000000
-8.724200 0.000000
-8.704600 0.000000
-8.685000 0.000000
-8.665400 0.000000
-8.645800 0.000000
-8.626300 0.000000
-8.606700 0.000000
-8.587100 0.000000
-8.567500 0.000000
-8.547900 0.000000
-8.528400 0.000000
-8.508800 0.000000
-8.489200 0.000000
-8.469600 0.000000
-8.450000 0.000000
-8.430500 0.000000
-8.410900 0.000000
-8.391300 0.000000
-8.371700 0.000000
-8.352100 0.000000
-8.332600 0.000000
-8.313000 0.000000
-8.293400 0.000000
-8.273800 0.000000
-8.254200 0.000000
-8.234700 0.000000
-8.215100 0.000000
-8.195500 0.000000
-8.175900 0.000000
-8.156300 0.000000
-8.136800 0.000000
-8.117200 0.000000
-8.097600 0.000000
-8.078000 0.000000
-8.058400 0.000000
-8.038900 0.000000
-8.019300 0.000000
-7.999700 0.000000
-7.980100 0.000000
-7.960500 0.000000
-7.941000 0.000000
-7.921400 0.000000
-7.901800 0.000000
-7.882200 0.000000
-7.862600 0.000000
-7.843100 0.000000
-7.823500 0.000000
-7.803900 0.000000
-7.784300 0.000000
-7.764700 0.000000
-7.745200 0.000000
-7.725600 0.000000
-7.706000 0.000000
-7.686400 0.000000
-7.666800 0.000000
-7.647300 0.000000
-7.627700 0.000000
-7.608100 0.000000
-7.588500 0.000000
-7.568900 0.000000
-7.549400 0.000000
-7.529800 0.000000
-7.510200 0.000000
-7.490600 0.000000
-7.471000 0.000000
-7.451500 0.000000
-7.431900 0.000000
-7.412300 0.000000
-7.392700 0.000000
-7.373100 0.000000
-7.353600 0.000000
-7.334000 0.000000
-7.314400 0.000000
-7.294800 0.000000
-7.275200 0.000000
-7.255700 0.000000
-7.236100 0.000000
-7.216500 0.000000
-7.196900 0.000000
-7.177300 0.000000
-7.157700 0.000000
-7.138200 0.000000
-7.118600 0.000000
-7.099000 0.000000
-7.079400 0.000000
-7.059800 0.000000
-7.040300 0.000000
-7.020700 0.000000
-7.001100 0.000000
-6.981500 0.000000
-6.961900 0.000000
-6.942400 0.000000
-6.922800 0.000000
-6.903200 0.000000
-6.883600 0.000000
-6.864000 0.000000
-6.844500 0.000000
-6.824900 0.000000
-6.805300 0.000000
-6.785700 0.000000
-6.766100 0.000000
-6.746600 0.000000
-6.727000 0.000000
-6.707400 0.000000
-6.687800 0.000000
-6.668200 0.000000
-6.648700 0.000000
-6.629100 0.000000
-6.609500 0.000000
-6.589900 0.000000
-6.570300 0.000000
-6.550800 0.000000
-6.531200 0.000000
-6.511600 0.000000
-6.492000 0.000000
-6.472400 0.000000
-6.452900 0.000000
-6.433300 0.000000
-6.413700 0.000000
-6.394100 0.000000
-6.374500 0.000000
-6.355000 0.000000
-6.335400 0.000000
-6.315800 0.000000
-6.296200 0.000000
-6.276600 0.000000
-6.257100 0.000000
-6.237500 0.000000
-6.217900 0.000000
-6.198300 0.000000
-6.178700 0.000000
-6.159200 0.000000
-6.139600 0.000000
-6.120000 0.000000
-6.100400 0.000000
-6.080800 0.000000
-6.061300 0.000000
-6.041700 0.000000
-6.022100 0.000000
-6.002500 0.000000
-5.982900 0.000000
-5.963400 0.000000
-5.943800 0.000000
-5.924200 0.000000
-5.904600 0.000000
-5.885000 0.000000
-5.865500 0.000000
-5.845900 0.000000
-5.826300 0.000000
-5.806700 0.000000
-5.787100 0.000000
-5.767600 0.000000
-5.748000 0.000000
-5.728400 0.000000
-5.708800 0.000000
-5.689200 0.000000
-5.669700 0.000000
-5.650100 0.000000
-5.630500 0.000000
-5.610900 0.000000
-5.591300 0.000000
-5.571800 0.000000
-5.552200 0.000000
-5.532600 0.000000
-5.513000 0.000000
-5.493400 0.000000
-5.473900 0.000000
-5.454300 0.000000
-5.434700 0.000000
-5.415100 0.000000
-5.395500 0.000000
-5.376000 0.000000
-5.356400 0.000000
-5.336800 0.000000
-5.317200 0.000000
-5.297600 0.000000
-5.278100 0.000000
-5.258500 0.000000
-5.238900 0.000000
-5.219300 0.000000
-5.199700 0.000000
-5.180200 0.000000
-5.160600 0.000200
-5.141000 0.000900
-5.121400 0.003600
-5.101800 0.011300
-5.082300 0.027300
-5.062700 0.052300
-5.043100 0.083000
-5.023500 0.114200
-5.003900 0.146500
-4.984400 0.193000
-4.964800 0.269600
-4.945200 0.360200
-4.925600 0.405700
-4.906000 0.360400
-4.886500 0.253000
-4.866900 0.166200
-4.847300 0.166000
-4.827700 0.261300
-4.808100 0.405300
-4.788600 0.530300
-4.769000 0.596600
-4.749400 0.614700
-4.729800 0.623500
-4.710200 0.646300
-4.690700 0.653500
-4.671100 0.586500
-4.651500 0.436500
-4.631900 0.273000
-4.612300 0.183300
-4.592800 0.208300
-4.573200 0.330700
-4.553600 0.495700
-4.534000 0.643900
-4.514400 0.746600
-4.494900 0.826900
-4.475300 0.936600
-4.455700 1.070900
-4.436100 1.118700
-4.416500 0.972800
-4.397000 0.681700
-4.377400 0.420700
-4.357800 0.325500
-4.338200 0.397400
-4.318600 0.540500
-4.299100 0.652700
-4.279500 0.698200
-4.259900 0.723000
-4.240300 0.802600
-4.220700 0.944700
-4.201200 1.042400
-4.181600 0.974000
-4.162000 0.753800
-4.142400 0.543100
-4.122800 0.507000
-4.103300 0.683600
-4.083700 0.975500
-4.064100 1.233800
-4.044500 1.362200
-4.024900 1.365500
-4.005400 1.297500
-3.985800 1.169100
-3.966200 0.951000
-3.946600 0.674000
-3.927000 0.458400
-3.907500 0.422800
-3.887900 0.595100
-3.868300 0.899000
-3.848700 1.201000
-3.829100 1.397300
-3.809600 1.484500
-3.790000 1.536400
-3.770400 1.590200
-3.750800 1.568500
-3.731200 1.369800
-3.711700 1.027000
-3.692100 0.699900
-3.672500 0.524500
-3.652900 0.539700
-3.633300 0.732600
-3.613800 1.070300
-3.594200 1.484500
-3.574600 1.861400
-3.555000 2.070700
-3.535400 2.033300
-3.515900 1.784900
-3.496300 1.453200
-3.476700 1.157700
-3.457100 0.956600
-3.437500 0.892100
-3.418000 1.011000
-3.398400 1.280300
-3.378800 1.537600
-3.359200 1.622800
-3.339600 1.548000
-3.320100 1.452500
-3.300500 1.402600
-3.280900 1.324900
-3.261300 1.142000
-3.241700 0.897400
-3.222200 0.708900
-3.202600 0.643800
-3.183000 0.688900
-3.163400 0.808800
-3.143800 0.966500
-3.124300 1.109500
-3.104700 1.186100
-3.085100 1.165800
-3.065500 1.045400
-3.045900 0.866400
-3.026400 0.709600
-3.006800 0.632900
-2.987200 0.624200
-2.967600 0.632100
-2.948000 0.625300
-2.928500 0.619500
-2.908900 0.664000
-2.889300 0.773200
-2.869700 0.864500
-2.850100 0.833200
-2.830600 0.702000
-2.811000 0.625200
-2.791400 0.746400
-2.771800 1.089800
-2.752200 1.555000
-2.732700 1.983000
-2.713100 2.255100
-2.693500 2.337400
-2.673900 2.236400
-2.654300 1.972900
-2.634800 1.617900
-2.615200 1.291500
-2.595600 1.099800
-2.576000 1.084900
-2.556400 1.213500
-2.536900 1.404700
-2.517300 1.569300
-2.497700 1.639600
-2.478100 1.611900
-2.458500 1.566500
-2.439000 1.600900
-2.419400 1.735900
-2.399800 1.893100
-2.380200 1.958000
-2.360600 1.889100
-2.341100 1.766400
-2.321500 1.701200
-2.301900 1.724600
-2.282300 1.791300
-2.262700 1.847300
-2.243200 1.868300
-2.223600 1.856300
-2.204000 1.825900
-2.184400 1.785500
-2.164800 1.715200
-2.145200 1.587600
-2.125700 1.419100
-2.106100 1.271000
-2.086500 1.214300
-2.066900 1.298500
-2.047300 1.490400
-2.027800 1.650400
-2.008200 1.657300
-1.988600 1.555400
-1.969000 1.509000
-1.949400 1.606900
-1.929900 1.794800
-1.910300 2.016500
-1.890700 2.282300
-1.871100 2.532000
-1.851500 2.602000
-1.832000 2.438300
-1.812400 2.180700
-1.792800 1.951800
-1.773200 1.713600
-1.753600 1.392800
-1.734100 1.019700
-1.714500 0.701000
-1.694900 0.541000
-1.675300 0.591400
-1.655700 0.808300
-1.636200 1.079200
-1.616600 1.351900
-1.597000 1.677700
-1.577400 2.046300
-1.557800 2.270700
-1.538300 2.176900
-1.518700 1.861800
-1.499100 1.633200
-1.479500 1.693100
-1.459900 1.950500
-1.440400 2.172500
-1.420800 2.276000
-1.401200 2.373000
-1.381600 2.535800
-1.362000 2.654800
-1.342500 2.569800
-1.322900 2.253000
-1.303300 1.834600
-1.283700 1.503000
-1.264100 1.383800
-1.244600 1.456700
-1.225000 1.571900
-1.205400 1.598300
-1.185800 1.568100
-1.166200 1.615900
-1.146700 1.785600
-1.127100 1.989400
-1.107500 2.137500
-1.087900 2.213800
-1.068300 2.241100
-1.048800 2.249500
-1.029200 2.273900
-1.009600 2.323400
-0.990000 2.348400
-0.970400 2.262800
-0.950900 2.015600
-0.931300 1.651300
-0.911700 1.295300
-0.892100 1.093300
-0.872500 1.162100
-0.853000 1.526000
-0.833400 2.064100
-0.813800 2.555000
-0.794200 2.783300
-0.774600 2.632700
-0.755100 2.173200
-0.735500 1.663000
-0.715900 1.357300
-0.696300 1.285500
-0.676700 1.257300
-0.657200 1.095900
-0.637600 0.831100
-0.618000 0.646600
-0.598400 0.675100
-0.578800 0.890800
-0.559300 1.172600
-0.539700 1.411800
-0.520100 1.544300
-0.500500 1.520900
-0.480900 1.309500
-0.461400 0.951800
-0.441800 0.576100
-0.422200 0.320000
-0.402600 0.251800
-0.383000 0.358300
-0.363500 0.558900
-0.343900 0.727400
-0.324300 0.757200
-0.304700 0.640200
-0.285100 0.461700
-0.265600 0.312900
-0.246000 0.226100
-0.226400 0.183300
-0.206800 0.155400
-0.187200 0.125600
-0.167700 0.091500
-0.148100 0.057900
-0.128500 0.030500
-0.108900 0.012900
-0.089300 0.004300
-0.069800 0.001100
-0.050200 0.000200
-0.030600 0.000000
-0.011000 0.000000
0.008600 0.000000
0.028100 0.000000
0.047700 0.000000
0.067300 0.000000
0.086900 0.000000
0.106500 0.000000
0.126000 0.000000
0.145600 0.000000
0.165200 0.000000
0.184800 0.000000
0.204400 0.000000
0.223900 0.000000
0.243500 0.000000
0.263100 0.000000
0.282700 0.000000
0.302300 0.000000
0.321800 0.000000
0.341400 0.000000
0.361000 0.000000
0.380600 0.000000
0.400200 0.000000
0.419700 0.000000
0.439300 0.000000
0.458900 0.000000
0.478500 0.000000
0.498100 0.000000
0.517600 0.000000
0.537200 0.000000
0.556800 0.000000
0.576400 0.000000
0.596000 0.000000
0.615500 0.000000
0.635100 0.000000
0.654700 0.000000
0.674300 0.000000
0.693900 0.000000
0.713400 0.000000
0.733000 0.000000
0.752600 0.000000
0.772200 0.000000
0.791800 0.000000
0.811300 0.000000
0.830900 0.000000
0.850500 0.000000
0.870100 0.000000
0.889700 0.000000
0.909200 0.000000
0.928800 0.000000
0.948400 0.000000
0.968000 0.000000
0.987600 0.000000
1.007100 0.000000
1.026700 0.000000
1.046300 0.000000
1.065900 0.000000
1.085500 0.000000
1.105000 0.000000
1.124600 0.000000
1.144200 0.000000
1.163800 0.000000
1.183400 0.000000
1.202900 0.000000
1.222500 0.000000
1.242100 0.000000
1.261700 0.000000
1.281300 0.000000
1.300800 0.000000
1.320400 0.000000
1.340000 0.000000
1.359600 0.000200
1.379200 0.000900
1.398700 0.003500
1.418300 0.011000
1.437900 0.027700
1.457500 0.061200
1.477100 0.132900
1.496600 0.294200
1.516200 0.626300
1.535800 1.212900
1.555400 2.104400
1.575000 3.314300
1.594500 4.855400
1.614100 6.747800
1.633700 8.947000
1.653300 11.290600
1.672900 13.544500
1.692400 15.463000
1.712000 16.887800
1.731600 17.952100
1.751200 19.146100
1.770800 20.994800
1.790300 23.517600
1.809900 25.957400
1.829500 27.197700
1.849100 26.632600
1.868700 24.601900
1.888200 21.985300
1.907800 19.559400
1.927400 17.769700
1.947000 16.842800
1.966600 16.900800
1.986100 17.932400
2.005700 19.595200
2.025300 21.028900
2.044900 21.089200
2.064500 19.067100
2.084000 15.316600
2.103600 11.087200
2.123200 7.583100
2.142800 5.183900
2.162400 3.563000
2.181900 2.322300
2.201500 1.339700
2.221100 0.655200
2.240700 0.269600
2.260300 0.106100
2.279800 0.073300
2.299400 0.110200
2.319000 0.189200
2.338600 0.300300
2.358200 0.431000
2.377700 0.561700
2.397300 0.689900
2.416900 0.851900
2.436500 1.098100
2.456100 1.426500
2.475600 1.737800
2.495200 1.893300
2.514800 1.842900
2.534400 1.665000
2.554000 1.477300
2.573500 1.340300
2.593100 1.227600
2.612700 1.082100
2.632300 0.920500
2.651900 0.850400
2.671400 0.956800
2.691000 1.203600
2.710600 1.469800
2.730200 1.658800
2.749800 1.740500
2.769300 1.720400
2.788900 1.627200
2.808500 1.513500
2.828100 1.442800
2.847700 1.474800
2.867300 1.625400
2.886800 1.806700
2.906400 1.865500
2.926000 1.748800
2.945600 1.598100
2.965200 1.606000
2.984700 1.783700
3.004300 1.924000
3.023900 1.826200
3.043500 1.521700
3.063100 1.209200
3.082600 1.016300
3.102200 0.952500
3.121800 1.050600
3.141400 1.390300
3.161000 1.945600
3.180500 2.512400
3.200100 2.836500
3.219700 2.766900
3.239300 2.311400
3.258900 1.646100
3.278400 1.054500
3.298000 0.761800
3.317600 0.810200
3.337200 1.100700
3.356800 1.503900
3.376300 1.892900
3.395900 2.146000
3.415500 2.220400
3.435100 2.193800
3.454700 2.158900
3.474200 2.133400
3.493800 2.124400
3.513400 2.183000
3.533000 2.317400
3.552600 2.429400
3.572100 2.412900
3.591700 2.263800
3.611300 2.056400
3.630900 1.865600
3.650500 1.744900
3.670000 1.723800
3.689600 1.779800
3.709200 1.827900
3.728800 1.771700
3.748400 1.580500
3.767900 1.316500
3.787500 1.089600
3.807100 1.002400
3.826700 1.108400
3.846300 1.369100
3.865800 1.678400
3.885400 1.970400
3.905000 2.250900
3.924600 2.491900
3.944200 2.594600
3.963700 2.520700
3.983300 2.359000
4.002900 2.202100
4.022500 2.049300
4.042100 1.871700
4.061600 1.682200
4.081200 1.504500
4.100800 1.333000
4.120400 1.171200
4.140000 1.069400
4.159500 1.074100
4.179100 1.156500
4.198700 1.221700
4.218300 1.200400
4.237900 1.142500
4.257400 1.205500
4.277000 1.488700
4.296600 1.855000
4.316200 2.012100
4.335800 1.854500
4.355300 1.630100
4.374900 1.672900
4.394500 2.033900
4.414100 2.452100
4.433700 2.683800
4.453200 2.779400
4.472800 2.943800
4.492400 3.196800
4.512000 3.339900
4.531600 3.246600
4.551100 3.008100
4.570700 2.760400
4.590300 2.524600
4.609900 2.277900
4.629500 2.060900
4.649000 1.936000
4.668600 1.909100
4.688200 1.946800
4.707800 2.025200
4.727400 2.134300
4.746900 2.262700
4.766500 2.372200
4.786100 2.384600
4.805700 2.240300
4.825300 1.986100
4.844800 1.780700
4.864400 1.781500
4.884000 1.995100
4.903600 2.253900
4.923200 2.409600
4.942700 2.513800
4.962300 2.694800
4.981900 2.903500
5.001500 2.940000
5.021100 2.720600
5.040600 2.383100
5.060200 2.122100
5.079800 2.044900
5.099400 2.182100
5.119000 2.478400
5.138500 2.742800
5.158100 2.758100
5.177700 2.491300
5.197300 2.115900
5.216900 1.826800
5.236400 1.700700
5.256000 1.724000
5.275600 1.855800
5.295200 2.022100
5.314800 2.135700
5.334300 2.173500
5.353900 2.169300
5.373500 2.113400
5.393100 1.933800
5.412700 1.620200
5.432200 1.320200
5.451800 1.246200
5.471400 1.476900
5.491000 1.873700
5.510600 2.184600
5.530100 2.240000
5.549700 2.078700
5.569300 1.875500
5.588900 1.754000
5.608500 1.716300
5.628000 1.729900
5.647600 1.785700
5.667200 1.846100
5.686800 1.814200
5.706400 1.621700
5.725900 1.329000
5.745500 1.105400
5.765100 1.103200
5.784700 1.336700
5.804300 1.649800
5.823800 1.827200
5.843400 1.800300
5.863000 1.701700
5.882600 1.680900
5.902200 1.750900
5.921700 1.823800
5.941300 1.805500
5.960900 1.666000
5.980500 1.460200
6.000100 1.251300
6.019600 1.045400
6.039200 0.846500
6.058800 0.717400
6.078400 0.721600
6.098000 0.841900
6.117500 0.996800
6.137100 1.112500
6.156700 1.164200
6.176300 1.182800
6.195900 1.229800
6.215400 1.333300
6.235000 1.459500
6.254600 1.573100
6.274200 1.677300
6.293800 1.769700
6.313300 1.829100
6.332900 1.861700
6.352500 1.907300
6.372100 1.989200
6.391700 2.097100
6.411200 2.242600
6.430800 2.482300
6.450400 2.837600
6.470000 3.243200
6.489600 3.617400
6.509100 3.901300
6.528700 3.992200
6.548300 3.753100
6.567900 3.162200
6.587500 2.387000
6.607000 1.655200
6.626600 1.116200
6.646200 0.853300
6.665800 0.899000
6.685400 1.164700
6.704900 1.447100
6.724500 1.591300
6.744100 1.607000
6.763700 1.596400
6.783300 1.635800
6.802800 1.739000
6.822400 1.881300
6.842000 2.037600
6.861600 2.183200
6.881200 2.268100
6.900700 2.239400
6.920300 2.088700
6.939900 1.863600
6.959500 1.638500
6.979100 1.469700
6.998600 1.386000
7.018200 1.407500
7.037800 1.544600
7.057400 1.789300
7.077000 2.120000
7.096500 2.494400
7.116100 2.826700
7.135700 3.015800
7.155300 3.045500
7.174900 3.023500
7.194400 3.067700
7.214000 3.207500
7.233600 3.395400
7.253200 3.512000
7.272800 3.395100
7.292300 2.979800
7.311900 2.399300
7.331500 1.901200
7.351100 1.653600
7.370700 1.629500
7.390200 1.691600
7.409800 1.765300
7.429400 1.874300
7.449000 2.043600
7.468600 2.256000
7.488100 2.469100
7.507700 2.607500
7.527300 2.614900
7.546900 2.574800
7.566500 2.653200
7.586000 2.833000
7.605600 2.843200
7.625200 2.457000
7.644800 1.763200
7.664400 1.069600
7.683900 0.635400
7.703500 0.553400
7.723100 0.780100
7.742700 1.179400
7.762300 1.590100
7.781800 1.925300
7.801400 2.192100
7.821000 2.402400
7.840600 2.515700
7.860200 2.488800
7.879700 2.337700
7.899300 2.112100
7.918900 1.816800
7.938500 1.430300
7.958100 1.022800
7.977700 0.767400
7.997200 0.803200
8.016800 1.137500
8.036400 1.642800
8.056000 2.089700
8.075600 2.254000
8.095100 2.084400
8.114700 1.738700
8.134300 1.415300
8.153900 1.193200
8.173500 1.065500
8.193000 1.053000
8.212600 1.225100
8.232200 1.623400
8.251800 2.163600
8.271400 2.612700
8.290900 2.742100
8.310500 2.560000
8.330100 2.330400
8.349700 2.303500
8.369300 2.480100
8.388800 2.680600
8.408400 2.750400
8.428000 2.662200
8.447600 2.519000
8.467200 2.479500
8.486700 2.606400
8.506300 2.810400
8.525900 2.964900
8.545500 2.979700
8.565100 2.784900
8.584600 2.382400
8.604200 1.899700
8.623800 1.506100
8.643400 1.291200
8.663000 1.244200
8.682500 1.289300
8.702100 1.316400
8.721700 1.266800
8.741300 1.233400
8.760900 1.415800
8.780400 1.943400
8.800000 2.760000
8.819600 3.649100
8.839200 4.328000
8.858800 4.563400
8.878300 4.295800
8.897900 3.689500
8.917500 3.042700
8.937100 2.615100
8.956700 2.476600
8.976200 2.487500
8.995800 2.481400
9.015400 2.473400
9.035000 2.593300
9.054600 2.824300
9.074100 2.957000
9.093700 2.852200
9.113300 2.641400
9.132900 2.587900
9.152500 2.790400
9.172000 3.088400
9.191600 3.260200
9.211200 3.250800
9.230800 3.167400
9.250400 3.125600
9.269900 3.176900
9.289500 3.330400
9.309100 3.550000
9.328700 3.738100
9.348300 3.786500
9.367800 3.668800
9.387400 3.447500
9.407000 3.189000
9.426600 2.949900
9.446200 2.820600
9.465700 2.831300
9.485300 2.829300
9.504900 2.622600
9.524500 2.224100
9.544100 1.823500
9.563600 1.587800
9.583200 1.605700
9.602800 1.901200
9.622400 2.349200
9.642000 2.684500
9.661500 2.756300
9.681100 2.717500
9.700700 2.838200
9.720300 3.155700
9.739900 3.398400
9.759400 3.273600
9.779000 2.783900
9.798600 2.219900
9.818200 1.878300
9.837800 1.855600
9.857300 2.081900
9.876900 2.452200
9.896500 2.868800
9.916100 3.206500
9.935700 3.364500
9.955200 3.370100
9.974800 3.314800
9.994400 3.204100
10.014000 2.970800
10.033600 2.608400
10.053100 2.231200
10.072700 2.012900
10.092300 2.081500
10.111900 2.462600
10.131500 3.110600
10.151000 3.956200
10.170600 4.845300
10.190200 5.464800
10.209800 5.478500
10.229400 4.819100
10.248900 3.797200
10.268500 2.860700
10.288100 2.278600
10.307700 2.074100
10.327300 2.125700
10.346800 2.248100
10.366400 2.270500
10.386000 2.124700
10.405600 1.881100
10.425200 1.707000
10.444700 1.753500
10.464300 2.051000
10.483900 2.517100
10.503500 3.040500
10.523100 3.523600
10.542600 3.850700
10.562200 3.861300
10.581800 3.455300
10.601400 2.763700
10.621000 2.126400
10.640500 1.831300
10.660100 1.895500
10.679700 2.098500
10.699300 2.183200
10.718900 2.037700
10.738400 1.754500
10.758000 1.541400
10.777600 1.540600
10.797200 1.728800
10.816800 2.005500
10.836300 2.302000
10.855900 2.557200
10.875500 2.686400
10.895100 2.664400
10.914700 2.577400
10.934200 2.508300
10.953800 2.420300
10.973400 2.251300
10.993000 2.045100
11.012600 1.876000
11.032100 1.741600
11.051700 1.631800
11.071300 1.600100
11.090900 1.665200
11.110500 1.716500
11.130000 1.617400
11.149600 1.395400
11.169200 1.263200
11.188800 1.413500
11.208400 1.822400
11.227900 2.283300
11.247500 2.595600
11.267100 2.706300
11.286700 2.726200
11.306300 2.804500
11.325800 2.932600
11.345400 2.917500
11.365000 2.608400
11.384600 2.075700
11.404200 1.525100
11.423700 1.119100
11.443300 0.908600
11.462900 0.856100
11.482500 0.874400
11.502100 0.870900
11.521600 0.798700
11.541200 0.677100
11.560800 0.564400
11.580400 0.521600
11.600000 0.583400
11.619500 0.752900
11.639100 1.022800
11.658700 1.373800
11.678300 1.743400
11.697900 2.056800
11.717400 2.299800
11.737000 2.524700
11.756600 2.801700
11.776200 3.172800
11.795800 3.581300
11.815300 3.850500
11.834900 3.841300
11.854500 3.621100
11.874100 3.354200
11.893700 3.083100
11.913200 2.779300
11.932800 2.528300
11.952400 2.465400
11.972000 2.553100
11.991600 2.570900
12.011100 2.353700
12.030700 1.966500
12.050300 1.637200
12.069900 1.559200
12.089500 1.744900
12.109000 2.028600
12.128600 2.205900
12.148200 2.186800
12.167800 2.027900
12.187400 1.833400
12.206900 1.665800
12.226500 1.566200
12.246100 1.572400
12.265700 1.655200
12.285300 1.716100
12.304800 1.685300
12.324400 1.590200
12.344000 1.545900
12.363600 1.682800
12.383200 2.013900
12.402700 2.377500
12.422300 2.569000
12.441900 2.515100
12.461500 2.296500
12.481100 2.057300
12.500600 1.901900
12.520200 1.819600
12.539800 1.706100
12.559400 1.494100
12.579000 1.244100
12.598500 1.080400
12.618100 1.076000
12.637700 1.221600
12.657300 1.460500
12.676900 1.716200
12.696400 1.920600
12.716000 2.059800
12.735600 2.186900
12.755200 2.356400
12.774800 2.534300
12.794300 2.600800
12.813900 2.468300
12.833500 2.171900
12.853100 1.826200
12.872700 1.531100
12.892200 1.328500
12.911800 1.203600
12.931400 1.116400
12.951000 1.056500
12.970600 1.067800
12.990200 1.194100
13.009700 1.405900
13.029300 1.619300
13.048900 1.761100
13.068500 1.791000
13.088100 1.712900
13.107600 1.593600
13.127200 1.516500
13.146800 1.505400
13.166400 1.520900
13.186000 1.517600
13.205500 1.502000
13.225100 1.560700
13.244700 1.791000
13.264300 2.173300
13.283900 2.575900
13.303400 2.889100
13.323000 3.075800
13.342600 3.123600
13.362200 3.046600
13.381800 2.897900
13.401300 2.712900
13.420900 2.477300
13.440500 2.194300
13.460100 1.939500
13.479700 1.802900
13.499200 1.795800
13.518800 1.833300
13.538400 1.811900
13.558000 1.710000
13.577600 1.627100
13.597100 1.701700
13.616700 1.957600
13.636300 2.248400
13.655900 2.420200
13.675500 2.508700
13.695000 2.675300
13.714600 2.965500
13.734200 3.234700
13.753800 3.302900
13.773400 3.117300
13.792900 2.790200
13.812500 2.509100
13.832100 2.382600
13.851700 2.369800
13.871300 2.347700
13.890800 2.214600
13.910400 1.955000
13.930000 1.653000
13.949600 1.428900
13.969200 1.365400
13.988700 1.505700
14.008300 1.845000
14.027900 2.275800
14.047500 2.633900
14.067100 2.840800
14.086600 2.932800
14.106200 2.966200
14.125800 2.981800
14.145400 3.053500
14.165000 3.258500
14.184500 3.558800
14.204100 3.789400
14.223700 3.836300
14.243300 3.758700
14.262900 3.668200
14.282400 3.567700
14.302000 3.400700
14.321600 3.205900
14.341200 3.129100
14.360800 3.260500
14.380300 3.497400
14.399900 3.597600
14.419500 3.378800
14.439100 2.892000
14.458700 2.413700
14.478200 2.225000
14.497800 2.362100
14.517400 2.633000
14.537000 2.886000
14.556600 3.137000
14.576100 3.397400
14.595700 3.535800
14.615300 3.398500
14.634900 2.987600
14.654500 2.459900
14.674000 1.971200
14.693600 1.581300
14.713200 1.324000
14.732800 1.270500
14.752400 1.442700
14.771900 1.725300
14.791500 1.953000
14.811100 2.069900
14.830700 2.162100
14.850300 2.343900
14.869800 2.642200
14.889400 3.009100
14.909000 3.409600
14.928600 3.793500
14.948200 3.993400
14.967700 3.825500
14.987300 3.333300
15.006900 2.793500
15.026500 2.458200
15.046100 2.357000
15.065600 2.357100
15.085200 2.393900
15.104800 2.588500
15.124400 3.056800
15.144000 3.642000
15.163500 3.994500
15.183100 3.950800
15.202700 3.674300
15.222300 3.398800
15.241900 3.196400
15.261400 3.028400
15.281000 2.897700
15.300600 2.876100
15.320200 2.994500
15.339800 3.187200
15.359300 3.371200
15.378900 3.508200
15.398500 3.576800
15.418100 3.552700
15.437700 3.439700
15.457200 3.299500
15.476800 3.208100
15.496400 3.172500
15.516000 3.156600
15.535600 3.184400
15.555100 3.316300
15.574700 3.541800
15.594300 3.786300
15.613900 3.971300
15.633500 4.010500
15.653000 3.860900
15.672600 3.626600
15.692200 3.493800
15.711800 3.519500
15.731400 3.556700
15.750900 3.418800
15.770500 3.103900
15.790100 2.865400
15.809700 3.000300
15.829300 3.503500
15.848800 4.037400
15.868400 4.315400
15.888000 4.372600
15.907600 4.383800
15.927200 4.374600
15.946700 4.243600
15.966300 4.010900
15.985900 3.895000
16.005500 4.056300
16.025100 4.340400
16.044600 4.411700
16.064200 4.098300
16.083800 3.518200
16.103400 2.937100
16.123000 2.567300
16.142500 2.445000
16.162100 2.459800
16.181700 2.490700
16.201300 2.519800
16.220900 2.640400
16.240400 2.945900
16.260000 3.384100
16.279600 3.749300
16.299200 3.848200
16.318800 3.671700
16.338300 3.431000
16.357900 3.421200
16.377500 3.759400
16.397100 4.249600
16.416700 4.599900
16.436200 4.716600
16.455800 4.664200
16.475400 4.451800
16.495000 4.029700
16.514600 3.453200
16.534100 2.933000
16.553700 2.676300
16.573300 2.700900
16.592900 2.854000
16.612500 3.009100
16.632000 3.176000
16.651600 3.395000
16.671200 3.611800
16.690800 3.715300
16.710400 3.653600
16.729900 3.487000
16.749500 3.336200
16.769100 3.273800
16.788700 3.287500
16.808300 3.354600
16.827800 3.474200
16.847400 3.590300
16.867000 3.572300
16.886600 3.338500
16.906200 2.967300
16.925700 2.660400
16.945300 2.574500
16.964900 2.660200
16.984500 2.717900
17.004100 2.641300
17.023600 2.525800
17.043200 2.527800
17.062800 2.693500
17.082400 2.918300
17.102000 3.041300
17.121500 2.992100
17.141100 2.823500
17.160700 2.612200
17.180300 2.378900
17.199900 2.098800
17.219400 1.754200
17.239000 1.383000
17.258600 1.082600
17.278200 0.964500
17.297800 1.103200
17.317300 1.486700
17.336900 1.967600
17.356500 2.306200
17.376100 2.356600
17.395700 2.218000
17.415200 2.132300
17.434800 2.254600
17.454400 2.588700
17.474000 3.050900
17.493600 3.492000
17.513100 3.765700
17.532700 3.830500
17.552300 3.678600
17.571900 3.247800
17.591500 2.593900
17.611000 2.021800
17.630600 1.848600
17.650200 2.115700
17.669800 2.593900
17.689400 2.965900
17.708900 3.016700
17.728500 2.759100
17.748100 2.392200
17.767700 2.120500
17.787300 2.014300
17.806800 2.003500
17.826400 1.960800
17.846000 1.816200
17.865600 1.619200
17.885200 1.504800
17.904700 1.596500
17.924300 1.885800
17.943900 2.183500
17.963500 2.275800
17.983100 2.156700
18.002700 2.021900
18.022200 2.049900
18.041800 2.292400
18.061400 2.734600
18.081000 3.300200
18.100600 3.790000
18.120100 3.962400
18.139700 3.723300
18.159300 3.201700
18.178900 2.649500
18.198500 2.277300
18.218000 2.146900
18.237600 2.194300
18.257200 2.341800
18.276800 2.554100
18.296400 2.780700
18.315900 2.936300
18.335500 2.984500
18.355100 2.958800
18.374700 2.883600
18.394300 2.744400
18.413800 2.526400
18.433400 2.270600
18.453000 2.094300
18.472600 2.088000
18.492200 2.193800
18.511700 2.272600
18.531300 2.264700
18.550900 2.225300
18.570500 2.248900
18.590100 2.371700
18.609600 2.506800
18.629200 2.521200
18.648800 2.428900
18.668400 2.422500
18.688000 2.650300
18.707500 3.021300
18.727100 3.288300
18.746700 3.303100
18.766300 3.128100
18.785900 2.893300
18.805400 2.641300
18.825000 2.374200
18.844600 2.181700
18.864200 2.226300
18.883800 2.594600
18.903300 3.164900
18.922900 3.597700
18.942500 3.553400
18.962100 3.052600
18.981700 2.528700
19.001200 2.401100
19.020800 2.686900
19.040400 3.107300
19.060000 3.464600
19.079600 3.794200
19.099100 4.173600
19.118700 4.503800
19.138300 4.572100
19.157900 4.312400
19.177500 3.877200
19.197000 3.416200
19.216600 2.931400
19.236200 2.427600
19.255800 2.076600
19.275400 2.115000
19.294900 2.581500
19.314500 3.198900
19.334100 3.575200
19.353700 3.541000
19.373300 3.237100
19.392800 2.917400
19.412400 2.797600
19.432000 3.034000
19.451600 3.625500
19.471200 4.320800
19.490700 4.806100
19.510300 4.992800
19.529900 5.003600
19.549500 4.932700
19.569100 4.745500
19.588600 4.386300
19.608200 3.879000
19.627800 3.304700
19.647400 2.753100
19.667000 2.324900
19.686500 2.111500
19.706100 2.120300
19.725700 2.257400
19.745300 2.418100
19.764900 2.562900
19.784400 2.689500
19.804000 2.768200
19.823600 2.745800
19.843200 2.616900
19.862800 2.469800
19.882300 2.435700
19.901900 2.578100
19.921500 2.823300
19.941100 3.029600
19.960700 3.126600
19.980200 3.139600
19.999800 3.110500
20.019400 3.077300
20.039000 3.103700
20.058600 3.236900
20.078100 3.439100
20.097700 3.627800
20.117300 3.781600
20.136900 3.927800
20.156500 4.033800
20.176000 4.007100
20.195600 3.840600
20.215200 3.671800
20.234800 3.623000
20.254400 3.665300
20.273900 3.733600
20.293500 3.888000
20.313100 4.234900
20.332700 4.724400
20.352300 5.109600
20.371800 5.127700
20.391400 4.717200
20.411000 4.066500
20.430600 3.459900
20.450200 3.098800
20.469700 3.021500
20.489300 3.120300
20.508900 3.259200
20.528500 3.391600
20.548100 3.522300
20.567600 3.619500
20.587200 3.658300
20.606800 3.664600
20.626400 3.629600
20.646000 3.507600
20.665500 3.371900
20.685100 3.404900
20.704700 3.649000
20.724300 3.941700
20.743900 4.170800
20.763400 4.393600
20.783000 4.616900
20.802600 4.649000
20.822200 4.323200
20.841800 3.787200
20.861300 3.417200
20.880900 3.470200
20.900500 3.927800
20.920100 4.606100
20.939700 5.257800
20.959200 5.625500
20.978800 5.606600
20.998400 5.367900
21.018000 5.126000
21.037600 4.838700
21.057100 4.300700
21.076700 3.536600
21.096300 2.912800
21.115900 2.792400
21.135500 3.154000
21.155000 3.623300
21.174600 3.876300
21.194200 3.891300
21.213800 3.763100
21.233400 3.514100
21.252900 3.222200
21.272500 3.081200
21.292100 3.170500
21.311700 3.320100
21.331300 3.305400
21.350800 3.079500
21.370400 2.759700
21.390000 2.477600
21.409600 2.330900
21.429200 2.411000
21.448700 2.750900
21.468300 3.252000
21.487900 3.741600
21.507500 4.113200
21.527100 4.375400
21.546600 4.556400
21.566200 4.610600
21.585800 4.460300
21.605400 4.094200
21.625000 3.592800
21.644500 3.103200
21.664100 2.770400
21.683700 2.603500
21.703300 2.461300
21.722900 2.276600
21.742400 2.174800
21.762000 2.234700
21.781600 2.281900
21.801200 2.083700
21.820800 1.649900
21.840300 1.220000
21.859900 1.002400
21.879500 1.011600
21.899100 1.148400
21.918700 1.349500
21.938200 1.593100
21.957800 1.815100
21.977400 1.933500
21.997000 1.945800
22.016600 1.914700
22.036100 1.868200
22.055700 1.775800
22.075300 1.610400
22.094900 1.395400
22.114500 1.184000
22.134000 1.002900
22.153600 0.845500
22.173200 0.739600
22.192800 0.765500
22.212400 0.960400
22.231900 1.233900
22.251500 1.438200
22.271100 1.512000
22.290700 1.495900
22.310300 1.429700
22.329800 1.295800
22.349400 1.061800
22.369000 0.748300
22.388600 0.439600
22.408200 0.225800
22.427700 0.141800
22.447300 0.164700
22.466900 0.242700
22.486500 0.314100
22.506100 0.330100
22.525600 0.290200
22.545200 0.249900
22.564800 0.266600
22.584400 0.338400
22.604000 0.408200
22.623500 0.417000
22.643100 0.349200
22.662700 0.238100
22.682300 0.138400
22.701900 0.086800
22.721400 0.081300
22.741000 0.092500
22.760600 0.096200
22.780200 0.098300
22.799800 0.128000
22.819300 0.201400
22.838900 0.290200
22.858500 0.335700
22.878100 0.301500
22.897700 0.208900
22.917200 0.113400
22.936800 0.057200
22.956400 0.052000
22.976000 0.089400
22.995600 0.144100
23.015200 0.177200
23.034700 0.162200
23.054300 0.110400
23.073900 0.057300
23.093500 0.028900
23.113100 0.032900
23.132600 0.071300
23.152200 0.143600
23.171800 0.235000
23.191400 0.310200
23.211000 0.332600
23.230500 0.301000
23.250100 0.256700
23.269700 0.239900
23.289300 0.247600
23.308900 0.247600
23.328400 0.222700
23.348000 0.184200
23.367600 0.154200
23.387200 0.149700
23.406800 0.169900
23.426300 0.188200
23.445900 0.173000
23.465500 0.125900
23.485100 0.082300
23.504700 0.076200
23.524200 0.111900
23.543800 0.160000
23.563400 0.178300
23.583000 0.149100
23.602600 0.096500
23.622100 0.062200
23.641700 0.076300
23.661300 0.146500
23.680900 0.250000
23.700500 0.330100
23.720000 0.331800
23.739600 0.254100
23.759200 0.150300
23.778800 0.075100
23.798400 0.044500
23.817900 0.042700
23.837500 0.045500
23.857100 0.039500
23.876700 0.025800
23.896300 0.012500
23.915800 0.004500
23.935400 0.001200
23.955000 0.000200
23.974600 0.000000
23.994200 0.000000
24.013700 0.000000
24.033300 0.000000
24.052900 0.000000
24.072500 0.000000
24.092100 0.000000
24.111600 0.000000
24.131200 0.000000
24.150800 0.000000
24.170400 0.000000
24.190000 0.000300
24.209500 0.001500
24.229100 0.006200
24.248700 0.019000
24.268300 0.042800
24.287900 0.071400
24.307400 0.088500
24.327000 0.081300
24.346600 0.055400
24.366200 0.028000
24.385800 0.010600
24.405300 0.003500
24.424900 0.003300
24.444500 0.008700
24.464100 0.021300
24.483700 0.040300
24.503200 0.060000
24.522800 0.072400
24.542400 0.072100
24.562000 0.059200
24.581600 0.039300
24.601100 0.020500
24.620700 0.008200
24.640300 0.002500
24.659900 0.000600
24.679500 0.000100
24.699000 0.000000
24.718600 0.000000
24.738200 0.000000
24.757800 0.000000
24.777400 0.000000
24.796900 0.000000
24.816500 0.000000
24.836100 0.000000
24.855700 0.000000
24.875300 0.000000
24.894800 0.000000
24.914400 0.000000
24.934000 0.000000
24.953600 0.000000
24.973200 0.000000
24.992700 0.000000
25.012300 0.000000
25.031900 0.000000
25.051500 0.000000
25.071100 0.000000
25.090600 0.000000
25.110200 0.000000
25.129800 0.000000
25.149400 0.000000
25.169000 0.000000
25.188500 0.000000
25.208100 0.000000
25.227700 0.000000
25.247300 0.000000
25.266900 0.000000
25.286400 0.000000
25.306000 0.000000
25.325600 0.000000
25.345200 0.000000
25.364800 0.000000
25.384300 0.000000
25.403900 0.000000
25.423500 0.000000
25.443100 0.000000
25.462700 0.000000
25.482200 0.000000
25.501800 0.000000
25.521400 0.000000
25.541000 0.000000
25.560600 0.000000
25.580100 0.000000
25.599700 0.000000
25.619300 0.000000
25.638900 0.000000
25.658500 0.000000
25.678000 0.000000
25.697600 0.000000
25.717200 0.000000
25.736800 0.000000
25.756400 0.000000
25.775900 0.000000
25.795500 0.000000
25.815100 0.000000
25.834700 0.000000
25.854300 0.000000
25.873800 0.000000
25.893400 0.000000
25.913000 0.000000
25.932600 0.000000
25.952200 0.000000
25.971700 0.000000
25.991300 0.000000
26.010900 0.000000
26.030500 0.000000
26.050100 0.000000
26.069600 0.000000
26.089200 0.000000
26.108800 0.000000
26.128400 0.000000
26.148000 0.000000
26.167500 0.000000
26.187100 0.000000
26.206700 0.000000
26.226300 0.000000
26.245900 0.000000
26.265400 0.000000
26.285000 0.000000
26.304600 0.000000
26.324200 0.000000
e
