set title 'mp-12105 - Density of States'
set xlabel 'Energy (eV)'
set ylabel 'DOS (states/eV)'
set grid
set xrange [-10:10]
set yrange [0:9.295]
set xzeroaxis lt -1
set terminal png size 800,600
set output 'mp-12105_dos_gnuplot.png'
plot '-' using 1:2 with lines title 'DOS'
-30.050300 0.000000
-30.002800 0.000000
-29.955200 0.000000
-29.907600 0.000000
-29.860100 0.000000
-29.812500 0.000000
-29.764900 0.000000
-29.717400 0.000000
-29.669800 0.000000
-29.622200 0.000000
-29.574700 0.000000
-29.527100 0.000000
-29.479500 0.000000
-29.432000 0.000000
-29.384400 0.000000
-29.336800 0.000000
-29.289300 0.000000
-29.241700 0.000000
-29.194100 0.000000
-29.146600 0.000000
-29.099000 0.000000
-29.051400 0.000000
-29.003900 0.000000
-28.956300 0.000000
-28.908700 0.000000
-28.861200 0.000000
-28.813600 0.000000
-28.766000 0.000000
-28.718500 0.000000
-28.670900 0.000000
-28.623300 0.000000
-28.575800 0.000000
-28.528200 0.000000
-28.480600 0.000000
-28.433100 0.000000
-28.385500 0.000000
-28.337900 0.000000
-28.290400 0.000000
-28.242800 0.000000
-28.195200 0.000000
-28.147700 0.000000
-28.100100 0.000000
-28.052500 0.000000
-28.005000 0.000000
-27.957400 0.000000
-27.909800 0.000000
-27.862300 0.000000
-27.814700 0.000000
-27.767100 0.000000
-27.719600 0.000000
-27.672000 0.000000
-27.624400 0.000000
-27.576900 0.000000
-27.529300 0.000000
-27.481700 0.000000
-27.434200 0.000000
-27.386600 0.000000
-27.339000 0.000000
-27.291500 0.000000
-27.243900 0.000000
-27.196300 0.000000
-27.148800 0.000000
-27.101200 0.000000
-27.053600 0.000000
-27.006100 0.000000
-26.958500 0.000000
-26.910900 0.000000
-26.863400 0.000000
-26.815800 0.000000
-26.768200 0.000000
-26.720700 0.000000
-26.673100 0.000000
-26.625500 0.000000
-26.578000 0.000000
-26.530400 0.000000
-26.482800 0.000000
-26.435300 0.000000
-26.387700 0.000000
-26.340100 0.000000
-26.292600 0.000000
-26.245000 0.000000
-26.197400 0.000000
-26.149900 0.000000
-26.102300 0.000000
-26.054700 0.000000
-26.007200 0.000000
-25.959600 0.000000
-25.912000 0.000000
-25.864500 0.000000
-25.816900 0.002400
-25.769300 0.109600
-25.721800 1.470200
-25.674200 6.621400
-25.626600 9.164900
-25.579100 3.361200
-25.531500 0.288200
-25.483900 0.005200
-25.436400 0.000000
-25.388800 0.000000
-25.341200 0.000000
-25.293700 0.000000
-25.246100 0.000000
-25.198500 0.000000
-25.151000 0.000000
-25.103400 0.000000
-25.055800 0.000000
-25.008300 0.000000
-24.960700 0.000000
-24.913100 0.000000
-24.865600 0.000000
-24.818000 0.000000
-24.770400 0.000000
-24.722900 0.000000
-24.675300 0.000000
-24.627700 0.000000
-24.580200 0.000000
-24.532600 0.000000
-24.485000 0.000000
-24.437500 0.000000
-24.389900 0.000000
-24.342300 0.000000
-24.294800 0.000000
-24.247200 0.000000
-24.199600 0.000000
-24.152100 0.000000
-24.104500 0.000000
-24.056900 0.000000
-24.009400 0.000000
-23.961800 0.000000
-23.914200 0.000000
-23.866700 0.000000
-23.819100 0.000000
-23.771500 0.000000
-23.724000 0.000000
-23.676400 0.000000
-23.628800 0.000000
-23.581300 0.000000
-23.533700 0.000000
-23.486100 0.000000
-23.438600 0.000000
-23.391000 0.000000
-23.343400 0.000100
-23.295900 0.019300
-23.248300 0.728400
-23.200700 5.688100
-23.153200 9.965400
-23.105600 4.176200
-23.058000 0.434200
-23.010500 0.011300
-22.962900 0.000100
-22.915300 0.000000
-22.867800 0.000000
-22.820200 0.000000
-22.772600 0.000000
-22.725100 0.000000
-22.677500 0.000000
-22.629900 0.000000
-22.582400 0.000000
-22.534800 0.000000
-22.487200 0.000000
-22.439700 0.000000
-22.392100 0.000000
-22.344500 0.000000
-22.297000 0.000000
-22.249400 0.000000
-22.201800 0.000000
-22.154300 0.000000
-22.106700 0.000000
-22.059100 0.000000
-22.011600 0.000000
-21.964000 0.000000
-21.916400 0.000000
-21.868900 0.000000
-21.821300 0.000000
-21.773700 0.000000
-21.726200 0.000000
-21.678600 0.000000
-21.631000 0.000000
-21.583500 0.000000
-21.535900 0.000000
-21.488300 0.000000
-21.440800 0.000000
-21.393200 0.000000
-21.345600 0.000000
-21.298100 0.000000
-21.250500 0.000000
-21.202900 0.000000
-21.155400 0.000000
-21.107800 0.000000
-21.060200 0.000000
-21.012700 0.000000
-20.965100 0.000000
-20.917500 0.000000
-20.870000 0.000000
-20.822400 0.000000
-20.774800 0.000000
-20.727300 0.000000
-20.679700 0.000000
-20.632100 0.000000
-20.584600 0.000000
-20.537000 0.000000
-20.489400 0.000000
-20.441900 0.000000
-20.394300 0.000000
-20.346700 0.000000
-20.299200 0.000000
-20.251600 0.000000
-20.204000 0.000000
-20.156500 0.000000
-20.108900 0.000000
-20.061300 0.000000
-20.013800 0.000000
-19.966200 0.000000
-19.918600 0.000000
-19.871100 0.000000
-19.823500 0.000000
-19.775900 0.000000
-19.728400 0.000000
-19.680800 0.000000
-19.633200 0.000000
-19.585700 0.000000
-19.538100 0.000000
-19.490500 0.000000
-19.443000 0.000000
-19.395400 0.000000
-19.347800 0.000000
-19.300300 0.000000
-19.252700 0.000000
-19.205100 0.000000
-19.157600 0.000000
-19.110000 0.000000
-19.062400 0.000000
-19.014900 0.000000
-18.967300 0.000000
-18.919700 0.000000
-18.872200 0.000000
-18.824600 0.000000
-18.777000 0.000000
-18.729500 0.000000
-18.681900 0.000000
-18.634300 0.000000
-18.586800 0.000000
-18.539200 0.000000
-18.491600 0.000000
-18.444100 0.000000
-18.396500 0.000000
-18.348900 0.000000
-18.301400 0.000000
-18.253800 0.000000
-18.206200 0.000000
-18.158700 0.000000
-18.111100 0.000000
-18.063500 0.000000
-18.016000 0.000000
-17.968400 0.000000
-17.920800 0.000000
-17.873300 0.000000
-17.825700 0.000000
-17.778100 0.000000
-17.730600 0.000000
-17.683000 0.000000
-17.635400 0.000000
-17.587900 0.000000
-17.540300 0.000000
-17.492700 0.000000
-17.445200 0.000000
-17.397600 0.000000
-17.350000 0.000000
-17.302500 0.000000
-17.254900 0.000000
-17.207300 0.000000
-17.159800 0.000000
-17.112200 0.000000
-17.064600 0.000000
-17.017100 0.000000
-16.969500 0.000000
-16.921900 0.000000
-16.874400 0.000000
-16.826800 0.000000
-16.779200 0.000000
-16.731700 0.000000
-16.684100 0.000000
-16.636500 0.000000
-16.589000 0.000000
-16.541400 0.000000
-16.493800 0.000000
-16.446300 0.000000
-16.398700 0.000000
-16.351100 0.000000
-16.303600 0.000000
-16.256000 0.000000
-16.208400 0.000000
-16.160900 0.000000
-16.113300 0.000000
-16.065700 0.000000
-16.018200 0.000000
-15.970600 0.000000
-15.923000 0.000000
-15.875500 0.000000
-15.827900 0.000000
-15.780300 0.000000
-15.732800 0.000000
-15.685200 0.000000
-15.637600 0.000000
-15.590100 0.000000
-15.542500 0.000000
-15.494900 0.000000
-15.447400 0.000000
-15.399800 0.000000
-15.352200 0.000000
-15.304700 0.000000
-15.257100 0.000000
-15.209500 0.000000
-15.162000 0.000000
-15.114400 0.000000
-15.066800 0.000000
-15.019300 0.000000
-14.971700 0.000000
-14.924100 0.000000
-14.876600 0.000000
-14.829000 0.000000
-14.781400 0.000100
-14.733900 0.007400
-14.686300 0.100100
-14.638700 0.452600
-14.591200 1.042800
-14.543600 1.922600
-14.496000 3.691300
-14.448500 6.200700
-14.400900 5.515300
-14.353300 1.868000
-14.305800 0.214700
-14.258200 0.007400
-14.210600 0.000100
-14.163100 0.000000
-14.115500 0.000000
-14.067900 0.000000
-14.020400 0.000000
-13.972800 0.000000
-13.925200 0.000000
-13.877700 0.000000
-13.830100 0.000000
-13.782500 0.000000
-13.735000 0.000000
-13.687400 0.000000
-13.639800 0.000000
-13.592300 0.000000
-13.544700 0.000000
-13.497100 0.000000
-13.449600 0.000000
-13.402000 0.000000
-13.354400 0.000000
-13.306900 0.000000
-13.259300 0.000000
-13.211700 0.000000
-13.164200 0.000000
-13.116600 0.000000
-13.069000 0.000000
-13.021500 0.000000
-12.973900 0.000000
-12.926300 0.000000
-12.878800 0.000000
-12.831200 0.000000
-12.783600 0.000000
-12.736100 0.000000
-12.688500 0.000000
-12.640900 0.000000
-12.593400 0.000000
-12.545800 0.000000
-12.498200 0.000000
-12.450700 0.000000
-12.403100 0.000000
-12.355500 0.000000
-12.308000 0.000000
-12.260400 0.000000
-12.212800 0.000000
-12.165300 0.000000
-12.117700 0.000000
-12.070100 0.000000
-12.022600 0.000000
-11.975000 0.000000
-11.927400 0.000000
-11.879900 0.000000
-11.832300 0.000000
-11.784700 0.000000
-11.737200 0.000000
-11.689600 0.000000
-11.642000 0.000000
-11.594500 0.000000
-11.546900 0.000000
-11.499300 0.000000
-11.451800 0.000000
-11.404200 0.000000
-11.356600 0.000000
-11.309100 0.000000
-11.261500 0.000000
-11.213900 0.000000
-11.166400 0.000000
-11.118800 0.000000
-11.071200 0.000000
-11.023700 0.000000
-10.976100 0.000000
-10.928500 0.000000
-10.881000 0.000000
-10.833400 0.000000
-10.785800 0.000000
-10.738300 0.000000
-10.690700 0.000000
-10.643100 0.000000
-10.595600 0.000000
-10.548000 0.000000
-10.500400 0.000000
-10.452900 0.000000
-10.405300 0.000000
-10.357700 0.000200
-10.310200 0.009000
-10.262600 0.113500
-10.215000 0.480500
-10.167500 1.044500
-10.119900 1.753500
-10.072300 2.957800
-10.024800 4.681200
-9.977200 5.934300
-9.929600 6.640300
-9.882100 7.009100
-9.834500 7.698100
-9.786900 8.450000
-9.739400 8.406000
-9.691800 5.777800
-9.644200 1.887400
-9.596700 0.219200
-9.549100 0.007100
-9.501500 0.000100
-9.454000 0.000000
-9.406400 0.000000
-9.358800 0.000000
-9.311300 0.000000
-9.263700 0.000000
-9.216100 0.000000
-9.168600 0.000000
-9.121000 0.000000
-9.073400 0.000000
-9.025900 0.000000
-8.978300 0.000000
-8.930700 0.000000
-8.883200 0.000000
-8.835600 0.000000
-8.788000 0.000000
-8.740500 0.000000
-8.692900 0.000000
-8.645300 0.000000
-8.597800 0.000000
-8.550200 0.000000
-8.502600 0.000000
-8.455100 0.000000
-8.407500 0.000000
-8.359900 0.000000
-8.312400 0.000000
-8.264800 0.000000
-8.217200 0.000000
-8.169700 0.000000
-8.122100 0.000000
-8.074500 0.000000
-8.027000 0.000000
-7.979400 0.000000
-7.931800 0.000000
-7.884300 0.000000
-7.836700 0.000000
-7.789100 0.000000
-7.741600 0.000000
-7.694000 0.000000
-7.646400 0.000000
-7.598900 0.000000
-7.551300 0.000000
-7.503700 0.000000
-7.456200 0.000000
-7.408600 0.000000
-7.361000 0.000000
-7.313500 0.000000
-7.265900 0.000000
-7.218300 0.000000
-7.170800 0.000000
-7.123200 0.000000
-7.075600 0.000000
-7.028100 0.000000
-6.980500 0.000000
-6.932900 0.000000
-6.885400 0.000000
-6.837800 0.000000
-6.790200 0.000000
-6.742700 0.000000
-6.695100 0.000300
-6.647500 0.009000
-6.600000 0.075300
-6.552400 0.232300
-6.504800 0.397100
-6.457300 0.577400
-6.409700 0.802600
-6.362100 1.172100
-6.314600 1.626500
-6.267000 1.845200
-6.219400 2.030600
-6.171900 2.152100
-6.124300 2.140100
-6.076700 2.520800
-6.029200 3.053600
-5.981600 1.982600
-5.934000 0.387800
-5.886500 0.017700
-5.838900 0.000200
-5.791300 0.000000
-5.743800 0.000000
-5.696200 0.001600
-5.648600 0.046700
-5.601100 0.449100
-5.553500 1.742200
-5.505900 3.625700
-5.458400 4.392800
-5.410800 4.080900
-5.363200 3.791600
-5.315700 3.700700
-5.268100 3.701200
-5.220500 4.447900
-5.173000 5.444200
-5.125400 4.526600
-5.077800 1.771100
-5.030300 0.303900
-4.982700 0.019700
-4.935100 0.000400
-4.887600 0.000000
-4.840000 0.000000
-4.792400 0.000000
-4.744900 0.000000
-4.697300 0.000000
-4.649700 0.000000
-4.602200 0.000000
-4.554600 0.000000
-4.507000 0.000000
-4.459500 0.000000
-4.411900 0.000000
-4.364300 0.000000
-4.316800 0.000000
-4.269200 0.000000
-4.221600 0.000000
-4.174100 0.000000
-4.126500 0.000000
-4.078900 0.000000
-4.031400 0.000000
-3.983800 0.000000
-3.936200 0.000000
-3.888700 0.000000
-3.841100 0.000000
-3.793500 0.000000
-3.746000 0.000000
-3.698400 0.000000
-3.650800 0.000000
-3.603300 0.000000
-3.555700 0.000000
-3.508100 0.000000
-3.460600 0.000000
-3.413000 0.000000
-3.365400 0.000000
-3.317900 0.000000
-3.270300 0.000000
-3.222700 0.000000
-3.175200 0.000000
-3.127600 0.000000
-3.080000 0.000000
-3.032500 0.000000
-2.984900 0.000000
-2.937300 0.000000
-2.889800 0.000000
-2.842200 0.000000
-2.794600 0.000000
-2.747100 0.000000
-2.699500 0.000000
-2.651900 0.000000
-2.604400 0.000000
-2.556800 0.000000
-2.509200 0.000000
-2.461700 0.000000
-2.414100 0.000000
-2.366500 0.000000
-2.319000 0.000000
-2.271400 0.000000
-2.223800 0.000000
-2.176300 0.000000
-2.128700 0.000000
-2.081100 0.000000
-2.033600 0.000000
-1.986000 0.000000
-1.938400 0.000000
-1.890900 0.000000
-1.843300 0.000000
-1.795700 0.000000
-1.748200 0.000000
-1.700600 0.000000
-1.653000 0.000000
-1.605500 0.000000
-1.557900 0.000000
-1.510300 0.000000
-1.462800 0.000000
-1.415200 0.000000
-1.367600 0.000000
-1.320100 0.000000
-1.272500 0.000900
-1.224900 0.020900
-1.177400 0.118400
-1.129800 0.290500
-1.082200 0.479200
-1.034700 0.582400
-0.987100 0.791800
-0.939500 0.994900
-0.892000 1.153400
-0.844400 1.508600
-0.796800 2.014800
-0.749300 2.343900
-0.701700 2.707900
-0.654100 3.274400
-0.606600 3.713200
-0.559000 4.511400
-0.511400 5.171300
-0.463900 4.726200
-0.416300 3.875100
-0.368700 2.640900
-0.321200 0.981600
-0.273600 0.138900
-0.226000 0.005700
-0.178500 0.000100
-0.130900 0.000000
-0.083300 0.000000
-0.035800 0.000000
0.011800 0.000000
0.059400 0.000000
0.106900 0.000000
0.154500 0.000000
0.202100 0.000000
0.249600 0.000000
0.297200 0.000000
0.344800 0.000000
0.392300 0.000000
0.439900 0.000000
0.487500 0.000000
0.535000 0.000000
0.582600 0.000000
0.630200 0.000000
0.677700 0.000000
0.725300 0.000000
0.772900 0.000000
0.820400 0.000000
0.868000 0.000000
0.915600 0.000000
0.963100 0.000000
1.010700 0.000000
1.058300 0.000000
1.105800 0.000000
1.153400 0.000000
1.201000 0.000000
1.248500 0.000000
1.296100 0.000000
1.343700 0.000000
1.391200 0.000000
1.438800 0.000000
1.486400 0.000000
1.533900 0.000000
1.581500 0.000000
1.629100 0.000000
1.676600 0.000000
1.724200 0.000000
1.771800 0.000000
1.819300 0.000000
1.866900 0.000000
1.914500 0.000000
1.962000 0.000000
2.009600 0.000000
2.057200 0.000000
2.104700 0.000000
2.152300 0.000000
2.199900 0.000000
2.247400 0.000000
2.295000 0.000000
2.342600 0.000000
2.390100 0.000000
2.437700 0.000000
2.485300 0.000000
2.532800 0.000000
2.580400 0.000000
2.628000 0.000000
2.675500 0.000000
2.723100 0.000000
2.770700 0.000000
2.818200 0.000000
2.865800 0.000000
2.913400 0.000000
2.960900 0.000000
3.008500 0.000000
3.056100 0.000000
3.103600 0.000000
3.151200 0.000000
3.198800 0.000000
3.246300 0.000000
3.293900 0.000000
3.341500 0.000000
3.389000 0.000000
3.436600 0.000000
3.484200 0.000000
3.531700 0.000000
3.579300 0.000000
3.626900 0.000000
3.674400 0.000000
3.722000 0.000000
3.769600 0.000000
3.817100 0.000000
3.864700 0.000000
3.912300 0.000000
3.959800 0.000600
4.007400 0.008400
4.055000 0.026800
4.102500 0.054800
4.150100 0.126200
4.197700 0.131300
4.245200 0.178900
4.292800 0.152700
4.340400 0.073000
4.387900 0.139900
4.435500 0.286800
4.483100 0.350500
4.530600 0.288600
4.578200 0.252600
4.625800 0.271800
4.673300 0.313200
4.720900 0.485800
4.768500 0.652900
4.816000 0.625300
4.863600 0.685500
4.911200 0.873400
4.958700 0.863200
5.006300 0.600300
5.053900 0.551200
5.101400 0.578900
5.149000 0.764400
5.196600 1.075400
5.244100 1.029900
5.291700 0.580700
5.339300 0.571900
5.386800 0.767700
5.434400 0.783200
5.482000 0.927600
5.529500 0.921000
5.577100 0.810500
5.624700 0.745900
5.672200 0.703500
5.719800 0.647300
5.767400 0.537600
5.814900 0.493000
5.862500 0.546500
5.910100 0.575800
5.957600 0.565100
6.005200 0.529700
6.052800 0.487500
6.100300 0.675000
6.147900 0.822700
6.195500 0.796000
6.243000 0.836800
6.290600 0.910400
6.338200 0.964300
6.385700 0.979300
6.433300 1.172000
6.480900 1.487800
6.528400 1.420200
6.576000 1.615000
6.623600 2.091100
6.671100 1.702700
6.718700 1.113500
6.766300 1.000900
6.813800 0.965000
6.861400 1.390600
6.909000 1.462500
6.956500 1.397100
7.004100 1.586600
7.051700 1.635100
7.099200 1.674400
7.146800 1.676100
7.194400 1.799200
7.241900 1.954600
7.289500 1.821500
7.337100 1.227200
7.384600 1.103900
7.432200 1.087700
7.479800 0.762500
7.527300 0.519600
7.574900 0.371500
7.622500 0.212100
7.670000 0.303700
7.717600 0.297700
7.765200 0.217300
7.812700 0.440900
7.860300 0.715600
7.907900 0.667200
7.955400 0.758900
8.003000 1.003900
8.050600 1.277500
8.098100 1.835000
8.145700 2.175200
8.193300 1.972100
8.240800 1.208900
8.288400 0.884400
8.336000 1.369700
8.383500 1.647500
8.431100 1.480300
8.478700 1.173500
8.526200 1.038600
8.573800 0.906200
8.621400 1.037900
8.668900 1.389600
8.716500 1.526400
8.764100 1.538000
8.811600 1.659100
8.859200 1.562400
8.906800 1.077500
8.954300 0.863300
9.001900 0.938500
9.049500 1.061600
9.097000 1.005900
9.144600 0.809700
9.192200 0.813800
9.239700 0.924300
9.287300 1.074400
9.334900 1.440600
9.382400 1.524000
9.430000 1.184600
9.477600 1.052800
9.525100 1.187900
9.572700 1.273600
9.620300 1.454800
9.667800 1.726500
9.715400 1.763900
9.763000 1.757300
9.810500 1.884800
9.858100 1.780500
9.905700 1.923300
9.953200 2.258800
10.000800 1.888100
10.048400 1.645200
10.095900 1.848800
10.143500 1.819600
10.191100 1.648700
10.238600 1.336000
10.286200 0.943000
10.333800 0.745500
10.381300 0.676800
10.428900 0.810900
10.476500 1.073900
10.524000 0.850900
10.571600 0.574500
10.619200 0.629900
10.666700 0.827200
10.714300 0.828400
10.761900 0.641600
10.809400 0.626400
10.857000 0.639800
10.904600 0.548400
10.952100 0.581200
10.999700 0.699400
11.047300 0.861900
11.094800 0.997500
11.142400 0.907000
11.190000 1.054200
11.237500 0.972800
11.285100 0.811700
11.332700 0.784200
11.380200 0.913300
11.427800 1.085100
11.475400 1.150900
11.522900 1.235300
11.570500 1.096200
11.618100 0.721200
11.665600 0.513500
11.713200 0.738800
11.760800 0.699600
11.808300 0.454400
11.855900 0.504800
11.903500 0.384600
11.951000 0.338400
11.998600 0.458900
12.046200 0.525000
12.093700 0.432300
12.141300 0.571000
12.188900 0.634100
12.236400 0.405000
12.284000 0.471300
12.331600 0.723300
12.379100 0.625500
12.426700 0.415800
12.474300 0.297200
12.521800 0.259100
12.569400 0.334400
12.617000 0.562000
12.664500 0.894200
12.712100 1.098700
12.759700 1.310100
12.807200 1.385600
12.854800 1.187700
12.902400 0.972300
12.949900 0.994400
12.997500 1.070700
13.045100 1.250500
13.092600 1.165500
13.140200 1.017300
13.187800 1.098900
13.235300 1.225400
13.282900 1.279300
13.330500 1.131500
13.378000 0.949500
13.425600 0.857600
13.473200 0.988300
13.520700 1.060100
13.568300 0.880500
13.615900 0.928600
13.663400 1.086000
13.711000 0.907500
13.758600 0.791400
13.806100 0.667200
13.853700 0.704800
13.901300 0.826400
13.948800 1.114600
13.996400 1.384100
14.044000 1.154100
14.091500 0.597200
14.139100 0.376500
14.186700 0.488300
14.234200 0.432500
14.281800 0.385600
14.329400 0.473300
14.376900 0.434000
14.424500 0.367400
14.472100 0.367300
14.519600 0.311800
14.567200 0.300400
14.614800 0.258500
14.662300 0.158500
14.709900 0.108600
14.757500 0.129700
14.805000 0.268800
14.852600 0.512000
14.900200 0.515100
14.947700 0.405500
14.995300 0.454600
15.042900 0.400100
15.090400 0.395600
15.138000 0.529600
15.185600 0.763400
15.233100 0.814600
15.280700 0.681900
15.328300 0.661200
15.375800 0.693300
15.423400 0.667700
15.471000 0.631000
15.518500 0.611500
15.566100 0.612600
15.613700 0.765900
15.661200 1.021400
15.708800 0.815000
15.756400 0.555900
15.803900 0.471400
15.851500 0.705700
15.899100 0.981100
15.946600 0.823400
15.994200 0.609300
16.041800 0.596600
16.089300 0.615200
16.136900 0.647800
16.184500 0.802300
16.232000 0.783200
16.279600 0.628200
16.327200 0.565000
16.374700 0.538600
16.422300 0.672100
16.469900 0.929800
16.517400 0.877800
16.565000 0.942000
16.612600 0.950900
16.660100 0.807200
16.707700 0.841400
16.755300 0.694100
16.802800 0.616200
16.850400 0.743200
16.898000 0.825100
16.945500 0.989500
16.993100 1.342900
17.040700 1.361400
17.088200 0.887700
17.135800 0.801100
17.183400 1.025900
17.230900 1.359400
17.278500 1.450700
17.326100 1.130400
17.373600 1.177400
17.421200 1.023100
17.468800 0.879700
17.516300 0.685900
17.563900 0.601600
17.611500 0.946600
17.659000 1.346800
17.706600 1.141900
17.754200 0.876300
17.801700 0.913300
17.849300 1.018700
17.896900 0.759600
17.944400 0.844500
17.992000 0.760800
18.039600 0.796500
18.087100 1.296900
18.134700 1.177600
18.182300 0.796400
18.229800 0.697200
18.277400 0.583500
18.325000 0.647700
18.372500 0.760000
18.420100 0.720300
18.467700 0.695300
18.515200 0.633900
18.562800 0.646500
18.610400 0.586100
18.657900 0.634400
18.705500 0.735000
18.753100 0.860900
18.800600 1.109700
18.848200 1.349400
18.895800 1.475500
18.943300 1.326600
18.990900 1.423800
19.038500 1.636200
19.086000 1.907500
19.133600 1.742700
19.181200 1.252300
19.228700 1.189000
19.276300 1.294300
19.323900 1.249600
19.371400 1.322600
19.419000 1.463600
19.466600 1.582500
19.514100 1.835800
19.561700 1.822900
19.609300 1.874500
19.656800 1.911900
19.704400 2.177600
19.752000 2.408500
19.799500 1.769200
19.847100 0.995900
19.894700 0.860700
19.942200 1.212500
19.989800 1.374000
20.037400 1.248200
20.084900 1.278600
20.132500 1.186300
20.180100 0.990300
20.227600 1.034400
20.275200 1.024000
20.322800 0.828200
20.370300 1.037000
20.417900 1.197800
20.465500 1.134100
20.513000 1.072900
20.560600 1.033800
20.608200 0.980800
20.655700 0.861400
20.703300 0.984000
20.750900 1.058500
20.798400 1.222500
20.846000 1.318700
20.893600 1.037900
20.941100 0.882000
20.988700 0.692400
21.036300 0.486000
21.083800 0.753200
21.131400 1.198500
21.179000 1.245700
21.226500 0.956800
21.274100 1.135300
21.321700 1.462600
21.369200 1.359100
21.416800 1.110900
21.464400 1.274200
21.511900 1.443100
21.559500 1.280200
21.607100 1.168100
21.654600 1.145100
21.702200 0.943700
21.749800 1.106500
21.797300 1.115100
21.844900 0.979000
21.892500 1.057000
21.940000 1.341900
21.987600 1.573500
22.035200 1.327100
22.082700 0.971900
22.130300 0.689300
22.177900 0.568500
22.225400 0.690000
22.273000 0.880600
22.320600 1.191200
22.368100 1.158900
22.415700 0.900200
22.463300 0.724000
22.510800 0.929000
22.558400 0.879200
22.606000 0.841100
22.653500 0.975100
22.701100 1.093400
22.748700 0.871500
22.796200 0.790800
22.843800 0.916400
22.891400 0.851800
22.938900 0.597600
22.986500 0.815300
23.034100 1.087400
23.081600 1.024000
23.129200 0.884300
23.176800 0.682300
23.224300 0.660800
23.271900 0.921900
23.319500 1.537500
23.367000 1.428300
23.414600 0.935400
23.462200 0.909200
23.509700 1.240200
23.557300 1.394400
23.604900 1.237000
23.652400 0.964300
23.700000 0.632500
23.747600 0.594400
23.795100 0.962400
23.842700 1.480100
23.890300 1.379500
23.937800 0.973900
23.985400 0.823000
24.033000 1.234400
24.080500 1.263900
24.128100 1.035100
24.175700 0.916600
24.223200 0.994500
24.270800 1.142400
24.318400 1.213200
24.365900 1.289200
24.413500 1.306500
24.461100 1.434200
24.508600 1.379900
24.556200 1.022900
24.603800 0.974100
24.651300 1.102200
24.698900 1.014200
24.746500 1.011500
24.794000 1.043500
24.841600 1.098000
24.889200 1.096600
24.936700 1.342200
24.984300 1.560900
25.031900 1.741700
25.079400 1.530800
25.127000 1.430700
25.174600 1.475500
25.222100 1.425600
25.269700 1.445800
25.317300 1.172000
25.364800 1.408000
25.412400 1.844300
25.460000 1.522100
25.507500 1.396600
25.555100 1.429100
25.602700 1.122200
25.650200 1.033100
25.697800 1.157600
25.745400 1.180200
25.792900 1.230700
25.840500 1.001300
25.888100 0.977700
25.935600 1.254000
25.983200 1.281700
26.030800 1.291300
26.078300 1.335000
26.125900 1.271000
26.173500 1.083000
26.221000 0.831400
26.268600 0.904900
26.316200 0.838300
26.363700 0.651000
26.411300 0.726500
26.458900 0.877900
26.506400 0.978700
26.554000 0.828500
26.601600 0.800600
26.649100 1.198300
26.696700 1.580500
26.744300 1.618600
26.791800 1.448900
26.839400 1.437500
26.887000 1.464600
26.934500 1.313000
26.982100 1.168100
27.029700 1.127700
27.077200 1.152000
27.124800 1.198700
27.172400 1.440100
27.219900 1.385000
27.267500 1.241100
27.315100 1.423200
27.362600 1.494900
27.410200 1.443000
27.457800 1.567800
27.505300 1.744000
27.552900 1.454700
27.600500 1.287300
27.648000 1.571100
27.695600 1.355400
27.743200 0.946900
27.790700 1.088100
27.838300 1.261700
27.885900 1.374100
27.933400 1.251900
27.981000 0.949700
28.028600 1.110800
28.076100 1.633700
28.123700 1.778300
28.171300 1.664500
28.218800 1.313000
28.266400 1.078100
28.314000 1.413400
28.361500 1.291100
28.409100 1.122600
28.456700 1.051800
28.504200 1.014400
28.551800 1.275500
28.599400 1.564600
28.646900 1.481000
28.694500 1.276200
28.742100 1.587400
28.789600 1.614700
28.837200 1.269800
28.884800 1.250000
28.932300 1.387100
28.979900 1.613900
29.027500 1.486500
29.075000 1.114400
29.122600 1.044100
29.170200 1.094600
29.217700 1.287600
29.265300 1.320700
29.312900 1.001700
29.360400 1.070900
29.408000 1.689900
29.455600 1.803700
29.503100 1.617100
29.550700 1.601300
29.598300 1.444000
29.645800 1.062400
29.693400 0.926900
29.741000 1.225400
29.788500 1.654800
29.836100 1.652600
29.883700 1.425900
29.931200 1.408100
29.978800 1.458500
30.026400 1.434500
30.073900 1.285600
30.121500 1.533800
30.169100 1.514400
30.216600 1.087500
30.264200 0.930300
30.311800 1.168000
30.359300 1.283000
30.406900 1.130500
30.454500 1.098400
30.502000 1.251100
30.549600 1.224800
30.597200 0.967300
30.644800 1.098500
30.692300 1.106100
30.739900 0.894900
30.787500 0.804300
30.835000 0.994900
30.882600 1.365000
30.930200 1.574900
30.977700 1.502400
31.025300 1.712200
31.072900 1.549500
31.120400 1.118000
31.168000 0.862600
31.215600 0.683600
31.263100 0.876900
31.310700 1.048000
31.358300 1.210000
31.405800 1.144200
31.453400 1.059600
31.501000 1.158700
31.548500 1.245300
31.596100 1.185600
31.643700 1.097200
31.691200 0.930200
31.738800 0.952100
31.786400 1.010000
31.833900 1.218700
31.881500 1.124100
31.929100 1.038800
31.976600 1.258400
32.024200 1.323400
32.071800 1.168200
32.119300 1.103800
32.166900 1.223900
32.214500 1.193200
32.262000 1.205500
32.309600 1.114100
32.357200 1.045100
32.404700 1.079500
32.452300 1.406600
32.499900 1.706600
32.547400 1.873700
32.595000 1.644300
32.642600 1.154700
32.690100 0.791600
32.737700 0.866600
32.785300 1.100800
32.832800 1.234100
32.880400 1.110700
32.928000 0.898600
32.975500 0.957900
33.023100 1.218900
33.070700 1.147500
33.118200 0.822300
33.165800 1.024000
33.213400 1.417900
33.260900 1.357300
33.308500 1.311200
33.356100 1.139200
33.403600 0.933400
33.451200 1.069100
33.498800 1.648400
33.546300 1.747200
33.593900 1.333400
33.641500 1.269400
33.689000 1.415500
33.736600 1.380300
33.784200 1.463600
33.831700 1.432300
33.879300 1.260600
33.926900 1.156900
33.974400 1.232700
34.022000 1.207600
34.069600 1.280600
34.117100 1.174800
34.164700 0.998100
34.212300 1.277000
34.259800 1.217500
34.307400 1.298700
34.355000 1.616000
34.402500 1.522200
34.450100 1.136200
34.497700 1.110600
34.545200 1.196000
34.592800 1.155800
34.640400 1.251500
34.687900 1.576800
34.735500 1.475400
34.783100 1.249700
34.830600 1.311600
34.878200 1.153300
34.925800 1.015500
34.973300 1.327300
35.020900 1.287800
35.068500 0.875900
35.116000 0.840000
35.163600 1.120000
35.211200 1.234000
35.258700 1.648600
35.306300 1.858600
35.353900 1.699700
35.401400 1.525200
35.449000 1.394300
35.496600 1.248800
35.544100 1.095200
35.591700 1.336900
35.639300 1.284700
35.686800 1.206300
35.734400 1.554700
35.782000 1.771400
35.829500 1.181500
35.877100 1.007100
35.924700 1.374500
35.972200 1.398700
36.019800 1.146600
36.067400 1.135300
36.114900 1.250900
36.162500 1.470900
36.210100 1.381100
36.257600 1.537200
36.305200 1.899200
36.352800 1.866000
36.400300 1.356700
36.447900 1.164500
36.495500 1.280100
36.543000 1.253000
36.590600 1.541000
36.638200 1.656300
36.685700 1.271400
36.733300 1.072800
36.780900 1.198600
36.828400 1.179800
36.876000 1.057400
36.923600 0.912300
36.971100 0.889600
37.018700 0.928800
37.066300 1.097400
37.113800 1.554600
37.161400 1.691900
37.209000 1.313700
37.256500 1.378500
37.304100 1.685100
37.351700 1.693300
37.399200 1.378300
37.446800 1.275300
37.494400 1.509600
37.541900 1.578600
37.589500 1.358100
37.637100 1.331200
37.684600 1.344100
37.732200 1.351800
37.779800 1.712000
37.827300 1.710100
37.874900 1.421500
37.922500 1.199100
37.970000 1.253600
38.017600 1.096800
38.065200 1.265900
38.112700 1.380700
38.160300 1.265800
38.207900 1.212300
38.255400 1.123000
38.303000 1.174600
38.350600 1.393600
38.398100 1.633500
38.445700 1.441100
38.493300 1.216500
38.540800 0.882700
38.588400 0.599000
38.636000 0.769600
38.683500 1.454900
38.731100 1.897800
38.778700 1.719800
38.826200 1.495100
38.873800 1.521400
38.921400 1.663300
38.968900 1.732400
39.016500 1.568200
39.064100 1.404000
39.111600 1.393000
39.159200 1.261100
39.206800 1.270000
39.254300 1.362300
39.301900 1.296600
39.349500 1.620600
39.397000 2.279600
39.444600 2.256700
39.492200 2.251400
39.539700 1.911100
39.587300 2.021500
39.634900 2.553100
39.682400 2.038300
39.730000 1.468900
39.777600 1.348000
39.825100 1.120600
39.872700 1.178900
39.920300 1.172200
39.967800 1.318300
40.015400 1.751600
40.063000 1.644900
40.110500 1.355900
40.158100 1.254500
40.205700 1.523200
40.253200 1.717200
40.300800 1.598000
40.348400 1.288300
40.395900 1.304000
40.443500 1.450400
40.491100 1.342000
40.538600 1.201000
40.586200 1.398100
40.633800 1.642800
40.681300 1.464000
40.728900 1.422300
40.776500 1.705400
40.824000 1.761600
40.871600 1.500300
40.919200 1.373200
40.966700 1.221400
41.014300 1.207900
41.061900 1.428700
41.109400 1.661200
41.157000 1.827600
41.204600 1.593400
41.252100 1.514000
41.299700 2.011600
41.347300 2.291900
41.394800 1.551600
41.442400 1.073800
41.490000 0.990200
41.537500 0.998900
41.585100 1.491300
41.632700 1.774800
41.680200 1.681000
41.727800 1.587200
41.775400 1.570900
41.822900 1.631900
41.870500 1.600100
41.918100 1.516900
41.965600 1.373400
42.013200 1.355000
42.060800 1.763800
42.108300 1.877400
42.155900 1.684900
42.203500 1.706300
42.251000 1.580000
42.298600 1.510000
42.346200 1.645600
42.393700 1.607600
42.441300 1.577300
42.488900 1.630900
42.536400 1.498600
42.584000 1.413600
42.631600 1.283800
42.679100 1.451400
42.726700 1.588700
42.774300 1.468300
42.821800 1.289500
42.869400 1.138600
42.917000 1.170200
42.964500 1.611100
43.012100 1.790800
43.059700 1.491700
43.107200 1.233100
43.154800 1.151400
43.202400 1.107500
43.249900 1.325400
43.297500 1.384100
43.345100 1.678500
43.392600 1.698700
43.440200 1.341500
43.487800 1.555900
43.535300 1.836700
43.582900 1.838700
43.630500 1.998600
43.678000 1.959700
43.725600 1.675200
43.773200 1.487000
43.820700 1.644200
43.868300 1.776700
43.915900 1.467900
43.963400 1.151300
44.011000 1.438000
44.058600 1.813400
44.106100 1.825500
44.153700 1.918200
44.201300 2.014200
44.248800 1.766900
44.296400 1.372800
44.344000 1.297000
44.391500 1.377800
44.439100 1.322800
44.486700 1.030700
44.534200 0.952700
44.581800 1.089800
44.629400 1.259000
44.676900 1.512100
44.724500 1.554100
44.772100 1.551500
44.819600 1.203300
44.867200 1.129700
44.914800 1.490100
44.962300 1.803300
45.009900 1.693300
45.057500 1.519300
45.105000 1.157400
45.152600 1.066200
45.200200 1.203400
45.247700 1.343000
45.295300 1.639200
45.342900 1.657000
45.390400 1.395700
45.438000 1.196400
45.485600 1.245100
45.533100 1.277100
45.580700 1.377300
45.628300 1.628100
45.675800 1.532900
45.723400 1.210700
45.771000 1.252300
45.818500 1.824600
45.866100 1.927000
45.913700 1.797500
45.961200 1.863200
46.008800 1.696900
46.056400 1.492500
46.103900 1.673700
46.151500 1.811600
46.199100 1.374900
46.246600 1.089100
46.294200 1.128300
46.341800 1.194100
46.389300 1.346800
46.436900 1.598900
46.484500 1.914500
46.532000 2.078100
46.579600 1.813300
46.627200 1.697900
46.674700 1.633700
46.722300 1.508500
46.769900 1.415800
46.817400 1.447800
46.865000 1.530100
46.912600 1.646400
46.960100 1.583900
47.007700 1.503400
47.055300 1.620600
47.102800 1.595700
47.150400 1.499300
47.198000 1.342800
47.245500 1.417200
47.293100 1.791000
47.340700 1.953400
47.388200 1.818600
47.435800 1.857900
47.483400 1.554600
47.530900 1.266900
47.578500 1.555800
47.626100 1.481800
47.673600 1.394800
47.721200 1.819500
47.768800 1.864200
47.816300 1.675800
47.863900 1.931900
47.911500 2.060100
47.959000 1.789200
48.006600 1.336400
48.054200 1.460300
48.101700 1.500800
48.149300 1.555300
48.196900 1.438300
48.244400 1.147100
48.292000 1.328800
48.339600 1.754100
48.387100 2.024500
48.434700 1.823600
48.482300 1.336100
48.529800 1.155200
48.577400 1.399000
48.625000 1.478500
48.672500 1.209300
48.720100 1.434300
48.767700 1.822000
48.815200 1.581100
48.862800 1.151300
48.910400 1.246200
48.957900 1.810500
49.005500 1.870200
49.053100 1.917300
49.100600 1.839600
49.148200 1.483200
49.195800 1.647700
49.243300 1.558400
49.290900 1.576900
49.338500 1.739700
49.386000 1.581700
49.433600 1.298300
49.481200 1.268200
49.528700 1.548000
49.576300 1.743200
49.623900 1.526800
49.671400 1.497500
49.719000 1.347500
49.766600 1.314400
49.814100 1.445200
49.861700 1.677400
49.909300 1.712900
49.956800 1.819200
50.004400 1.896800
50.052000 1.765800
50.099500 1.690900
50.147100 1.813800
50.194700 1.953300
50.242200 1.812000
50.289800 1.441500
50.337400 1.330700
50.384900 1.571000
50.432500 1.831300
50.480100 1.807900
50.527600 1.694700
50.575200 1.549800
50.622800 1.101000
50.670300 1.234200
50.717900 1.622700
50.765500 1.864200
50.813000 2.018500
50.860600 2.014800
50.908200 1.935400
50.955700 2.126300
51.003300 1.810200
51.050900 1.358300
51.098400 1.539500
51.146000 1.713700
51.193600 1.702900
51.241100 1.713600
51.288700 1.696900
51.336300 1.571300
51.383800 1.479500
51.431400 1.386500
51.479000 1.287900
51.526500 1.682600
51.574100 2.016200
51.621700 1.814300
51.669200 1.619900
51.716800 1.514000
51.764400 1.843300
51.811900 2.227700
51.859500 1.838300
51.907100 1.324400
51.954600 1.127900
52.002200 1.256000
52.049800 1.672800
52.097300 1.817400
52.144900 1.797700
52.192500 1.831700
52.240000 1.731800
52.287600 1.656500
52.335200 1.608800
52.382700 1.726000
52.430300 1.360200
52.477900 1.164500
52.525400 1.619800
52.573000 1.843100
52.620600 2.374400
52.668100 2.482500
52.715700 2.006400
52.763300 1.784500
52.810800 1.778700
52.858400 1.610500
52.906000 1.301100
52.953500 1.371000
53.001100 1.725200
53.048700 1.707900
53.096200 1.563600
53.143800 1.565300
53.191400 1.541500
53.238900 1.503300
53.286500 1.355000
53.334100 1.285200
53.381600 1.350500
53.429200 1.499300
53.476800 1.700600
53.524300 1.713000
53.571900 1.607100
53.619500 1.655200
53.667000 1.460600
53.714600 1.532600
53.762200 1.780600
53.809700 1.442300
53.857300 1.328400
53.904900 1.480600
53.952400 1.698700
54.000000 1.630100
54.047600 1.439600
54.095100 1.375100
54.142700 1.564900
54.190300 2.057200
54.237800 1.943400
54.285400 1.476700
54.333000 1.352800
54.380500 1.933700
54.428100 2.387600
54.475700 1.936100
54.523200 1.595900
54.570800 1.176200
54.618400 1.134600
54.665900 1.333800
54.713500 1.317900
54.761100 1.198300
54.808600 1.119900
54.856200 1.338300
54.903800 1.414900
54.951300 1.469200
54.998900 1.720900
55.046500 1.842700
55.094000 1.702900
55.141600 1.699100
55.189200 1.625300
55.236700 1.760000
55.284300 1.885300
55.331900 1.816100
55.379400 1.333100
55.427000 1.374600
55.474600 1.740600
55.522100 1.563800
55.569700 1.254200
55.617300 1.232200
55.664800 1.425000
55.712400 1.767800
55.760000 2.137200
55.807500 2.121300
55.855100 1.928200
55.902700 1.851700
55.950200 1.861600
55.997800 1.753400
56.045400 1.580400
56.092900 1.340600
56.140500 1.200500
56.188100 1.465600
56.235600 1.837800
56.283200 1.649000
56.330800 1.360500
56.378300 1.624500
56.425900 1.976700
56.473500 1.964800
56.521000 1.839700
56.568600 1.891600
56.616200 1.561500
56.663700 1.405800
56.711300 1.837800
56.758900 1.950300
56.806400 1.817300
56.854000 2.208400
56.901600 2.010600
56.949100 1.421400
56.996700 1.338400
57.044300 1.501300
57.091800 1.522100
57.139400 1.434300
57.187000 1.523000
57.234500 1.341000
57.282100 1.153500
57.329700 1.243200
57.377200 1.440900
57.424800 1.552400
57.472400 1.337600
57.519900 1.241100
57.567500 1.379200
57.615100 1.389500
57.662600 1.470200
57.710200 1.807600
57.757800 2.128800
57.805300 1.860300
57.852900 1.725900
57.900500 1.752800
57.948000 1.370500
57.995600 1.170800
58.043200 1.138000
58.090700 1.002400
58.138300 0.844400
58.185900 0.811800
58.233400 0.871800
58.281000 0.968900
58.328600 1.164900
58.376100 1.151100
58.423700 0.785000
58.471300 0.571300
58.518800 0.880700
58.566400 1.074800
58.614000 1.112400
58.661500 0.914200
58.709100 0.438900
58.756700 0.266300
58.804200 0.490500
58.851800 0.626000
58.899400 0.373500
58.946900 0.333300
58.994500 0.509000
59.042100 0.445800
59.089600 0.323200
59.137200 0.389200
59.184800 0.394700
59.232300 0.239200
59.279900 0.275800
59.327500 0.307400
59.375000 0.213500
59.422600 0.225600
59.470200 0.149600
59.517700 0.086500
59.565300 0.148000
59.612900 0.128900
59.660400 0.137700
59.708000 0.249200
59.755600 0.180100
59.803100 0.111200
59.850700 0.091200
59.898300 0.148700
59.945800 0.114300
59.993400 0.077900
60.041000 0.105600
60.088500 0.120200
60.136100 0.096900
60.183700 0.077300
60.231200 0.044800
60.278800 0.027400
60.326400 0.064500
60.373900 0.089000
60.421500 0.052400
60.469100 0.023400
60.516600 0.005200
60.564200 0.000500
60.611800 0.005000
60.659300 0.021100
60.706900 0.018700
60.754500 0.003500
60.802000 0.000100
60.849600 0.000000
60.897200 0.000000
60.944700 0.000000
60.992300 0.000000
61.039900 0.000000
61.087400 0.000000
61.135000 0.000000
61.182600 0.000000
61.230100 0.000000
61.277700 0.000000
61.325300 0.000000
61.372800 0.000000
61.420400 0.000000
61.468000 0.000000
61.515500 0.000000
61.563100 0.000000
61.610700 0.000000
61.658200 0.000000
61.705800 0.000000
61.753400 0.000000
61.800900 0.000000
61.848500 0.000000
61.896100 0.000000
61.943600 0.000000
61.991200 0.000000
62.038800 0.000000
62.086300 0.000000
62.133900 0.000000
62.181500 0.000000
62.229000 0.000000
62.276600 0.000000
62.324200 0.000000
62.371700 0.000000
62.419300 0.000000
62.466900 0.000000
62.514400 0.000000
62.562000 0.000000
62.609600 0.000000
62.657100 0.000000
62.704700 0.000000
62.752300 0.000000
62.799800 0.000000
62.847400 0.000000
62.895000 0.000000
62.942500 0.000000
62.990100 0.000000
63.037700 0.000000
63.085200 0.000000
63.132800 0.000000
63.180400 0.000000
63.227900 0.000000
63.275500 0.000000
63.323100 0.000000
63.370600 0.000000
63.418200 0.000000
63.465800 0.000000
63.513300 0.000000
63.560900 0.000000
63.608500 0.000000
63.656000 0.000000
63.703600 0.000000
63.751200 0.000000
63.798700 0.000000
63.846300 0.000000
63.893900 0.000000
63.941400 0.000000
63.989000 0.000000
64.036600 0.000000
64.084100 0.000000
64.131700 0.000000
64.179300 0.000000
64.226800 0.000000
64.274400 0.000000
64.322000 0.000000
64.369500 0.000000
64.417100 0.000000
64.464700 0.000000
64.512200 0.000000
64.559800 0.000000
64.607400 0.000000
64.654900 0.000000
64.702500 0.000000
64.750100 0.000000
64.797600 0.000000
64.845200 0.000000
64.892800 0.000000
64.940300 0.000000
64.987900 0.000000
65.035500 0.000000
65.083000 0.000000
e
