set title 'mp-1184608 - Density of States'
set xlabel 'Energy (eV)'
set ylabel 'DOS (states/eV)'
set grid
set xrange [-10:10]
set yrange [0:31.066]
set xzeroaxis lt -1
set terminal png size 800,600
set output 'mp-1184608_dos_gnuplot.png'
plot '-' using 1:2 with lines title 'DOS'
-7.413900 0.000000
-7.394700 0.000000
-7.375600 0.000000
-7.356400 0.000000
-7.337300 0.000000
-7.318200 0.000000
-7.299000 0.000000
-7.279900 0.000000
-7.260700 0.000000
-7.241600 0.000000
-7.222500 0.000000
-7.203300 0.000000
-7.184200 0.000000
-7.165000 0.000000
-7.145900 0.000000
-7.126800 0.000000
-7.107600 0.000000
-7.088500 0.000000
-7.069400 0.000000
-7.050200 0.000000
-7.031100 0.000000
-7.011900 0.000000
-6.992800 0.000000
-6.973700 0.000000
-6.954500 0.000000
-6.935400 0.000000
-6.916200 0.000000
-6.897100 0.000000
-6.878000 0.000000
-6.858800 0.000000
-6.839700 0.000000
-6.820500 0.000000
-6.801400 0.000000
-6.782300 0.000000
-6.763100 0.000000
-6.744000 0.000000
-6.724800 0.000000
-6.705700 0.000000
-6.686600 0.000000
-6.667400 0.000000
-6.648300 0.000000
-6.629200 0.000000
-6.610000 0.000000
-6.590900 0.000000
-6.571700 0.000000
-6.552600 0.000000
-6.533500 0.000000
-6.514300 0.000000
-6.495200 0.000000
-6.476000 0.000000
-6.456900 0.000000
-6.437800 0.000000
-6.418600 0.000000
-6.399500 0.000000
-6.380300 0.000000
-6.361200 0.000000
-6.342100 0.000000
-6.322900 0.000000
-6.303800 0.000000
-6.284600 0.000000
-6.265500 0.000000
-6.246400 0.000000
-6.227200 0.000000
-6.208100 0.000000
-6.189000 0.000000
-6.169800 0.000000
-6.150700 0.000000
-6.131500 0.000000
-6.112400 0.000000
-6.093300 0.000000
-6.074100 0.000000
-6.055000 0.000000
-6.035800 0.000000
-6.016700 0.000000
-5.997600 0.000000
-5.978400 0.000000
-5.959300 0.000000
-5.940100 0.000000
-5.921000 0.000000
-5.901900 0.000000
-5.882700 0.000000
-5.863600 0.000000
-5.844400 0.000000
-5.825300 0.000000
-5.806200 0.000000
-5.787000 0.000000
-5.767900 0.000000
-5.748800 0.000000
-5.729600 0.000000
-5.710500 0.000000
-5.691300 0.000000
-5.672200 0.000000
-5.653100 0.006200
-5.633900 0.022700
-5.614800 0.049700
-5.595600 0.083100
-5.576500 0.110000
-5.557400 0.137400
-5.538200 0.145900
-5.519100 0.154900
-5.499900 0.164300
-5.480800 0.174900
-5.461700 0.186900
-5.442500 0.193800
-5.423400 0.204200
-5.404200 0.217100
-5.385100 0.230400
-5.366000 0.244100
-5.346800 0.258200
-5.327700 0.272400
-5.308600 0.284300
-5.289400 0.293100
-5.270300 0.298900
-5.251100 0.304400
-5.232000 0.317100
-5.212900 0.326800
-5.193700 0.336800
-5.174600 0.347300
-5.155400 0.357800
-5.136300 0.368500
-5.117200 0.379000
-5.098000 0.389900
-5.078900 0.401200
-5.059700 0.412800
-5.040600 0.424700
-5.021500 0.437700
-5.002300 0.452000
-4.983200 0.467200
-4.964000 0.483900
-4.944900 0.502200
-4.925800 0.522200
-4.906600 0.542300
-4.887500 0.562600
-4.868300 0.582600
-4.849200 0.602500
-4.830100 0.622300
-4.810900 0.642700
-4.791800 0.664200
-4.772700 0.686500
-4.753500 0.709700
-4.734400 0.733700
-4.715200 0.772200
-4.696100 0.808400
-4.677000 0.866000
-4.657800 0.929400
-4.638700 1.000100
-4.619500 1.097200
-4.600400 1.187700
-4.581300 1.261500
-4.562100 1.334600
-4.543000 1.504800
-4.523800 1.685000
-4.504700 2.064100
-4.485600 2.374500
-4.466400 2.847900
-4.447300 3.861300
-4.428100 5.944200
-4.409000 7.288400
-4.389900 6.527700
-4.370700 7.142600
-4.351600 8.012500
-4.332500 8.146200
-4.313300 8.081900
-4.294200 7.560300
-4.275000 7.142200
-4.255900 7.142800
-4.236800 7.339700
-4.217600 8.733700
-4.198500 8.663700
-4.179300 9.984400
-4.160200 10.895200
-4.141100 12.616200
-4.121900 13.775700
-4.102800 14.342300
-4.083600 13.459000
-4.064500 13.268200
-4.045400 12.749100
-4.026200 13.030300
-4.007100 13.387000
-3.987900 12.176700
-3.968800 11.874400
-3.949700 11.994300
-3.930500 11.830700
-3.911400 11.943200
-3.892300 12.457000
-3.873100 12.490200
-3.854000 12.631400
-3.834800 13.143500
-3.815700 14.201500
-3.796600 15.655800
-3.777400 15.006500
-3.758300 15.314200
-3.739100 12.386300
-3.720000 12.206000
-3.700900 10.882300
-3.681700 11.626800
-3.662600 10.047900
-3.643400 10.454300
-3.624300 11.234900
-3.605200 16.629400
-3.586000 15.563200
-3.566900 14.543100
-3.547700 18.916400
-3.528600 14.040300
-3.509500 10.029300
-3.490300 10.208800
-3.471200 9.235900
-3.452100 9.092700
-3.432900 8.768500
-3.413800 8.750700
-3.394600 8.196200
-3.375500 12.814500
-3.356400 14.320800
-3.337200 16.015800
-3.318100 15.577400
-3.298900 10.819900
-3.279800 6.842500
-3.260700 9.415800
-3.241500 11.172000
-3.222400 12.393200
-3.203200 10.835100
-3.184100 11.313400
-3.165000 14.466600
-3.145800 17.029700
-3.126700 18.806800
-3.107500 15.072800
-3.088400 15.473200
-3.069300 15.951700
-3.050100 16.174300
-3.031000 20.877500
-3.011900 28.241700
-2.992700 16.385200
-2.973600 15.203900
-2.954400 13.569400
-2.935300 12.072900
-2.916200 11.990500
-2.897000 12.028200
-2.877900 14.645900
-2.858700 20.503700
-2.839600 20.434900
-2.820500 16.920600
-2.801300 14.154900
-2.782200 13.524300
-2.763000 17.659800
-2.743900 18.184000
-2.724800 17.551200
-2.705600 14.674500
-2.686500 11.361700
-2.667300 11.169100
-2.648200 12.710000
-2.629100 15.173400
-2.609900 16.430000
-2.590800 12.871200
-2.571700 12.705700
-2.552500 13.951700
-2.533400 12.233200
-2.514200 11.652900
-2.495100 11.882900
-2.476000 11.708400
-2.456800 11.491200
-2.437700 11.179800
-2.418500 11.057900
-2.399400 10.836700
-2.380300 10.591500
-2.361100 10.268500
-2.342000 9.534800
-2.322800 9.184500
-2.303700 8.716300
-2.284600 8.633000
-2.265400 9.431700
-2.246300 9.709300
-2.227100 9.126300
-2.208000 8.509000
-2.188900 9.968600
-2.169700 15.934600
-2.150600 13.923200
-2.131500 10.894900
-2.112300 9.626800
-2.093200 7.106300
-2.074000 6.107000
-2.054900 5.633100
-2.035800 5.169400
-2.016600 4.897800
-1.997500 5.472900
-1.978300 7.108600
-1.959200 6.135200
-1.940100 5.063500
-1.920900 4.774600
-1.901800 4.194000
-1.882600 3.687100
-1.863500 3.183300
-1.844400 2.684000
-1.825200 2.482900
-1.806100 2.318200
-1.786900 2.176600
-1.767800 2.041900
-1.748700 1.951100
-1.729500 1.923400
-1.710400 1.915100
-1.691300 1.991300
-1.672100 2.063300
-1.653000 1.958800
-1.633800 1.689600
-1.614700 1.484700
-1.595600 1.282600
-1.576400 1.077900
-1.557300 0.991700
-1.538100 0.956900
-1.519000 0.926600
-1.499900 0.909500
-1.480700 0.902800
-1.461600 0.899000
-1.442400 0.881600
-1.423300 0.858400
-1.404200 0.829900
-1.385000 0.794800
-1.365900 0.786800
-1.346700 0.786100
-1.327600 0.809200
-1.308500 0.901500
-1.289300 0.984700
-1.270200 1.074600
-1.251100 1.193000
-1.231900 1.269100
-1.212800 1.317400
-1.193600 1.348600
-1.174500 1.405600
-1.155400 1.487500
-1.136200 1.534000
-1.117100 1.572000
-1.097900 1.610300
-1.078800 1.648400
-1.059700 1.685800
-1.040500 1.747600
-1.021400 1.831400
-1.002200 1.768100
-0.983100 1.663700
-0.964000 1.558200
-0.944800 1.460000
-0.925700 1.368300
-0.906500 1.280900
-0.887400 1.204900
-0.868300 1.108900
-0.849100 1.099100
-0.830000 1.102500
-0.810800 1.117400
-0.791700 1.147000
-0.772600 1.132700
-0.753400 1.124100
-0.734300 1.104400
-0.715200 1.085500
-0.696000 1.074600
-0.676900 1.068500
-0.657700 1.063000
-0.638600 1.057100
-0.619500 1.050700
-0.600300 1.068100
-0.581200 1.070100
-0.562000 1.071300
-0.542900 1.071500
-0.523800 1.065000
-0.504600 1.058700
-0.485500 1.060600
-0.466300 1.062000
-0.447200 1.063000
-0.428100 1.062900
-0.408900 1.061400
-0.389800 1.057900
-0.370600 1.062300
-0.351500 1.072100
-0.332400 1.080300
-0.313200 1.082700
-0.294100 1.085400
-0.275000 1.088300
-0.255800 1.091600
-0.236700 1.095000
-0.217500 1.098100
-0.198400 1.100800
-0.179300 1.102700
-0.160100 1.093400
-0.141000 1.094900
-0.121800 1.096900
-0.102700 1.099400
-0.083600 1.102800
-0.064400 1.103900
-0.045300 1.104600
-0.026100 1.106800
-0.007000 1.110000
0.012100 1.113600
0.031300 1.117600
0.050400 1.122000
0.069600 1.126400
0.088700 1.130900
0.107800 1.136100
0.127000 1.142300
0.146100 1.149200
0.165200 1.156800
0.184400 1.164700
0.203500 1.173100
0.222700 1.181100
0.241800 1.190000
0.260900 1.199200
0.280100 1.208400
0.299200 1.249600
0.318400 1.262200
0.337500 1.283600
0.356600 1.300400
0.375800 1.317600
0.394900 1.335200
0.414100 1.353000
0.433200 1.370800
0.452300 1.378000
0.471500 1.392800
0.490600 1.416700
0.509800 1.457900
0.528900 1.508300
0.548000 1.545300
0.567200 1.568500
0.586300 1.604200
0.605400 1.622100
0.624600 1.660600
0.643700 1.714500
0.662900 1.751500
0.682000 1.828900
0.701100 1.856800
0.720300 1.832600
0.739400 1.810600
0.758600 1.800900
0.777700 1.826400
0.796800 1.857200
0.816000 1.928800
0.835100 2.039000
0.854300 2.192400
0.873400 2.439600
0.892500 2.682600
0.911700 2.843800
0.930800 3.023200
0.950000 3.430600
0.969100 3.988200
0.988200 3.329700
1.007400 3.042300
1.026500 2.408800
1.045600 2.173500
1.064800 1.927300
1.083900 1.849000
1.103100 1.853300
1.122200 2.006400
1.141300 1.698500
1.160500 1.615200
1.179600 1.599400
1.198800 1.742100
1.217900 1.948000
1.237000 2.392400
1.256200 2.949000
1.275300 3.618500
1.294500 4.132300
1.313600 4.467100
1.332700 4.880100
1.351900 6.114400
1.371000 7.002600
1.390200 7.887600
1.409300 7.364300
1.428400 6.751300
1.447600 6.116000
1.466700 5.455500
1.485800 5.347200
1.505000 5.172700
1.524100 4.891300
1.543300 4.217000
1.562400 3.498300
1.581500 3.452800
1.600700 3.342400
1.619800 3.425100
1.639000 4.114400
1.658100 4.898200
1.677200 5.079100
1.696400 6.002900
1.715500 7.370000
1.734700 9.032100
1.753800 9.589100
1.772900 9.755300
1.792100 9.487600
1.811200 9.669400
1.830400 9.979000
1.849500 11.766300
1.868600 14.108300
1.887800 16.089900
1.906900 14.265400
1.926000 13.091200
1.945200 12.511900
1.964300 13.409600
1.983500 9.707200
2.002600 7.314300
2.021700 6.060500
2.040900 5.420200
2.060000 4.753400
2.079200 3.971800
2.098300 3.288400
2.117400 2.561100
2.136600 1.997200
2.155700 1.784500
2.174900 1.886300
2.194000 1.671400
2.213100 2.142800
2.232300 3.187200
2.251400 4.255900
2.270600 5.135800
2.289700 4.840500
2.308800 4.850500
2.328000 5.164700
2.347100 5.429100
2.366200 5.537800
2.385400 5.358500
2.404500 4.882800
2.423700 4.637700
2.442800 4.415500
2.461900 4.159900
2.481100 3.832100
2.500200 3.669900
2.519400 3.527400
2.538500 3.372100
2.557600 3.151400
2.576800 2.944400
2.595900 2.807900
2.615100 2.680000
2.634200 2.578700
2.653300 2.516600
2.672500 2.506700
2.691600 2.384400
2.710800 2.322000
2.729900 2.259500
2.749000 2.200000
2.768200 2.147400
2.787300 2.102000
2.806500 2.063400
2.825600 2.025000
2.844700 1.979600
2.863900 1.941700
2.883000 1.914000
2.902100 1.887500
2.921300 1.863800
2.940400 1.839800
2.959600 1.819800
2.978700 1.800000
2.997800 1.788100
3.017000 1.770700
3.036100 1.741000
3.055300 1.712800
3.074400 1.673900
3.093500 1.654400
3.112700 1.635400
3.131800 1.609600
3.151000 1.592000
3.170100 1.575400
3.189200 1.560200
3.208400 1.547400
3.227500 1.537100
3.246700 1.532000
3.265800 1.509400
3.284900 1.515800
3.304100 1.492400
3.323200 1.442800
3.342300 1.434900
3.361500 1.426100
3.380600 1.415700
3.399800 1.404900
3.418900 1.404900
3.438000 1.415500
3.457200 1.406700
3.476300 1.424300
3.495500 1.487400
3.514600 1.518400
3.533700 1.549900
3.552900 1.668400
3.572000 1.643600
3.591200 1.570700
3.610300 1.542900
3.629400 1.538800
3.648600 1.556500
3.667700 1.576100
3.686900 1.596400
3.706000 1.504100
3.725100 1.488100
3.744300 1.476200
3.763400 1.461600
3.782500 1.436800
3.801700 1.413900
3.820800 1.394000
3.840000 1.356000
3.859100 1.306200
3.878200 1.293000
3.897400 1.296500
3.916500 1.250300
3.935700 1.235600
3.954800 1.221900
3.973900 1.207100
3.993100 1.159800
4.012200 1.150000
4.031400 1.141500
4.050500 1.130900
4.069600 1.119900
4.088800 1.107500
4.107900 1.086100
4.127100 1.064400
4.146200 1.036300
4.165300 1.016700
4.184500 1.010100
4.203600 1.007700
4.222700 1.007200
4.241900 1.006600
4.261000 1.006000
4.280200 1.005000
4.299300 1.004100
4.318400 1.003900
4.337600 1.004400
4.356700 1.006300
4.375900 1.011700
4.395000 1.020300
4.414100 1.031400
4.433300 1.049600
4.452400 1.092800
4.471600 1.148700
4.490700 1.217000
4.509800 1.297700
4.529000 1.394700
4.548100 1.509700
4.567300 1.758600
4.586400 1.869600
4.605500 1.912900
4.624700 1.957300
4.643800 2.062600
4.662900 2.282700
4.682100 2.261900
4.701200 2.259300
4.720400 2.280800
4.739500 2.317900
4.758600 2.410500
4.777800 2.397100
4.796900 2.370500
4.816100 2.315600
4.835200 2.275800
4.854300 2.214900
4.873500 2.181500
4.892600 2.154300
4.911800 2.167300
4.930900 2.156000
4.950000 2.109400
4.969200 2.057400
4.988300 2.005200
5.007500 1.961700
5.026600 1.943500
5.045700 1.932900
5.064900 1.926800
5.084000 1.918500
5.103100 1.867500
5.122300 1.867600
5.141400 1.857500
5.160600 1.794000
5.179700 1.746900
5.198800 1.664400
5.218000 1.586300
5.237100 1.515500
5.256300 1.450500
5.275400 1.390500
5.294500 1.361400
5.313700 1.351000
5.332800 1.327500
5.352000 1.273200
5.371100 1.199300
5.390200 1.142600
5.409400 1.204400
5.428500 1.297100
5.447700 1.125800
5.466800 1.108900
5.485900 1.090900
5.505100 1.087400
5.524200 1.092800
5.543300 1.096600
5.562500 1.119900
5.581600 1.128200
5.600800 1.133800
5.619900 1.147900
5.639000 1.148500
5.658200 1.149400
5.677300 1.150700
5.696500 1.152300
5.715600 1.154100
5.734700 1.155000
5.753900 1.155100
5.773000 1.155900
5.792200 1.157300
5.811300 1.159100
5.830400 1.163300
5.849600 1.167800
5.868700 1.172700
5.887900 1.178300
5.907000 1.185000
5.926100 1.190600
5.945300 1.124900
5.964400 1.115100
5.983500 1.101800
6.002700 1.094300
6.021800 1.086200
6.041000 1.056900
6.060100 1.051500
6.079200 1.047400
6.098400 1.043900
6.117500 1.043000
6.136700 1.043800
6.155800 1.046200
6.174900 1.050000
6.194100 1.054900
6.213200 1.060900
6.232400 1.068300
6.251500 1.077900
6.270600 1.091000
6.289800 1.106800
6.308900 1.106400
6.328100 1.095400
6.347200 1.114700
6.366300 1.137300
6.385500 1.162800
6.404600 1.190600
6.423700 1.222200
6.442900 1.265900
6.462000 1.311400
6.481200 1.356000
6.500300 1.402500
6.519400 1.446500
6.538600 1.499800
6.557700 1.533600
6.576900 1.580200
6.596000 1.597300
6.615100 1.630000
6.634300 1.662000
6.653400 1.692700
6.672600 1.719200
6.691700 1.721600
6.710800 1.741300
6.730000 1.759700
6.749100 1.775600
6.768300 1.789300
6.787400 1.796100
6.806500 1.804600
6.825700 1.809200
6.844800 1.808800
6.864000 1.799900
6.883100 1.784000
6.902200 1.763200
6.921400 1.742400
6.940500 1.725500
6.959600 1.710000
6.978800 1.695600
6.997900 1.688600
7.017100 1.676700
7.036200 1.666700
7.055300 1.664200
7.074500 1.662300
7.093600 1.660200
7.112800 1.659200
7.131900 1.659800
7.151000 1.661700
7.170200 1.664900
7.189300 1.667700
7.208500 1.671700
7.227600 1.677100
7.246700 1.679200
7.265900 1.679400
7.285000 1.684700
7.304200 1.684800
7.323300 1.680000
7.342400 1.694600
7.361600 1.671500
7.380700 1.647700
7.399800 1.622400
7.419000 1.603100
7.438100 1.589600
7.457300 1.588100
7.476400 1.593900
7.495500 1.602900
7.514700 1.614900
7.533800 1.633700
7.553000 1.638200
7.572100 1.596800
7.591200 1.534900
7.610400 1.488300
7.629500 1.483000
7.648700 1.444100
7.667800 1.449600
7.686900 1.406400
7.706100 1.401000
7.725200 1.382300
7.744400 1.364300
7.763500 1.350400
7.782600 1.340500
7.801800 1.332800
7.820900 1.326500
7.840000 1.318800
7.859200 1.312100
7.878300 1.306400
7.897500 1.301300
7.916600 1.296600
7.935700 1.292500
7.954900 1.288800
7.974000 1.285700
7.993200 1.287700
8.012300 1.302400
8.031400 1.285000
8.050600 1.291800
8.069700 1.302000
8.088900 1.314800
8.108000 1.364200
8.127100 1.318900
8.146300 1.314400
8.165400 1.308800
8.184600 1.305500
8.203700 1.305600
8.222800 1.325800
8.242000 1.338800
8.261100 1.343200
8.280200 1.341200
8.299400 1.374800
8.318500 1.359800
8.337700 1.358200
8.356800 1.314600
8.375900 1.314800
8.395100 1.329900
8.414200 1.340800
8.433400 1.347000
8.452500 1.348100
8.471600 1.338800
8.490800 1.333700
8.509900 1.337600
8.529100 1.333900
8.548200 1.337600
8.567300 1.340600
8.586500 1.342100
8.605600 1.341500
8.624800 1.344100
8.643900 1.352300
8.663000 1.358500
8.682200 1.360600
8.701300 1.359000
8.720400 1.355700
8.739600 1.359100
8.758700 1.363600
8.777900 1.367700
8.797000 1.374800
8.816100 1.379100
8.835300 1.384000
8.854400 1.388500
8.873600 1.392300
8.892700 1.391700
8.911800 1.385100
8.931000 1.374100
8.950100 1.358900
8.969300 1.340600
8.988400 1.329400
9.007500 1.333200
9.026700 1.330400
9.045800 1.330900
9.065000 1.334300
9.084100 1.339400
9.103200 1.347500
9.122400 1.358000
9.141500 1.370400
9.160600 1.384500
9.179800 1.400500
9.198900 1.417400
9.218100 1.440000
9.237200 1.452200
9.256300 1.463600
9.275500 1.475200
9.294600 1.485600
9.313800 1.495100
9.332900 1.504100
9.352000 1.512800
9.371200 1.521200
9.390300 1.529700
9.409500 1.538200
9.428600 1.548000
9.447700 1.556200
9.466900 1.562500
9.486000 1.567600
9.505200 1.573500
9.524300 1.578900
9.543400 1.583000
9.562600 1.584500
9.581700 1.583900
9.600800 1.584200
9.620000 1.584900
9.639100 1.586400
9.658300 1.588500
9.677400 1.592500
9.696500 1.599200
9.715700 1.608300
9.734800 1.615400
9.754000 1.623800
9.773100 1.633500
9.792200 1.644000
9.811400 1.654100
9.830500 1.664800
9.849700 1.677800
9.868800 1.696100
9.887900 1.716800
9.907100 1.732800
9.926200 1.770100
9.945400 1.760800
9.964500 1.739300
9.983600 1.716600
10.002800 1.693900
10.021900 1.670200
10.041000 1.633100
10.060200 1.597300
10.079300 1.570100
10.098500 1.539500
10.117600 1.512200
10.136700 1.487100
10.155900 1.477600
10.175000 1.452900
10.194200 1.416800
10.213300 1.381600
10.232400 1.351300
10.251600 1.326200
10.270700 1.305900
10.289900 1.290500
10.309000 1.277500
10.328100 1.263800
10.347300 1.250900
10.366400 1.243700
10.385600 1.243200
10.404700 1.244000
10.423800 1.245800
10.443000 1.249100
10.462100 1.253900
10.481300 1.260800
10.500400 1.246200
10.519500 1.256600
10.538700 1.269300
10.557800 1.288400
10.576900 1.310200
10.596100 1.329200
10.615200 1.493700
10.634400 1.457200
10.653500 1.467600
10.672600 1.478100
10.691800 1.488800
10.710900 1.499800
10.730100 1.511300
10.749200 1.526400
10.768300 1.547200
10.787500 1.570600
10.806600 1.600400
10.825800 1.634800
10.844900 1.671100
10.864000 1.691900
10.883200 1.707700
10.902300 1.718200
10.921500 1.723500
10.940600 1.723500
10.959700 1.717800
10.978900 1.689700
10.998000 1.700000
11.017100 1.717100
11.036300 1.729100
11.055400 1.695000
11.074600 1.721000
11.093700 1.750100
11.112800 1.771500
11.132000 1.784000
11.151100 1.801600
11.170300 1.838400
11.189400 1.878800
11.208500 1.926300
11.227700 1.958000
11.246800 1.988100
11.266000 2.007900
11.285100 2.077300
11.304200 2.167300
11.323400 2.270800
11.342500 2.272700
11.361700 2.298900
11.380800 2.192500
11.399900 2.121200
11.419100 2.033100
11.438200 1.916000
11.457300 1.810800
11.476500 1.772400
11.495600 1.753400
11.514800 1.781700
11.533900 1.872900
11.553000 1.935700
11.572200 1.948900
11.591300 1.979900
11.610500 2.022100
11.629600 2.073100
11.648700 2.138900
11.667900 2.179500
11.687000 2.158600
11.706200 2.148200
11.725300 2.133100
11.744400 2.122900
11.763600 2.111400
11.782700 2.099800
11.801900 2.105600
11.821000 2.127800
11.840100 2.159400
11.859300 2.192700
11.878400 2.185600
11.897500 2.147600
11.916700 2.092900
11.935800 2.059900
11.955000 2.071600
11.974100 2.114600
11.993200 2.147400
12.012400 2.130500
12.031500 2.125500
12.050700 2.120400
12.069800 2.075200
12.088900 2.001100
12.108100 1.999100
12.127200 2.068400
12.146400 2.066200
12.165500 2.059500
12.184600 2.058700
12.203800 2.078700
12.222900 2.072300
12.242100 2.068600
12.261200 2.069700
12.280300 2.113800
12.299500 2.081700
12.318600 2.067300
12.337700 2.064000
12.356900 2.077100
12.376000 2.132800
12.395200 2.218600
12.414300 2.282900
12.433400 2.275800
12.452600 2.290600
12.471700 2.303200
12.490900 2.310600
12.510000 2.312300
12.529100 2.312400
12.548300 2.306200
12.567400 2.299500
12.586600 2.292600
12.605700 2.284500
12.624800 2.267100
12.644000 2.244100
12.663100 2.216300
12.682300 2.175700
12.701400 2.114100
12.720500 2.042600
12.739700 1.966400
12.758800 1.928400
12.777900 1.913400
12.797100 1.915000
12.816200 1.921300
12.835400 1.929900
12.854500 1.938700
12.873600 1.945400
12.892800 1.954300
12.911900 1.965400
12.931100 1.983800
12.950200 2.010100
12.969300 2.040900
12.988500 2.075800
13.007600 2.108000
13.026800 2.145100
13.045900 2.187400
13.065000 2.204300
13.084200 2.217000
13.103300 2.226200
13.122500 2.232200
13.141600 2.179700
13.160700 2.089300
13.179900 2.070800
13.199000 2.066000
13.218100 2.072300
13.237300 2.089000
13.256400 2.104500
13.275600 2.112900
13.294700 2.126300
13.313800 2.140200
13.333000 2.153000
13.352100 2.155000
13.371300 2.155900
13.390400 2.147300
13.409500 2.125100
13.428700 2.105000
13.447800 2.087000
13.467000 2.070500
13.486100 2.132100
13.505200 2.179200
13.524400 2.250300
13.543500 2.317300
13.562700 2.339500
13.581800 2.143100
13.600900 2.030900
13.620100 2.016800
13.639200 2.000100
13.658300 1.997800
13.677500 2.001600
13.696600 1.955500
13.715800 1.955600
13.734900 1.958300
13.754000 1.964900
13.773200 1.974100
13.792300 1.989800
13.811500 1.995600
13.830600 2.011300
13.849700 2.017500
13.868900 2.015800
13.888000 2.016300
13.907200 2.022200
13.926300 2.037300
13.945400 2.067800
13.964600 2.104900
13.983700 2.143200
14.002900 2.180100
14.022000 2.205300
14.041100 2.228900
14.060300 2.251100
14.079400 2.271300
14.098600 2.273900
14.117700 2.258000
14.136800 2.235300
14.156000 2.212200
14.175100 2.188800
14.194200 2.169900
14.213400 2.165200
14.232500 2.151000
14.251700 2.139000
14.270800 2.130700
14.289900 2.124800
14.309100 2.120600
14.328200 2.117400
14.347400 2.121600
14.366500 2.117500
14.385600 2.113400
14.404800 2.102700
14.423900 2.084600
14.443100 2.073500
14.462200 2.072100
14.481300 2.050400
14.500500 2.029900
14.519600 2.015000
14.538800 2.002900
14.557900 1.992000
14.577000 1.985600
14.596200 1.977500
14.615300 1.969600
14.634400 1.963800
14.653600 1.960900
14.672700 1.960500
14.691900 1.962700
14.711000 1.967400
14.730100 1.974900
14.749300 1.985600
14.768400 1.994100
14.787600 1.976700
14.806700 1.964600
14.825800 1.958100
14.845000 1.955400
14.864100 1.952800
14.883300 1.960900
14.902400 1.974100
14.921500 1.980900
14.940700 1.963600
14.959800 2.101000
14.979000 1.966500
14.998100 1.924500
15.017200 1.910300
15.036400 1.897300
15.055500 1.895600
15.074600 1.969000
15.093800 1.978600
15.112900 1.951100
15.132100 1.920300
15.151200 1.912700
15.170300 1.911400
15.189500 1.914300
15.208600 1.920800
15.227800 1.931400
15.246900 1.944800
15.266000 1.961100
15.285200 1.951600
15.304300 1.957900
15.323500 1.978500
15.342600 2.057500
15.361700 2.073300
15.380900 2.056300
15.400000 2.038500
15.419200 2.035100
15.438300 2.038300
15.457400 2.043700
15.476600 2.038800
15.495700 2.020300
15.514800 2.031600
15.534000 2.014200
15.553100 2.009200
15.572300 2.009800
15.591400 2.011200
15.610500 2.014900
15.629700 2.017800
15.648800 2.019500
15.668000 2.021400
15.687100 2.026000
15.706200 2.029500
15.725400 2.035100
15.744500 2.040800
15.763700 2.046600
15.782800 2.035700
15.801900 2.020000
15.821100 2.005800
15.840200 2.051400
15.859400 1.982500
15.878500 1.932700
15.897600 1.901600
15.916800 1.872100
15.935900 1.856600
15.955000 1.849600
15.974200 1.843200
15.993300 1.836800
16.012500 1.834200
16.031600 1.902800
16.050700 1.865200
16.069900 1.822900
16.089000 1.815400
16.108200 1.821600
16.127300 1.825500
16.146400 1.825900
16.165600 1.822900
16.184700 1.818900
16.203900 1.815300
16.223000 1.814700
16.242100 1.814400
16.261300 1.814100
16.280400 1.813600
16.299600 1.826000
16.318700 1.933300
16.337800 1.966300
16.357000 2.016200
16.376100 1.988300
16.395200 1.913900
16.414400 1.857500
16.433500 1.820100
16.452700 1.793100
16.471800 1.767100
16.490900 1.744200
16.510100 1.721900
16.529200 1.688400
16.548400 1.663000
16.567500 1.647400
16.586600 1.655600
16.605800 1.588800
16.624900 1.594700
16.644100 1.596800
16.663200 1.588700
16.682300 1.590900
16.701500 1.584200
16.720600 1.572700
16.739800 1.564200
16.758900 1.571500
16.778000 1.571100
16.797200 1.562200
16.816300 1.544700
16.835400 1.514800
16.854600 1.501600
16.873700 1.485000
16.892900 1.465800
16.912000 1.440500
16.931100 1.423200
16.950300 1.423600
16.969400 1.425400
16.988600 1.428300
17.007700 1.432200
17.026800 1.438300
17.046000 1.436200
17.065100 1.445300
17.084300 1.456300
17.103400 1.468900
17.122500 1.485900
17.141700 1.510000
17.160800 1.537200
17.180000 1.566400
17.199100 1.595700
17.218200 1.622000
17.237400 1.649000
17.256500 1.674200
17.275600 1.740600
17.294800 1.743700
17.313900 1.751100
17.333100 1.783000
17.352200 1.815100
17.371300 1.847500
17.390500 1.879800
17.409600 1.907200
17.428800 1.935700
17.447900 1.965300
17.467000 1.997000
17.486200 2.030100
17.505300 2.061900
17.524500 2.098600
17.543600 2.145500
17.562700 2.202900
17.581900 2.275000
17.601000 2.335200
17.620200 2.376400
17.639300 2.504900
17.658400 2.509400
17.677600 2.515100
17.696700 2.527200
17.715800 2.542200
17.735000 2.561400
17.754100 2.580800
17.773300 2.627300
17.792400 2.647300
17.811500 2.674000
17.830700 2.701200
17.849800 2.772000
17.869000 2.845400
17.888100 2.829000
17.907200 2.799300
17.926400 2.803500
17.945500 2.832600
17.964700 2.900100
17.983800 2.997200
18.002900 3.065800
18.022100 3.116500
18.041200 3.158500
18.060400 3.215500
18.079500 3.276900
18.098600 3.407500
18.117800 3.567000
18.136900 3.749700
18.156100 3.860300
18.175200 3.949900
18.194300 3.992700
18.213500 3.955700
18.232600 3.850600
18.251700 3.660100
18.270900 3.592900
18.290000 3.545300
18.309200 3.504700
18.328300 3.163500
18.347400 3.093000
18.366600 3.047300
18.385700 2.869600
18.404900 2.826700
18.424000 2.799500
18.443100 2.785600
18.462300 2.772800
18.481400 2.713500
18.500600 2.731000
18.519700 2.754000
18.538800 2.782400
18.558000 2.834500
18.577100 2.936500
18.596300 2.957600
18.615400 2.970300
18.634500 2.973000
18.653700 2.966500
18.672800 2.949600
18.691900 2.922100
18.711100 2.907700
18.730200 2.873700
18.749400 2.825600
18.768500 2.773900
18.787600 2.732000
18.806800 2.666100
18.825900 2.582500
18.845100 2.550800
18.864200 2.541300
18.883300 2.530700
18.902500 2.524100
18.921600 2.522100
18.940800 2.531600
18.959900 2.570200
18.979000 2.688500
18.998200 2.746800
19.017300 2.883800
19.036500 2.712000
19.055600 2.722500
19.074700 3.097400
19.093900 3.366800
19.113000 3.638300
19.132100 3.369500
19.151300 3.201800
19.170400 3.115000
19.189600 3.139000
19.208700 3.225400
19.227800 3.222600
19.247000 3.247300
19.266100 3.277000
19.285300 3.359000
19.304400 3.324600
19.323500 3.210200
19.342700 3.194200
19.361800 3.166100
19.381000 3.136300
19.400100 3.250600
19.419200 3.225300
19.438400 3.193800
19.457500 3.192300
19.476700 3.269700
19.495800 3.307800
19.514900 3.333100
19.534100 3.418900
19.553200 3.454800
19.572300 3.471700
19.591500 3.489800
19.610600 3.515300
19.629800 3.529700
19.648900 3.533800
19.668000 3.518800
19.687200 3.526000
19.706300 3.504400
19.725500 3.506600
19.744600 3.361100
19.763700 3.292200
19.782900 3.232400
19.802000 3.159600
19.821200 3.137200
19.840300 3.111900
19.859400 3.109600
19.878600 3.110400
19.897700 3.112800
19.916900 3.107600
19.936000 3.093400
19.955100 3.060700
19.974300 3.020600
19.993400 2.981400
20.012500 2.909600
20.031700 2.845600
20.050800 2.874100
20.070000 2.901200
20.089100 2.932200
20.108200 3.091300
20.127400 3.103900
20.146500 3.097900
20.165700 2.979100
20.184800 2.916900
20.203900 2.868900
20.223100 2.817100
20.242200 2.783400
20.261400 2.764600
20.280500 2.756100
20.299600 2.748700
20.318800 2.745500
20.337900 2.740300
20.357100 2.729500
20.376200 2.694600
20.395300 2.701400
20.414500 2.695700
20.433600 2.677100
20.452700 2.661500
20.471900 2.651300
20.491000 2.645200
20.510200 2.635800
20.529300 2.583300
20.548400 2.564200
20.567600 2.538800
20.586700 2.566600
20.605900 2.600900
20.625000 2.619700
20.644100 2.647000
20.663300 2.675900
20.682400 2.803300
20.701600 2.881700
20.720700 2.863400
20.739800 2.810800
20.759000 2.465800
20.778100 2.359300
20.797300 2.294300
20.816400 2.253700
20.835500 2.218700
20.854700 2.178500
20.873800 2.125400
20.892900 2.030900
20.912100 2.025600
20.931200 2.026800
20.950400 2.102200
20.969500 2.160500
20.988600 2.227600
21.007800 2.181000
21.026900 2.279100
21.046100 2.313400
21.065200 2.353400
21.084300 2.418400
21.103500 2.476600
21.122600 2.506000
21.141800 2.525900
21.160900 2.505100
21.180000 2.467300
21.199200 2.428600
21.218300 2.360300
21.237500 2.377300
21.256600 2.350700
21.275700 2.340700
21.294900 2.333400
21.314000 2.321700
21.333100 2.330000
21.352300 2.346000
21.371400 2.362800
21.390600 2.359700
21.409700 2.273900
21.428800 2.209200
21.448000 2.169000
21.467100 2.146700
21.486300 2.138700
21.505400 2.118900
21.524500 2.099600
21.543700 2.080700
21.562800 2.062500
21.582000 2.045600
21.601100 2.034200
21.620200 2.033400
21.639400 2.043200
21.658500 2.037500
21.677700 2.009700
21.696800 1.989000
21.715900 1.966500
21.735100 1.941500
21.754200 1.911400
21.773400 1.872700
21.792500 1.830300
21.811600 1.796300
21.830800 1.768300
21.849900 1.754600
21.869000 1.739000
21.888200 1.702100
21.907300 1.670600
21.926500 1.647600
21.945600 1.693200
21.964700 1.685000
21.983900 1.672800
22.003000 1.686000
22.022200 1.647300
22.041300 1.630300
22.060400 1.619400
22.079600 1.609500
22.098700 1.607400
22.117900 1.612600
22.137000 1.636400
22.156100 1.678300
22.175300 1.782000
22.194400 1.913400
22.213600 2.087500
22.232700 2.318900
22.251800 2.155400
22.271000 2.147100
22.290100 2.159400
22.309200 2.203900
22.328400 2.244300
22.347500 2.320200
22.366700 2.388400
22.385800 2.376000
22.404900 2.358700
22.424100 2.341300
22.443200 2.323400
22.462400 2.306000
22.481500 2.297400
22.500600 2.283500
22.519800 2.259900
22.538900 2.226900
22.558100 2.214200
22.577200 2.201100
22.596300 2.190000
22.615500 2.213900
22.634600 2.229400
22.653800 2.250200
22.672900 2.237900
22.692000 2.202900
22.711200 2.189100
22.730300 2.180500
22.749400 2.164200
22.768600 2.155900
22.787700 2.151900
22.806900 2.155500
22.826000 2.165100
22.845100 2.188000
22.864300 2.231100
22.883400 2.537800
22.902600 2.527700
22.921700 2.522300
22.940800 2.492500
22.960000 2.527700
22.979100 2.642600
22.998300 2.662300
23.017400 2.640400
23.036500 2.614000
23.055700 2.598300
23.074800 2.595400
23.094000 2.596100
23.113100 2.599100
23.132200 2.602600
23.151400 2.612000
23.170500 2.630200
23.189600 2.657400
23.208800 2.634300
23.227900 2.648000
23.247100 2.671300
23.266200 2.672000
23.285300 2.599200
23.304500 2.575500
23.323600 2.574700
23.342800 2.581800
23.361900 2.609600
23.381000 2.551200
23.400200 2.503800
23.419300 2.448700
23.438500 2.420600
23.457600 2.446400
23.476700 2.424400
23.495900 2.434200
23.515000 2.439800
23.534200 2.430300
23.553300 2.407200
23.572400 2.377300
23.591600 2.369900
23.610700 2.400700
23.629800 2.440600
23.649000 2.388200
23.668100 2.320800
23.687300 2.253100
23.706400 2.214600
23.725500 2.185200
23.744700 2.143600
23.763800 2.138200
23.783000 2.076600
23.802100 2.035800
23.821200 2.014100
23.840400 2.010100
23.859500 2.017200
23.878700 2.026200
23.897800 2.051500
23.916900 2.088200
23.936100 2.134800
23.955200 2.187900
23.974400 2.233800
23.993500 2.243600
24.012600 2.180000
24.031800 2.222700
24.050900 2.247600
24.070000 2.254400
24.089200 2.254900
24.108300 2.250000
24.127500 2.236400
24.146600 2.223900
24.165700 2.206500
24.184900 2.187200
24.204000 2.290300
24.223200 2.210000
24.242300 2.186900
24.261400 2.185000
24.280600 2.193500
24.299700 2.213700
24.318900 2.240500
24.338000 2.268100
24.357100 2.303900
24.376300 2.371600
24.395400 2.411800
24.414600 2.439100
24.433700 2.465800
24.452800 2.488200
24.472000 2.494400
24.491100 2.427600
24.510200 2.515800
24.529400 2.588100
24.548500 2.659700
24.567700 2.653500
24.586800 2.679800
24.605900 2.699800
24.625100 2.720700
24.644200 2.696100
24.663400 2.611600
24.682500 2.553000
24.701600 2.498900
24.720800 2.463300
24.739900 2.455800
24.759100 2.443800
24.778200 2.426300
24.797300 2.407700
24.816500 2.394200
24.835600 2.380600
24.854800 2.366000
24.873900 2.414600
24.893000 2.441700
24.912200 2.470400
24.931300 2.508400
24.950400 2.574400
24.969600 2.592500
24.988700 2.615400
25.007900 2.601500
25.027000 2.588000
25.046100 2.585400
25.065300 2.586800
25.084400 2.703500
25.103600 2.765500
25.122700 3.002100
25.141800 3.125900
25.161000 3.212900
25.180100 3.367800
25.199300 3.331900
25.218400 3.300500
25.237500 2.881600
25.256700 2.773500
25.275800 2.783700
25.295000 2.796000
25.314100 2.753000
25.333200 2.798800
25.352400 2.867300
25.371500 2.778100
25.390700 2.882000
25.409800 2.680300
25.428900 2.657400
25.448100 2.643800
25.467200 2.675200
25.486300 2.692700
25.505500 2.689100
25.524600 2.702100
25.543800 2.785000
25.562900 2.834400
25.582000 2.921400
25.601200 3.023100
25.620300 3.146600
25.639500 3.294200
25.658600 3.270400
25.677700 3.538100
25.696900 3.606100
25.716000 3.482300
25.735200 3.382600
25.754300 3.319500
25.773400 3.267300
25.792600 3.220500
25.811700 3.184300
25.830900 3.148600
25.850000 3.088200
25.869100 2.993600
25.888300 2.934900
25.907400 2.890500
25.926500 2.847200
25.945700 2.872500
25.964800 2.863900
25.984000 2.826700
26.003100 2.807300
26.022200 2.789200
26.041400 2.772000
26.060500 2.761300
26.079700 2.751700
26.098800 2.736100
26.117900 2.756900
26.137100 2.766100
26.156200 2.782600
26.175400 2.769100
26.194500 2.733600
26.213600 2.681400
26.232800 2.655600
26.251900 2.638200
26.271100 2.611900
26.290200 2.580700
26.309300 2.541400
26.328500 2.503600
26.347600 2.473400
26.366700 2.453200
26.385900 2.455700
26.405000 2.464800
26.424200 2.430800
26.443300 2.417500
26.462400 2.434000
26.481600 2.424900
26.500700 2.424100
26.519900 2.449300
26.539000 2.465100
26.558100 2.475500
26.577300 2.501600
26.596400 2.561400
26.615600 2.623000
26.634700 2.684200
26.653800 2.746700
26.673000 2.781600
26.692100 2.878200
26.711300 2.891200
26.730400 2.917200
26.749500 2.933200
26.768700 2.929000
26.787800 2.928200
26.806900 2.929800
26.826100 2.938600
26.845200 2.925400
26.864400 2.953600
26.883500 2.978300
26.902600 2.949300
26.921800 2.927500
26.940900 2.927900
26.960100 2.925200
26.979200 2.903600
26.998300 2.876100
27.017500 2.860100
27.036600 2.838000
27.055800 2.829400
27.074900 2.817600
27.094000 2.835500
27.113200 2.864800
27.132300 2.900500
27.151500 2.938800
27.170600 2.984300
27.189700 3.037900
27.208900 3.106600
27.228000 3.193500
27.247100 3.249400
27.266300 3.290400
27.285400 3.280100
27.304600 3.158000
27.323700 2.996700
27.342800 2.676600
27.362000 2.615100
27.381100 2.576500
27.400300 2.534100
27.419400 2.478100
27.438500 2.393800
27.457700 2.318100
27.476800 2.252400
27.496000 2.150500
27.515100 1.934700
27.534200 1.615700
27.553400 1.462800
27.572500 1.334000
27.591700 1.227500
27.610800 1.158100
27.629900 1.096500
27.649100 1.050700
27.668200 1.011000
27.687300 0.976400
27.706500 0.943100
27.725600 0.910500
27.744800 0.878600
27.763900 0.844600
27.783000 0.809800
27.802200 0.778000
27.821300 0.750900
27.840500 0.731300
27.859600 0.719400
27.878700 0.719300
27.897900 0.744200
27.917000 0.783600
27.936200 0.726600
27.955300 0.659500
27.974400 0.593400
27.993600 0.527200
28.012700 0.460600
28.031900 0.405100
28.051000 0.371100
28.070100 0.348300
28.089300 0.335500
28.108400 0.326700
28.127500 0.324500
28.146700 0.318800
28.165800 0.307800
28.185000 0.291200
28.204100 0.275900
28.223200 0.266900
28.242400 0.258200
28.261500 0.249900
28.280700 0.242200
28.299800 0.235000
28.318900 0.228400
28.338100 0.221800
28.357200 0.213800
28.376400 0.205900
28.395500 0.198100
28.414600 0.194900
28.433800 0.191900
28.452900 0.188900
28.472100 0.186100
28.491200 0.183300
28.510300 0.180500
28.529500 0.177900
28.548600 0.175400
28.567700 0.172900
28.586900 0.170500
28.606000 0.168200
28.625200 0.166000
28.644300 0.163400
28.663400 0.161200
28.682600 0.157900
28.701700 0.153400
28.720900 0.147900
28.740000 0.142900
28.759100 0.141900
28.778300 0.139600
28.797400 0.136100
28.816600 0.131400
28.835700 0.125400
28.854800 0.118100
28.874000 0.109600
28.893100 0.099900
28.912300 0.088900
28.931400 0.076000
28.950500 0.054600
28.969700 0.045100
28.988800 0.036500
29.007900 0.028700
29.027100 0.021800
29.046200 0.015700
29.065400 0.010400
29.084500 0.006000
29.103600 0.002400
29.122800 0.000200
29.141900 0.000000
29.161100 0.000000
29.180200 0.000000
29.199300 0.000000
29.218500 0.000000
29.237600 0.000000
29.256800 0.000000
29.275900 0.000000
29.295000 0.000000
29.314200 0.000000
29.333300 0.000000
29.352500 0.000000
29.371600 0.000000
29.390700 0.000000
29.409900 0.000000
29.429000 0.000000
29.448200 0.000000
29.467300 0.000000
29.486400 0.000000
29.505600 0.000000
29.524700 0.000000
29.543800 0.000000
29.563000 0.000000
29.582100 0.000000
29.601300 0.000000
29.620400 0.000000
29.639500 0.000000
29.658700 0.000000
29.677800 0.000000
29.697000 0.000000
29.716100 0.000000
29.735200 0.000000
29.754400 0.000000
29.773500 0.000000
29.792700 0.000000
29.811800 0.000000
29.830900 0.000000
29.850100 0.000000
29.869200 0.000000
29.888400 0.000000
29.907500 0.000000
29.926600 0.000000
29.945800 0.000000
29.964900 0.000000
29.984000 0.000000
30.003200 0.000000
30.022300 0.000000
30.041500 0.000000
30.060600 0.000000
30.079700 0.000000
30.098900 0.000000
30.118000 0.000000
30.137200 0.000000
30.156300 0.000000
30.175400 0.000000
30.194600 0.000000
30.213700 0.000000
30.232900 0.000000
30.252000 0.000000
30.271100 0.000000
30.290300 0.000000
30.309400 0.000000
30.328600 0.000000
30.347700 0.000000
30.366800 0.000000
30.386000 0.000000
30.405100 0.000000
30.424200 0.000000
30.443400 0.000000
30.462500 0.000000
30.481700 0.000000
30.500800 0.000000
30.519900 0.000000
30.539100 0.000000
30.558200 0.000000
30.577400 0.000000
30.596500 0.000000
30.615600 0.000000
30.634800 0.000000
30.653900 0.000000
30.673100 0.000000
30.692200 0.000000
30.711300 0.000000
30.730500 0.000000
30.749600 0.000000
30.768800 0.000000
30.787900 0.000000
30.807000 0.000000
30.826200 0.000000
30.845300 0.000000
30.864400 0.000000
e
