set title 'mp-151 - Density of States'
set xlabel 'Energy (eV)'
set ylabel 'DOS (states/eV)'
set grid
set xrange [-10:10]
set yrange [0:28.530]
set xzeroaxis lt -1
set terminal png size 800,600
set output 'mp-151_dos_gnuplot.png'
plot '-' using 1:2 with lines title 'DOS'
-7.919600 0.000000
-7.899500 0.000000
-7.879400 0.000000
-7.859200 0.000000
-7.839100 0.000000
-7.819000 0.000000
-7.798900 0.000000
-7.778800 0.000000
-7.758600 0.000000
-7.738500 0.000000
-7.718400 0.000000
-7.698300 0.000000
-7.678200 0.000000
-7.658000 0.000000
-7.637900 0.000000
-7.617800 0.000000
-7.597700 0.000000
-7.577600 0.000000
-7.557400 0.000000
-7.537300 0.000000
-7.517200 0.000000
-7.497100 0.000000
-7.477000 0.000000
-7.456900 0.000000
-7.436700 0.000000
-7.416600 0.000000
-7.396500 0.000000
-7.376400 0.000000
-7.356300 0.000000
-7.336100 0.000000
-7.316000 0.000000
-7.295900 0.000000
-7.275800 0.000000
-7.255700 0.000000
-7.235500 0.000000
-7.215400 0.000000
-7.195300 0.000000
-7.175200 0.000000
-7.155100 0.000000
-7.134900 0.000000
-7.114800 0.000000
-7.094700 0.000000
-7.074600 0.000000
-7.054500 0.000000
-7.034300 0.000000
-7.014200 0.000000
-6.994100 0.000000
-6.974000 0.000000
-6.953900 0.000000
-6.933700 0.000000
-6.913600 0.000000
-6.893500 0.000000
-6.873400 0.000000
-6.853300 0.000000
-6.833100 0.000000
-6.813000 0.000000
-6.792900 0.000000
-6.772800 0.000000
-6.752700 0.000000
-6.732600 0.000000
-6.712400 0.000000
-6.692300 0.000000
-6.672200 0.000000
-6.652100 0.000000
-6.632000 0.000000
-6.611800 0.000000
-6.591700 0.000000
-6.571600 0.000000
-6.551500 0.000000
-6.531400 0.000000
-6.511200 0.000000
-6.491100 0.000000
-6.471000 0.000000
-6.450900 0.000000
-6.430800 0.000000
-6.410600 0.000000
-6.390500 0.000000
-6.370400 0.000000
-6.350300 0.000000
-6.330200 0.000000
-6.310000 0.000000
-6.289900 0.000000
-6.269800 0.000000
-6.249700 0.000000
-6.229600 0.000000
-6.209400 0.000000
-6.189300 0.000000
-6.169200 0.000000
-6.149100 0.000000
-6.129000 0.000000
-6.108800 0.000000
-6.088700 0.150700
-6.068600 1.154700
-6.048500 1.832900
-6.028400 2.509800
-6.008300 3.223100
-5.988100 4.655900
-5.968000 6.254500
-5.947900 7.978900
-5.927800 12.093900
-5.907700 19.082000
-5.887500 18.460400
-5.867400 19.361400
-5.847300 16.773100
-5.827200 9.571200
-5.807100 25.936600
-5.786900 25.087500
-5.766800 19.342800
-5.746700 14.243800
-5.726600 9.997600
-5.706500 8.376700
-5.686300 9.076600
-5.666200 16.696700
-5.646100 14.434900
-5.626000 14.753100
-5.605900 10.805100
-5.585700 10.681200
-5.565600 18.403400
-5.545500 24.095700
-5.525400 17.951600
-5.505300 17.611800
-5.485100 16.296300
-5.465000 15.322700
-5.444900 15.765300
-5.424800 16.516200
-5.404700 22.420500
-5.384500 16.123200
-5.364400 8.700700
-5.344300 5.139800
-5.324200 0.000000
-5.304100 0.000000
-5.284000 0.000000
-5.263800 0.000000
-5.243700 0.000000
-5.223600 0.000000
-5.203500 0.000000
-5.183400 0.000000
-5.163200 0.000000
-5.143100 0.000000
-5.123000 0.000000
-5.102900 0.000000
-5.082800 0.000000
-5.062600 0.000000
-5.042500 0.000000
-5.022400 0.000000
-5.002300 0.000000
-4.982200 0.000000
-4.962000 0.000000
-4.941900 0.000000
-4.921800 0.000000
-4.901700 0.000000
-4.881600 0.000000
-4.861400 0.000000
-4.841300 0.000000
-4.821200 0.000000
-4.801100 0.000000
-4.781000 0.000000
-4.760800 0.000000
-4.740700 0.000000
-4.720600 0.000000
-4.700500 0.000000
-4.680400 0.000000
-4.660200 0.000000
-4.640100 0.000000
-4.620000 0.000000
-4.599900 0.000000
-4.579800 0.000000
-4.559700 0.000000
-4.539500 0.000000
-4.519400 0.000000
-4.499300 0.000000
-4.479200 0.000000
-4.459100 0.000000
-4.438900 0.000000
-4.418800 0.000000
-4.398700 0.000000
-4.378600 0.000000
-4.358500 0.000000
-4.338300 0.000000
-4.318200 0.000000
-4.298100 0.000000
-4.278000 0.000000
-4.257900 0.000000
-4.237700 0.000000
-4.217600 0.000000
-4.197500 0.000000
-4.177400 0.000000
-4.157300 0.000000
-4.137100 0.000000
-4.117000 0.000000
-4.096900 0.000000
-4.076800 0.000000
-4.056700 0.000000
-4.036500 0.000000
-4.016400 0.000000
-3.996300 0.000000
-3.976200 0.000000
-3.956100 0.000000
-3.935900 0.000000
-3.915800 0.000000
-3.895700 0.000000
-3.875600 0.000000
-3.855500 0.000000
-3.835400 0.000000
-3.815200 0.000000
-3.795100 0.000000
-3.775000 0.000000
-3.754900 0.000000
-3.734800 0.000000
-3.714600 0.000000
-3.694500 0.007400
-3.674400 0.027600
-3.654300 0.042300
-3.634200 0.043900
-3.614000 0.050700
-3.593900 0.058000
-3.573800 0.065700
-3.553700 0.072700
-3.533600 0.076700
-3.513400 0.077600
-3.493300 0.080400
-3.473200 0.084400
-3.453100 0.088500
-3.433000 0.092700
-3.412800 0.097000
-3.392700 0.101400
-3.372600 0.105800
-3.352500 0.107400
-3.332400 0.109700
-3.312200 0.112100
-3.292100 0.114400
-3.272000 0.116500
-3.251900 0.118800
-3.231800 0.121300
-3.211600 0.124100
-3.191500 0.127100
-3.171400 0.130100
-3.151300 0.133200
-3.131200 0.136200
-3.111100 0.139200
-3.090900 0.141300
-3.070800 0.142600
-3.050700 0.143800
-3.030600 0.145700
-3.010500 0.147600
-2.990300 0.149500
-2.970200 0.151500
-2.950100 0.153400
-2.930000 0.155400
-2.909900 0.157400
-2.889700 0.159500
-2.869600 0.161800
-2.849500 0.164000
-2.829400 0.166300
-2.809300 0.168600
-2.789100 0.170900
-2.769000 0.173300
-2.748900 0.174600
-2.728800 0.176100
-2.708700 0.177600
-2.688500 0.179100
-2.668400 0.180500
-2.648300 0.181900
-2.628200 0.183400
-2.608100 0.185100
-2.587900 0.186900
-2.567800 0.188600
-2.547700 0.190400
-2.527600 0.192200
-2.507500 0.193900
-2.487400 0.195700
-2.467200 0.197400
-2.447100 0.199200
-2.427000 0.201100
-2.406900 0.203000
-2.386800 0.204900
-2.366600 0.206900
-2.346500 0.208700
-2.326400 0.210100
-2.306300 0.211200
-2.286200 0.212600
-2.266000 0.214100
-2.245900 0.215500
-2.225800 0.217000
-2.205700 0.218400
-2.185600 0.219800
-2.165400 0.221200
-2.145300 0.222700
-2.125200 0.224300
-2.105100 0.225800
-2.085000 0.227400
-2.064800 0.229000
-2.044700 0.230700
-2.024600 0.232300
-2.004500 0.233900
-1.984400 0.235600
-1.964200 0.237200
-1.944100 0.238900
-1.924000 0.240600
-1.903900 0.242200
-1.883800 0.243900
-1.863600 0.245600
-1.843500 0.246900
-1.823400 0.248300
-1.803300 0.249700
-1.783200 0.251100
-1.763100 0.252500
-1.742900 0.253900
-1.722800 0.255300
-1.702700 0.256800
-1.682600 0.258300
-1.662500 0.259800
-1.642300 0.261300
-1.622200 0.262800
-1.602100 0.264300
-1.582000 0.265800
-1.561900 0.267300
-1.541700 0.268900
-1.521600 0.270400
-1.501500 0.272000
-1.481400 0.273600
-1.461300 0.275200
-1.441100 0.276800
-1.421000 0.278500
-1.400900 0.280100
-1.380800 0.281700
-1.360700 0.283400
-1.340500 0.285000
-1.320400 0.286700
-1.300300 0.288200
-1.280200 0.289700
-1.260100 0.291200
-1.239900 0.292800
-1.219800 0.294400
-1.199700 0.295900
-1.179600 0.297500
-1.159500 0.299100
-1.139300 0.300700
-1.119200 0.302400
-1.099100 0.304000
-1.079000 0.305700
-1.058900 0.307300
-1.038800 0.309000
-1.018600 0.310700
-0.998500 0.312400
-0.978400 0.314100
-0.958300 0.315800
-0.938200 0.317600
-0.918000 0.319300
-0.897900 0.321100
-0.877800 0.322800
-0.857700 0.324600
-0.837600 0.326400
-0.817400 0.328200
-0.797300 0.330100
-0.777200 0.331900
-0.757100 0.333800
-0.737000 0.335600
-0.716800 0.337500
-0.696700 0.339500
-0.676600 0.341500
-0.656500 0.343500
-0.636400 0.345500
-0.616200 0.347600
-0.596100 0.349700
-0.576000 0.351800
-0.555900 0.353900
-0.535800 0.356000
-0.515600 0.358200
-0.495500 0.360400
-0.475400 0.362600
-0.455300 0.364900
-0.435200 0.367200
-0.415000 0.369500
-0.394900 0.371900
-0.374800 0.374300
-0.354700 0.376700
-0.334600 0.379200
-0.314500 0.381700
-0.294300 0.384200
-0.274200 0.386800
-0.254100 0.389400
-0.234000 0.392000
-0.213900 0.394700
-0.193700 0.397400
-0.173600 0.400100
-0.153500 0.403000
-0.133400 0.405900
-0.113300 0.408900
-0.093100 0.412000
-0.073000 0.415500
-0.052900 0.419300
-0.032800 0.423000
-0.012700 0.426900
0.007500 0.430800
0.027600 0.434900
0.047700 0.439200
0.067800 0.443500
0.087900 0.448000
0.108100 0.452700
0.128200 0.457600
0.148300 0.462800
0.168400 0.468200
0.188500 0.473900
0.208700 0.480000
0.228800 0.486300
0.248900 0.493000
0.269000 0.500700
0.289100 0.509300
0.309300 0.518900
0.329400 0.529500
0.349500 0.541100
0.369600 0.559600
0.389700 0.577100
0.409800 0.590900
0.430000 0.601100
0.450100 0.607400
0.470200 0.748900
0.490300 0.627100
0.510400 0.615600
0.530600 0.606100
0.550700 0.599300
0.570800 0.594200
0.590900 0.591300
0.611000 0.592200
0.631200 0.597200
0.651300 0.606200
0.671400 0.617200
0.691500 0.597700
0.711600 0.603100
0.731800 0.605000
0.751900 0.602900
0.772000 0.596600
0.792100 0.587100
0.812200 0.579100
0.832400 0.572600
0.852500 0.567500
0.872600 0.563700
0.892700 0.561100
0.912800 0.557300
0.933000 0.554300
0.953100 0.552100
0.973200 0.550900
0.993300 0.550300
1.013400 0.549400
1.033600 0.548100
1.053700 0.546300
1.073800 0.544000
1.093900 0.537100
1.114000 0.539900
1.134100 0.540200
1.154300 0.540000
1.174400 0.539300
1.194500 0.538100
1.214600 0.536100
1.234700 0.533900
1.254900 0.531600
1.275000 0.529300
1.295100 0.526200
1.315200 0.522400
1.335300 0.518800
1.355500 0.515500
1.375600 0.512600
1.395700 0.510300
1.415800 0.508600
1.435900 0.507800
1.456100 0.507600
1.476200 0.508000
1.496300 0.508600
1.516400 0.510000
1.536500 0.512400
1.556700 0.513100
1.576800 0.513000
1.596900 0.513600
1.617000 0.514000
1.637100 0.514600
1.657300 0.516400
1.677400 0.518300
1.697500 0.519800
1.717600 0.521000
1.737700 0.521800
1.757900 0.522400
1.778000 0.523700
1.798100 0.527500
1.818200 0.532500
1.838300 0.540500
1.858400 0.565300
1.878600 0.591900
1.898700 0.627300
1.918800 0.722100
1.938900 0.687000
1.959000 0.606200
1.979200 0.511400
1.999300 0.379300
2.019400 0.259400
2.039500 0.251300
2.059600 0.000000
2.079800 0.000000
2.099900 0.000000
2.120000 0.000000
2.140100 0.000000
2.160200 0.000000
2.180400 0.000000
2.200500 0.000000
2.220600 0.000000
2.240700 0.000000
2.260800 0.000000
2.281000 0.000000
2.301100 0.000000
2.321200 0.000000
2.341300 0.000000
2.361400 0.000000
2.381600 0.000000
2.401700 0.000000
2.421800 0.000000
2.441900 0.000000
2.462000 0.000000
2.482200 0.000000
2.502300 0.000000
2.522400 0.000000
2.542500 0.000000
2.562600 0.000000
2.582700 0.000000
2.602900 0.000000
2.623000 0.000000
2.643100 0.000000
2.663200 0.000000
2.683300 0.000000
2.703500 0.000000
2.723600 0.000000
2.743700 0.000000
2.763800 0.000000
2.783900 0.000000
2.804100 0.000000
2.824200 0.000000
2.844300 0.000000
2.864400 0.000000
2.884500 0.000000
2.904700 0.000000
2.924800 0.000000
2.944900 0.000000
2.965000 0.000000
2.985100 0.000000
3.005300 0.000000
3.025400 0.000000
3.045500 0.000000
3.065600 0.000000
3.085700 0.000000
3.105900 0.000000
3.126000 0.000000
3.146100 0.000000
3.166200 0.000000
3.186300 0.000000
3.206500 0.000000
3.226600 0.000000
3.246700 0.000000
3.266800 0.044900
3.286900 0.060100
3.307000 0.039700
3.327200 0.046400
3.347300 0.053600
3.367400 0.061400
3.387500 0.069700
3.407600 0.078500
3.427800 0.087900
3.447900 0.097600
3.468000 0.107200
3.488100 0.114600
3.508200 0.116300
3.528400 0.118000
3.548500 0.119900
3.568600 0.121900
3.588700 0.123700
3.608800 0.124600
3.629000 0.127800
3.649100 0.132300
3.669200 0.136800
3.689300 0.141300
3.709400 0.145900
3.729600 0.150500
3.749700 0.155100
3.769800 0.160000
3.789900 0.165300
3.810000 0.171000
3.830200 0.177100
3.850300 0.183000
3.870400 0.188000
3.890500 0.191800
3.910600 0.194400
3.930800 0.196300
3.950900 0.197500
3.971000 0.198400
3.991100 0.201400
4.011200 0.205900
4.031300 0.209400
4.051500 0.212900
4.071600 0.216500
4.091700 0.220000
4.111800 0.223700
4.131900 0.227300
4.152100 0.231000
4.172200 0.234600
4.192300 0.238200
4.212400 0.241900
4.232500 0.247900
4.252700 0.258800
4.272800 0.269200
4.292900 0.279000
4.313000 0.288400
4.333100 0.297600
4.353300 0.306500
4.373400 0.314900
4.393500 0.323400
4.413600 0.333900
4.433700 0.361400
4.453900 0.374500
4.474000 0.357700
4.494100 0.365300
4.514200 0.374900
4.534300 0.386200
4.554500 0.399100
4.574600 0.400200
4.594700 0.403800
4.614800 0.409900
4.634900 0.417700
4.655000 0.426000
4.675200 0.434800
4.695300 0.444100
4.715400 0.453900
4.735500 0.467100
4.755600 0.478700
4.775800 0.486600
4.795900 0.491200
4.816000 0.506000
4.836100 0.514600
4.856200 0.523800
4.876400 0.533400
4.896500 0.543500
4.916600 0.554100
4.936700 0.565200
4.956800 0.576900
4.977000 0.590400
4.997100 0.606600
5.017200 0.628300
5.037300 0.655800
5.057400 0.689200
5.077600 0.720500
5.097700 0.746800
5.117800 0.767400
5.137900 0.782000
5.158000 0.790800
5.178200 0.794000
5.198300 0.840300
5.218400 0.845000
5.238500 0.807500
5.258600 0.783200
5.278800 0.776900
5.298900 0.773900
5.319000 0.770000
5.339100 0.767200
5.359200 0.769400
5.379300 0.768100
5.399500 0.765100
5.419600 0.760500
5.439700 0.754200
5.459800 0.746300
5.479900 0.744600
5.500100 0.748700
5.520200 0.749900
5.540300 0.745600
5.560400 0.739200
5.580500 0.734300
5.600700 0.729300
5.620800 0.726300
5.640900 0.725100
5.661000 0.719100
5.681100 0.710100
5.701300 0.703200
5.721400 0.700800
5.741500 0.700100
5.761600 0.671100
5.781700 0.645500
5.801900 0.631200
5.822000 0.599200
5.842100 0.566800
5.862200 0.531000
5.882300 0.501000
5.902500 0.474700
5.922600 0.451400
5.942700 0.431300
5.962800 0.414300
5.982900 0.400200
6.003100 0.389100
6.023200 0.380900
6.043300 0.367000
6.063400 0.366600
6.083500 0.366900
6.103600 0.367900
6.123800 0.369500
6.143900 0.371800
6.164000 0.374700
6.184100 0.378200
6.204200 0.377800
6.224400 0.377400
6.244500 0.379600
6.264600 0.385000
6.284700 0.387500
6.304800 0.400100
6.325000 0.409800
6.345100 0.419800
6.365200 0.430200
6.385300 0.440900
6.405400 0.451300
6.425600 0.460900
6.445700 0.466200
6.465800 0.472400
6.485900 0.479400
6.506000 0.485300
6.526200 0.490300
6.546300 0.486100
6.566400 0.484500
6.586500 0.486900
6.606600 0.487800
6.626800 0.487000
6.646900 0.486000
6.667000 0.487700
6.687100 0.489600
6.707200 0.491700
6.727400 0.493700
6.747500 0.495800
6.767600 0.497900
6.787700 0.499700
6.807800 0.500900
6.827900 0.502300
6.848100 0.503100
6.868200 0.503300
6.888300 0.501800
6.908400 0.500300
6.928500 0.498900
6.948700 0.497600
6.968800 0.496400
6.988900 0.495400
7.009000 0.495100
7.029100 0.502000
7.049300 0.502700
7.069400 0.503200
7.089500 0.503500
7.109600 0.503600
7.129700 0.503200
7.149900 0.502800
7.170000 0.502400
7.190100 0.502000
7.210200 0.501600
7.230300 0.501300
7.250500 0.501400
7.270600 0.501600
7.290700 0.502000
7.310800 0.502500
7.330900 0.503100
7.351100 0.503800
7.371200 0.504600
7.391300 0.505700
7.411400 0.506200
7.431500 0.507100
7.451700 0.508200
7.471800 0.509600
7.491900 0.511000
7.512000 0.510600
7.532100 0.510100
7.552200 0.508600
7.572400 0.507200
7.592500 0.505900
7.612600 0.503900
7.632700 0.501400
7.652800 0.499300
7.673000 0.497800
7.693100 0.496800
7.713200 0.504700
7.733300 0.516100
7.753400 0.496100
7.773600 0.497000
7.793700 0.498100
7.813800 0.499500
7.833900 0.501000
7.854000 0.502700
7.874200 0.504600
7.894300 0.505000
7.914400 0.494100
7.934500 0.494100
7.954600 0.494100
7.974800 0.494200
7.994900 0.609200
8.015000 0.523100
8.035100 0.525400
8.055200 0.527900
8.075400 0.530100
8.095500 0.531900
8.115600 0.534200
8.135700 0.536800
8.155800 0.539700
8.176000 0.542800
8.196100 0.546100
8.216200 0.549500
8.236300 0.556300
8.256400 0.559900
8.276500 0.576600
8.296700 0.583300
8.316800 0.562500
8.336900 0.563300
8.357000 0.564400
8.377100 0.565100
8.397300 0.565900
8.417400 0.567000
8.437500 0.567500
8.457600 0.567900
8.477700 0.568500
8.497900 0.569300
8.518000 0.570200
8.538100 0.581300
8.558200 0.590300
8.578300 0.587500
8.598500 0.580300
8.618600 0.586600
8.638700 0.597100
8.658800 0.607200
8.678900 0.602800
8.699100 0.599700
8.719200 0.597700
8.739300 0.596800
8.759400 0.597300
8.779500 0.605200
8.799700 0.613200
8.819800 0.618000
8.839900 0.619500
8.860000 0.617100
8.880100 0.618100
8.900300 0.622400
8.920400 0.627100
8.940500 0.632400
8.960600 0.638200
8.980700 0.644400
9.000800 0.651100
9.021000 0.647300
9.041100 0.645100
9.061200 0.640900
9.081300 0.638000
9.101400 0.637700
9.121600 0.638800
9.141700 0.640500
9.161800 0.642300
9.181900 0.644400
9.202000 0.646600
9.222200 0.648900
9.242300 0.651300
9.262400 0.653800
9.282500 0.662900
9.302600 0.678700
9.322800 0.681900
9.342900 0.674600
9.363000 0.693300
9.383100 0.720600
9.403200 0.721000
9.423400 0.718800
9.443500 0.714900
9.463600 0.715800
9.483700 0.722300
9.503800 0.730900
9.524000 0.741600
9.544100 0.754000
9.564200 0.750400
9.584300 0.752100
9.604400 0.760900
9.624600 0.770600
9.644700 0.781200
9.664800 0.793100
9.684900 0.807300
9.705000 0.794500
9.725100 0.794600
9.745300 0.795900
9.765400 0.798600
9.785500 0.800200
9.805600 0.787500
9.825700 0.780600
9.845900 0.779400
9.866000 0.783900
9.886100 0.781200
9.906200 0.777900
9.926300 0.774800
9.946500 0.771900
9.966600 0.769300
9.986700 0.766200
10.006800 0.763900
10.026900 0.762000
10.047100 0.760400
10.067200 0.771100
10.087300 0.768200
10.107400 0.764300
10.127500 0.760900
10.147700 0.757800
10.167800 0.755000
10.187900 0.752700
10.208000 0.750700
10.228100 0.747900
10.248300 0.742700
10.268400 0.740600
10.288500 0.738600
10.308600 0.736900
10.328700 0.735200
10.348900 0.733200
10.369000 0.731300
10.389100 0.729500
10.409200 0.727300
10.429300 0.725700
10.449400 0.724300
10.469600 0.722700
10.489700 0.721500
10.509800 0.719900
10.529900 0.717900
10.550000 0.716200
10.570200 0.714600
10.590300 0.712900
10.610400 0.711300
10.630500 0.709500
10.650600 0.707700
10.670800 0.705900
10.690900 0.703900
10.711000 0.701700
10.731100 0.699500
10.751200 0.697200
10.771400 0.694900
10.791500 0.692700
10.811600 0.690700
10.831700 0.688700
10.851800 0.686500
10.872000 0.684600
10.892100 0.684000
10.912200 0.682400
10.932300 0.680500
10.952400 0.678600
10.972600 0.676800
10.992700 0.675000
11.012800 0.673200
11.032900 0.671500
11.053000 0.669700
11.073200 0.667800
11.093300 0.666100
11.113400 0.664400
11.133500 0.662800
11.153600 0.661500
11.173700 0.660200
11.193900 0.659000
11.214000 0.658000
11.234100 0.657100
11.254200 0.656400
11.274300 0.655800
11.294500 0.654600
11.314600 0.653300
11.334700 0.651000
11.354800 0.648700
11.374900 0.646300
11.395100 0.643900
11.415200 0.641700
11.435300 0.639200
11.455400 0.636800
11.475500 0.632800
11.495700 0.630400
11.515800 0.628200
11.535900 0.626000
11.556000 0.623900
11.576100 0.622400
11.596300 0.621000
11.616400 0.619700
11.636500 0.618300
11.656600 0.616900
11.676700 0.615500
11.696900 0.613900
11.717000 0.612300
11.737100 0.610500
11.757200 0.608700
11.777300 0.606900
11.797400 0.604900
11.817600 0.602900
11.837700 0.600900
11.857800 0.598700
11.877900 0.596400
11.898000 0.594100
11.918200 0.593500
11.938300 0.593600
11.958400 0.590700
11.978500 0.587800
11.998600 0.584800
12.018800 0.582000
12.038900 0.580000
12.059000 0.578500
12.079100 0.577200
12.099200 0.576200
12.119400 0.575300
12.139500 0.574500
12.159600 0.573900
12.179700 0.573400
12.199800 0.572000
12.220000 0.570500
12.240100 0.569000
12.260200 0.567600
12.280300 0.566200
12.300400 0.565000
12.320600 0.563800
12.340700 0.562700
12.360800 0.561600
12.380900 0.560600
12.401000 0.559500
12.421200 0.557700
12.441300 0.555700
12.461400 0.553700
12.481500 0.551600
12.501600 0.549300
12.521700 0.547000
12.541900 0.544400
12.562000 0.541200
12.582100 0.537900
12.602200 0.534600
12.622300 0.531300
12.642500 0.528100
12.662600 0.524900
12.682700 0.521900
12.702800 0.519000
12.722900 0.516200
12.743100 0.513700
12.763200 0.511300
12.783300 0.509200
12.803400 0.510100
12.823500 0.510000
12.843700 0.508700
12.863800 0.508400
12.883900 0.510700
12.904000 0.513900
12.924100 0.517700
12.944300 0.521900
12.964400 0.526500
12.984500 0.529700
13.004600 0.532800
13.024700 0.535700
13.044900 0.538200
13.065000 0.540400
13.085100 0.542400
13.105200 0.543800
13.125300 0.544100
13.145500 0.544300
13.165600 0.544700
13.185700 0.544800
13.205800 0.545600
13.225900 0.546800
13.246000 0.548600
13.266200 0.550700
13.286300 0.553300
13.306400 0.556200
13.326500 0.555800
13.346600 0.552700
13.366800 0.548100
13.386900 0.541700
13.407000 0.534100
13.427100 0.524600
13.447200 0.517600
13.467400 0.514100
13.487500 0.509400
13.507600 0.503600
13.527700 0.497700
13.547800 0.499200
13.568000 0.500300
13.588100 0.501300
13.608200 0.502700
13.628300 0.504200
13.648400 0.505900
13.668600 0.507900
13.688700 0.510200
13.708800 0.512200
13.728900 0.514400
13.749000 0.518000
13.769200 0.519700
13.789300 0.522800
13.809400 0.526200
13.829500 0.529900
13.849600 0.533800
13.869800 0.537600
13.889900 0.541500
13.910000 0.545500
13.930100 0.549400
13.950200 0.553200
13.970300 0.556800
13.990500 0.560500
14.010600 0.564200
14.030700 0.568100
14.050800 0.571600
14.070900 0.575300
14.091100 0.578700
14.111200 0.581900
14.131300 0.585000
14.151400 0.588000
14.171500 0.590900
14.191700 0.593700
14.211800 0.596400
14.231900 0.600400
14.252000 0.604800
14.272100 0.609800
14.292300 0.616400
14.312400 0.623200
14.332500 0.631200
14.352600 0.639900
14.372700 0.649200
14.392900 0.659000
14.413000 0.669400
14.433100 0.680000
14.453200 0.689100
14.473300 0.695900
14.493500 0.701800
14.513600 0.707000
14.533700 0.711400
14.553800 0.715200
14.573900 0.719000
14.594100 0.723700
14.614200 0.728900
14.634300 0.735600
14.654400 0.741200
14.674500 0.745700
14.694600 0.750400
14.714800 0.755300
14.734900 0.760200
14.755000 0.765300
14.775100 0.770600
14.795200 0.775100
14.815400 0.779000
14.835500 0.783200
14.855600 0.788000
14.875700 0.793300
14.895800 0.799000
14.916000 0.805100
14.936100 0.811300
14.956200 0.817800
14.976300 0.824400
14.996400 0.832900
15.016600 0.845300
15.036700 0.856200
15.056800 0.867600
15.076900 0.878000
15.097000 0.885800
15.117200 0.892500
15.137300 0.898900
15.157400 0.905100
15.177500 0.911100
15.197600 0.916900
15.217800 0.921600
15.237900 0.925300
15.258000 0.928200
15.278100 0.922800
15.298200 0.914500
15.318400 0.914300
15.338500 0.920800
15.358600 0.929900
15.378700 0.941100
15.398800 0.959400
15.418900 0.985000
15.439100 1.007600
15.459200 1.041100
15.479300 1.053400
15.499400 1.061900
15.519500 1.067700
15.539700 1.071400
15.559800 1.073100
15.579900 1.072700
15.600000 1.072200
15.620100 1.065700
15.640300 1.054100
15.660400 1.050500
15.680500 1.054600
15.700600 1.062300
15.720700 1.071500
15.740900 1.082100
15.761000 1.075800
15.781100 1.076600
15.801200 1.089300
15.821300 1.107800
15.841500 1.105000
15.861600 1.091200
15.881700 1.073300
15.901800 1.050100
15.921900 1.021500
15.942100 1.001500
15.962200 0.988500
15.982300 0.977000
16.002400 0.973600
16.022500 0.967500
16.042700 0.955100
16.062800 0.956500
16.082900 0.952300
16.103000 0.935900
16.123100 0.915200
16.143200 0.903500
16.163400 0.901600
16.183500 0.902400
16.203600 0.898600
16.223700 0.896200
16.243800 0.895300
16.264000 0.895300
16.284100 0.896100
16.304200 0.898100
16.324300 0.901100
16.344400 0.905700
16.364600 0.912800
16.384700 0.955300
16.404800 1.015100
16.424900 1.061800
16.445000 1.084000
16.465200 1.072200
16.485300 1.015500
16.505400 0.982900
16.525500 0.977300
16.545600 0.964800
16.565800 0.863200
16.585900 0.814000
16.606000 0.794800
16.626100 0.757400
16.646200 0.710800
16.666400 0.667900
16.686500 0.627300
16.706600 0.598300
16.726700 0.582800
16.746800 0.569900
16.767000 0.555900
16.787100 0.540800
16.807200 0.524600
16.827300 0.507300
16.847400 0.488900
16.867500 0.472900
16.887700 0.460800
16.907800 0.450000
16.927900 0.440300
16.948000 0.431400
16.968100 0.423500
16.988300 0.416400
17.008400 0.410300
17.028500 0.405900
17.048600 0.399500
17.068700 0.391700
17.088900 0.383800
17.109000 0.376000
17.129100 0.368200
17.149200 0.360300
17.169300 0.352500
17.189500 0.344900
17.209600 0.336700
17.229700 0.329500
17.249800 0.323300
17.269900 0.318100
17.290100 0.314000
17.310200 0.311000
17.330300 0.309000
17.350400 0.308000
17.370500 0.307900
17.390700 0.308100
17.410800 0.309500
17.430900 0.311600
17.451000 0.314300
17.471100 0.317600
17.491300 0.321700
17.511400 0.327000
17.531500 0.333100
17.551600 0.340000
17.571700 0.347600
17.591800 0.356700
17.612000 0.367500
17.632100 0.379800
17.652200 0.393200
17.672300 0.407700
17.692400 0.423800
17.712600 0.440200
17.732700 0.460200
17.752800 0.481100
17.772900 0.504500
17.793000 0.525800
17.813200 0.544400
17.833300 0.559200
17.853400 0.571700
17.873500 0.583000
17.893600 0.593300
17.913800 0.603100
17.933900 0.616100
17.954000 0.623400
17.974100 0.647800
17.994200 0.668500
18.014400 0.685800
18.034500 0.700300
18.054600 0.712100
18.074700 0.714200
18.094800 0.724100
18.115000 0.742200
18.135100 0.770700
18.155200 0.810800
18.175300 0.848700
18.195400 0.880900
18.215600 0.885000
18.235700 0.866600
18.255800 0.840900
18.275900 0.808900
18.296000 0.804900
18.316100 0.803400
18.336300 0.801800
18.356400 0.805700
18.376500 0.814000
18.396600 0.834100
18.416700 0.900600
18.436900 0.864200
18.457000 0.846300
18.477100 0.828500
18.497200 0.821300
18.517300 0.816000
18.537500 0.812400
18.557600 0.813600
18.577700 0.816400
18.597800 0.808400
18.617900 0.799100
18.638100 0.792600
18.658200 0.789500
18.678300 0.792000
18.698400 0.802600
18.718500 0.823000
18.738700 0.864600
18.758800 0.927200
18.778900 0.877800
18.799000 0.853500
18.819100 0.832100
18.839300 0.815600
18.859400 0.802900
18.879500 0.792700
18.899600 0.784700
18.919700 0.779600
18.939800 0.778000
18.960000 0.779200
18.980100 0.784800
19.000200 0.791900
19.020300 0.798600
19.040400 0.805800
19.060600 0.811500
19.080700 0.822100
19.100800 0.842200
19.120900 0.877300
19.141000 0.908500
19.161200 0.923000
19.181300 0.922400
19.201400 0.905700
19.221500 0.874200
19.241600 0.857400
19.261800 0.840800
19.281900 0.822000
19.302000 0.813900
19.322100 0.810800
19.342200 0.809100
19.362400 0.808300
19.382500 0.806700
19.402600 0.844200
19.422700 0.909500
19.442800 0.942100
19.463000 0.969700
19.483100 1.027800
19.503200 1.023700
19.523300 0.996500
19.543400 1.000400
19.563600 0.993700
19.583700 0.981400
19.603800 0.971300
19.623900 0.962400
19.644000 0.938700
19.664100 0.914400
19.684300 0.895800
19.704400 0.882700
19.724500 0.875400
19.744600 0.872700
19.764700 0.872900
19.784900 0.876000
19.805000 0.882200
19.825100 0.891300
19.845200 0.962800
19.865300 0.979200
19.885500 0.975500
19.905600 0.981200
19.925700 0.991000
19.945800 1.014000
19.965900 1.048700
19.986100 1.060700
20.006200 1.035200
20.026300 1.014000
20.046400 1.011900
20.066500 1.013500
20.086700 1.015700
20.106800 1.026200
20.126900 1.047500
20.147000 1.080200
20.167100 1.105700
20.187300 1.127800
20.207400 1.136600
20.227500 1.149100
20.247600 1.165100
20.267700 1.131100
20.287900 1.099800
20.308000 1.078300
20.328100 1.066600
20.348200 1.064600
20.368300 1.083300
20.388400 1.113900
20.408600 1.144800
20.428700 1.179700
20.448800 1.209500
20.468900 1.243600
20.489000 1.267200
20.509200 1.281500
20.529300 1.285200
20.549400 1.277400
20.569500 1.268600
20.589600 1.263700
20.609800 1.277100
20.629900 1.285000
20.650000 1.288700
20.670100 1.286500
20.690200 1.281100
20.710400 1.276100
20.730500 1.270800
20.750600 1.265100
20.770700 1.263100
20.790800 1.267100
20.811000 1.279100
20.831100 1.297000
20.851200 1.324400
20.871300 1.309500
20.891400 1.296200
20.911600 1.291300
20.931700 1.289800
20.951800 1.288100
20.971900 1.283500
20.992000 1.277700
21.012200 1.270500
21.032300 1.261600
21.052400 1.249200
21.072500 1.233200
21.092600 1.213500
21.112700 1.189100
21.132900 1.188900
21.153000 1.215000
21.173100 1.237200
21.193200 1.254200
21.213300 1.264900
21.233500 1.269100
21.253600 1.270800
21.273700 1.274700
21.293800 1.278300
21.313900 1.281800
21.334100 1.285200
21.354200 1.288400
21.374300 1.290700
21.394400 1.291700
21.414500 1.288600
21.434700 1.283300
21.454800 1.291800
21.474900 1.289500
21.495000 1.288000
21.515100 1.287200
21.535300 1.289600
21.555400 1.293000
21.575500 1.297700
21.595600 1.302200
21.615700 1.306200
21.635900 1.309800
21.656000 1.314900
21.676100 1.322500
21.696200 1.327400
21.716300 1.327900
21.736500 1.323000
21.756600 1.313400
21.776700 1.306500
21.796800 1.304400
21.816900 1.276400
21.837000 1.246100
21.857200 1.210800
21.877300 1.190300
21.897400 1.181200
21.917500 1.177500
21.937600 1.176300
21.957800 1.176800
21.977900 1.179100
21.998000 1.183000
22.018100 1.188500
22.038200 1.201700
22.058400 1.217800
22.078500 1.233500
22.098600 1.248300
22.118700 1.262500
22.138800 1.276700
22.159000 1.288200
22.179100 1.299300
22.199200 1.311000
22.219300 1.323400
22.239400 1.337600
22.259600 1.351400
22.279700 1.358800
22.299800 1.347200
22.319900 1.343300
22.340000 1.337500
22.360200 1.329300
22.380300 1.318000
22.400400 1.307000
22.420500 1.297600
22.440600 1.289600
22.460800 1.282300
22.480900 1.272000
22.501000 1.263400
22.521100 1.256400
22.541200 1.245000
22.561300 1.242900
22.581500 1.248400
22.601600 1.252200
22.621700 1.253800
22.641800 1.253100
22.661900 1.250200
22.682100 1.240800
22.702200 1.230500
22.722300 1.219500
22.742400 1.211500
22.762500 1.203400
22.782700 1.195000
22.802800 1.187400
22.822900 1.182500
22.843000 1.178500
22.863100 1.176000
22.883300 1.174800
22.903400 1.174500
22.923500 1.175200
22.943600 1.176600
22.963700 1.187200
22.983900 1.196500
23.004000 1.201000
23.024100 1.201000
23.044200 1.196200
23.064300 1.189500
23.084500 1.187500
23.104600 1.189100
23.124700 1.191000
23.144800 1.193400
23.164900 1.196200
23.185100 1.199600
23.205200 1.203700
23.225300 1.207900
23.245400 1.212900
23.265500 1.218900
23.285600 1.226000
23.305800 1.233800
23.325900 1.246000
23.346000 1.272300
23.366100 1.306900
23.386200 1.312700
23.406400 1.290900
23.426500 1.268000
23.446600 1.245600
23.466700 1.224900
23.486800 1.207900
23.507000 1.195300
23.527100 1.184700
23.547200 1.174500
23.567300 1.164800
23.587400 1.155300
23.607600 1.144100
23.627700 1.124400
23.647800 1.105200
23.667900 1.086900
23.688000 1.077400
23.708200 1.073500
23.728300 1.072700
23.748400 1.075100
23.768500 1.077200
23.788600 1.075500
23.808800 1.069300
23.828900 1.065700
23.849000 1.066600
23.869100 1.067100
23.889200 1.066900
23.909400 1.067100
23.929500 1.068600
23.949600 1.074700
23.969700 1.094400
23.989800 1.114900
24.009900 1.131100
24.030100 1.143400
24.050200 1.151900
24.070300 1.156500
24.090400 1.159600
24.110500 1.164900
24.130700 1.170100
24.150800 1.174700
24.170900 1.180200
24.191000 1.185900
24.211100 1.190900
24.231300 1.195200
24.251400 1.199500
24.271500 1.203000
24.291600 1.204000
24.311700 1.202200
24.331900 1.200000
24.352000 1.197900
24.372100 1.196000
24.392200 1.193300
24.412300 1.189000
24.432500 1.182400
24.452600 1.206100
24.472700 1.197400
24.492800 1.188400
24.512900 1.179100
24.533100 1.169700
24.553200 1.160900
24.573300 1.155200
24.593400 1.150500
24.613500 1.146900
24.633700 1.144300
24.653800 1.142600
24.673900 1.141900
24.694000 1.142000
24.714100 1.242300
24.734200 1.141700
24.754400 1.137400
24.774500 1.136400
24.794600 1.133700
24.814700 1.130100
24.834800 1.130900
24.855000 1.131000
24.875100 1.131600
24.895200 1.134400
24.915300 1.136300
24.935400 1.138400
24.955600 1.142100
24.975700 1.145500
24.995800 1.147900
25.015900 1.149500
25.036000 1.150600
25.056200 1.149600
25.076300 1.147900
25.096400 1.306700
25.116500 1.251000
25.136600 1.175700
25.156800 1.147300
25.176900 1.120300
25.197000 1.095500
25.217100 1.073100
25.237200 1.053000
25.257400 1.038700
25.277500 1.028000
25.297600 1.019200
25.317700 1.010300
25.337800 1.001400
25.358000 0.993100
25.378100 0.985800
25.398200 0.981200
25.418300 0.980400
25.438400 0.979900
25.458500 0.984100
25.478700 0.991300
25.498800 1.000800
25.518900 1.008700
25.539000 1.013800
25.559100 1.016500
25.579300 1.017100
25.599400 1.018100
25.619500 1.019400
25.639600 1.021000
25.659700 1.025900
25.679900 1.037700
25.700000 1.045100
25.720100 1.048100
25.740200 1.046400
25.760300 1.040900
25.780500 1.036200
25.800600 1.033600
25.820700 1.034600
25.840800 1.037100
25.860900 1.040800
25.881100 1.045700
25.901200 1.052100
25.921300 1.063400
25.941400 1.081300
25.961500 1.110400
25.981700 1.122500
26.001800 1.131500
26.021900 1.139000
26.042000 1.145900
26.062100 1.152400
26.082200 1.158400
26.102400 1.164300
26.122500 1.170800
26.142600 1.181400
26.162700 1.196100
26.182800 1.213000
26.203000 1.235400
26.223100 1.262600
26.243200 1.291900
26.263300 1.333100
26.283400 1.380600
26.303600 1.429000
26.323700 1.477500
26.343800 1.521900
26.363900 1.557800
26.384000 1.585100
26.404200 1.596700
26.424300 1.611000
26.444400 1.593700
26.464500 1.585700
26.484600 1.579800
26.504800 1.568700
26.524900 1.532400
26.545000 1.504900
26.565100 1.477500
26.585200 1.457500
26.605400 1.448400
26.625500 1.440200
26.645600 1.433600
26.665700 1.421500
26.685800 1.390200
26.706000 1.367800
26.726100 1.360400
26.746200 1.348300
26.766300 1.334300
26.786400 1.318900
26.806500 1.302100
26.826700 1.284500
26.846800 1.264400
26.866900 1.251600
26.887000 1.250500
26.907100 1.261900
26.927300 1.206000
26.947400 1.151400
26.967500 1.100100
26.987600 1.053600
27.007700 1.018600
27.027900 0.987900
27.048000 0.961400
27.068100 0.936900
27.088200 0.914000
27.108300 0.893400
27.128500 0.874300
27.148600 0.856900
27.168700 0.840600
27.188800 0.824800
27.208900 0.809500
27.229100 0.795200
27.249200 0.781600
27.269300 0.768800
27.289400 0.756200
27.309500 0.793400
27.329700 0.787600
27.349800 0.761700
27.369900 0.743200
27.390000 0.740700
27.410100 0.733500
27.430300 0.726400
27.450400 0.719500
27.470500 0.713600
27.490600 0.709100
27.510700 0.705700
27.530800 0.704300
27.551000 0.704800
27.571100 0.706300
27.591200 0.757800
27.611300 0.744100
27.631400 0.760100
27.651600 0.778300
27.671700 0.797400
27.691800 0.811000
27.711900 0.819100
27.732000 0.830800
27.752200 0.870300
27.772300 0.671400
27.792400 0.629400
27.812500 0.630100
27.832600 0.632400
27.852800 0.635900
27.872900 0.667300
27.893000 0.700800
27.913100 0.619400
27.933200 0.601300
27.953400 0.596600
27.973500 0.587500
27.993600 0.573600
28.013700 0.553400
28.033800 0.527800
28.054000 0.495900
28.074100 0.462200
28.094200 0.430500
28.114300 0.409000
28.134400 0.394100
28.154600 0.397300
28.174700 0.379600
28.194800 0.360900
28.214900 0.342800
28.235000 0.327400
28.255100 0.314000
28.275300 0.302500
28.295400 0.293000
28.315500 0.284300
28.335600 0.276100
28.355700 0.268500
28.375900 0.261400
28.396000 0.254800
28.416100 0.248700
28.436200 0.243100
28.456300 0.238000
28.476500 0.233700
28.496600 0.214300
28.516700 0.217300
28.536800 0.220200
28.556900 0.218000
28.577100 0.215300
28.597200 0.212400
28.617300 0.209100
28.637400 0.205600
28.657500 0.202400
28.677700 0.199700
28.697800 0.198800
28.717900 0.197800
28.738000 0.193600
28.758100 0.189500
28.778300 0.185400
28.798400 0.181300
28.818500 0.177300
28.838600 0.173300
28.858700 0.169400
28.878900 0.165400
28.899000 0.161500
28.919100 0.157700
28.939200 0.153800
28.959300 0.150000
28.979400 0.146200
28.999600 0.142400
29.019700 0.138700
29.039800 0.135000
29.059900 0.131900
29.080000 0.130700
29.100200 0.131700
29.120300 0.135000
29.140400 0.132300
29.160500 0.128000
29.180600 0.124600
29.200800 0.120900
29.220900 0.116900
29.241000 0.112600
29.261100 0.108000
29.281200 0.103100
29.301400 0.097900
29.321500 0.092400
29.341600 0.087800
29.361700 0.085300
29.381800 0.082900
29.402000 0.080400
29.422100 0.078000
29.442200 0.075500
29.462300 0.073000
29.482400 0.070500
29.502600 0.068000
29.522700 0.065600
29.542800 0.063200
29.562900 0.060800
29.583000 0.058400
29.603200 0.043200
29.623300 0.042600
29.643400 0.043200
29.663500 0.044900
29.683600 0.046900
29.703700 0.044700
29.723900 0.042600
29.744000 0.040600
29.764100 0.038700
29.784200 0.037000
29.804300 0.035300
29.824500 0.035900
29.844600 0.036800
29.864700 0.037000
29.884800 0.036700
29.904900 0.035700
29.925100 0.034100
29.945200 0.032000
29.965300 0.029200
29.985400 0.025900
30.005500 0.022600
30.025700 0.021400
30.045800 0.020200
30.065900 0.019100
30.086000 0.018000
30.106100 0.016900
30.126300 0.015900
30.146400 0.015000
30.166500 0.014000
30.186600 0.013100
30.206700 0.012300
30.226900 0.011400
30.247000 0.010900
30.267100 0.011100
30.287200 0.011100
30.307300 0.011000
30.327500 0.010600
30.347600 0.010000
30.367700 0.009200
30.387800 0.008300
30.407900 0.007100
30.428000 0.005700
30.448200 0.004000
30.468300 0.002200
30.488400 0.000200
30.508500 0.000000
30.528600 0.000000
30.548800 0.000000
30.568900 0.000000
30.589000 0.000000
30.609100 0.000000
30.629200 0.000000
30.649400 0.000000
30.669500 0.000000
30.689600 0.000000
30.709700 0.000000
30.729800 0.000000
30.750000 0.000000
30.770100 0.000000
30.790200 0.000000
30.810300 0.000000
30.830400 0.000000
30.850600 0.000000
30.870700 0.000000
30.890800 0.000000
30.910900 0.000000
30.931000 0.000000
30.951200 0.000000
30.971300 0.000000
30.991400 0.000000
31.011500 0.000000
31.031600 0.000000
31.051800 0.000000
31.071900 0.000000
31.092000 0.000000
31.112100 0.000000
31.132200 0.000000
31.152300 0.000000
31.172500 0.000000
31.192600 0.000000
31.212700 0.000000
31.232800 0.000000
31.252900 0.000000
31.273100 0.000000
31.293200 0.000000
31.313300 0.000000
31.333400 0.000000
31.353500 0.000000
31.373700 0.000000
31.393800 0.000000
31.413900 0.000000
31.434000 0.000000
31.454100 0.000000
31.474300 0.000000
31.494400 0.000000
31.514500 0.000000
31.534600 0.000000
31.554700 0.000000
31.574900 0.000000
31.595000 0.000000
31.615100 0.000000
31.635200 0.000000
31.655300 0.000000
31.675500 0.000000
31.695600 0.000000
31.715700 0.000000
31.735800 0.000000
31.755900 0.000000
31.776100 0.000000
31.796200 0.000000
31.816300 0.000000
31.836400 0.000000
31.856500 0.000000
31.876600 0.000000
31.896800 0.000000
31.916900 0.000000
31.937000 0.000000
31.957100 0.000000
31.977200 0.000000
31.997400 0.000000
32.017500 0.000000
32.037600 0.000000
32.057700 0.000000
32.077800 0.000000
32.098000 0.000000
32.118100 0.000000
32.138200 0.000000
32.158300 0.000000
32.178400 0.000000
32.198600 0.000000
32.218700 0.000000
32.238800 0.000000
32.258900 0.000000
32.279000 0.000000
32.299200 0.000000
32.319300 0.000000
e
