set title 'mp-1184258 - Density of States'
set xlabel 'Energy (eV)'
set ylabel 'DOS (states/eV)'
set grid
set xrange [-10:10]
set yrange [0:3.261]
set xzeroaxis lt -1
set terminal png size 800,600
set output 'mp-1184258_dos_gnuplot.png'
plot '-' using 1:2 with lines title 'DOS'
-12.207000 0.000000
-12.186700 0.000000
-12.166400 0.000000
-12.146100 0.000000
-12.125800 0.000000
-12.105500 0.000000
-12.085200 0.000000
-12.064900 0.000000
-12.044600 0.000000
-12.024400 0.000000
-12.004100 0.000000
-11.983800 0.000000
-11.963500 0.000000
-11.943200 0.000000
-11.922900 0.000000
-11.902600 0.000000
-11.882300 0.000000
-11.862000 0.000000
-11.841800 0.000000
-11.821500 0.000000
-11.801200 0.000000
-11.780900 0.000000
-11.760600 0.000000
-11.740300 0.000000
-11.720000 0.000000
-11.699700 0.000000
-11.679500 0.000000
-11.659200 0.000000
-11.638900 0.000000
-11.618600 0.000000
-11.598300 0.000000
-11.578000 0.000000
-11.557700 0.000000
-11.537400 0.000000
-11.517100 0.000000
-11.496900 0.000000
-11.476600 0.000000
-11.456300 0.000000
-11.436000 0.000000
-11.415700 0.000000
-11.395400 0.000000
-11.375100 0.000000
-11.354800 0.000000
-11.334500 0.000000
-11.314300 0.000000
-11.294000 0.000000
-11.273700 0.000000
-11.253400 0.000000
-11.233100 0.000000
-11.212800 0.000000
-11.192500 0.000000
-11.172200 0.000000
-11.152000 0.000000
-11.131700 0.000000
-11.111400 0.000000
-11.091100 0.000000
-11.070800 0.000000
-11.050500 0.000000
-11.030200 0.000000
-11.009900 0.000000
-10.989600 0.000000
-10.969400 0.000000
-10.949100 0.000000
-10.928800 0.000000
-10.908500 0.000000
-10.888200 0.000000
-10.867900 0.000000
-10.847600 0.000000
-10.827300 0.000000
-10.807000 0.000000
-10.786800 0.000000
-10.766500 0.000000
-10.746200 0.000000
-10.725900 0.000000
-10.705600 0.000000
-10.685300 0.000000
-10.665000 0.000000
-10.644700 0.000000
-10.624400 0.000000
-10.604200 0.000000
-10.583900 0.000000
-10.563600 0.000000
-10.543300 0.000000
-10.523000 0.000000
-10.502700 0.000000
-10.482400 0.000000
-10.462100 0.000000
-10.441900 0.000000
-10.421600 0.000000
-10.401300 0.000000
-10.381000 0.000000
-10.360700 1.454800
-10.340400 14.099500
-10.320100 29.599200
-10.299800 131.749100
-10.279500 124.131100
-10.259300 129.456700
-10.239000 121.177300
-10.218700 165.406000
-10.198400 125.817600
-10.178100 127.106200
-10.157800 176.766600
-10.137500 147.268800
-10.117200 128.767900
-10.096900 14.598500
-10.076700 0.000000
-10.056400 0.000000
-10.036100 0.000000
-10.015800 0.000000
-9.995500 0.000000
-9.975200 0.000000
-9.954900 0.000000
-9.934600 0.000000
-9.914400 0.000000
-9.894100 0.000000
-9.873800 0.000000
-9.853500 0.000000
-9.833200 0.000000
-9.812900 0.000000
-9.792600 0.000000
-9.772300 0.000000
-9.752000 0.000000
-9.731800 0.000000
-9.711500 0.000000
-9.691200 0.000000
-9.670900 0.000000
-9.650600 0.000000
-9.630300 0.000000
-9.610000 0.000000
-9.589700 0.000000
-9.569400 0.000000
-9.549200 0.000000
-9.528900 0.000000
-9.508600 0.000000
-9.488300 0.000000
-9.468000 0.000000
-9.447700 0.000000
-9.427400 0.000000
-9.407100 0.000000
-9.386800 0.000000
-9.366600 0.000000
-9.346300 0.000000
-9.326000 0.000000
-9.305700 0.000000
-9.285400 0.000000
-9.265100 0.000000
-9.244800 0.000000
-9.224500 0.000000
-9.204300 0.000000
-9.184000 0.000000
-9.163700 0.000000
-9.143400 0.000000
-9.123100 0.000000
-9.102800 0.000000
-9.082500 0.000000
-9.062200 0.000000
-9.041900 0.000000
-9.021700 0.000000
-9.001400 0.000000
-8.981100 0.000000
-8.960800 0.000000
-8.940500 0.000000
-8.920200 0.000000
-8.899900 0.000000
-8.879600 0.000000
-8.859300 0.000000
-8.839100 0.000000
-8.818800 0.000000
-8.798500 0.000000
-8.778200 0.000000
-8.757900 0.000000
-8.737600 0.000000
-8.717300 0.000000
-8.697000 0.000000
-8.676800 0.000000
-8.656500 0.000000
-8.636200 0.000000
-8.615900 0.000000
-8.595600 0.000000
-8.575300 0.000000
-8.555000 0.000000
-8.534700 0.000000
-8.514400 0.000000
-8.494200 0.000000
-8.473900 0.000000
-8.453600 0.000000
-8.433300 0.000000
-8.413000 0.000000
-8.392700 0.000000
-8.372400 0.000000
-8.352100 0.000000
-8.331800 0.000000
-8.311600 0.000000
-8.291300 0.000000
-8.271000 0.000000
-8.250700 0.000000
-8.230400 0.000000
-8.210100 0.000000
-8.189800 0.000000
-8.169500 0.000000
-8.149200 0.000000
-8.129000 0.000000
-8.108700 0.000000
-8.088400 0.000000
-8.068100 0.000000
-8.047800 0.000000
-8.027500 0.000000
-8.007200 0.000000
-7.986900 0.000000
-7.966700 0.000000
-7.946400 0.000000
-7.926100 0.000000
-7.905800 0.000000
-7.885500 0.000000
-7.865200 0.000000
-7.844900 0.000000
-7.824600 0.000000
-7.804300 0.000000
-7.784100 0.000000
-7.763800 0.000000
-7.743500 0.000000
-7.723200 0.000000
-7.702900 0.000000
-7.682600 0.000000
-7.662300 0.000000
-7.642000 0.000000
-7.621700 0.000000
-7.601500 0.000000
-7.581200 0.000000
-7.560900 0.000000
-7.540600 0.000000
-7.520300 0.000000
-7.500000 0.000000
-7.479700 0.000000
-7.459400 0.000000
-7.439100 0.000000
-7.418900 0.000000
-7.398600 0.000000
-7.378300 0.000000
-7.358000 0.000000
-7.337700 0.000000
-7.317400 0.000000
-7.297100 0.000000
-7.276800 0.000000
-7.256600 0.000000
-7.236300 0.000000
-7.216000 0.000000
-7.195700 0.000000
-7.175400 0.000000
-7.155100 0.000000
-7.134800 0.000000
-7.114500 0.000000
-7.094200 0.000000
-7.074000 0.000000
-7.053700 0.000000
-7.033400 0.000000
-7.013100 0.000000
-6.992800 0.000000
-6.972500 0.000000
-6.952200 0.000000
-6.931900 0.000000
-6.911600 0.000000
-6.891400 0.000000
-6.871100 0.000000
-6.850800 0.000000
-6.830500 0.012300
-6.810200 0.055700
-6.789900 0.121900
-6.769600 0.182300
-6.749300 0.198900
-6.729100 0.216500
-6.708800 0.236100
-6.688500 0.259100
-6.668200 0.269500
-6.647900 0.292200
-6.627600 0.316100
-6.607300 0.340700
-6.587000 0.363100
-6.566700 0.377900
-6.546500 0.386600
-6.526200 0.399200
-6.505900 0.412000
-6.485600 0.424300
-6.465300 0.437200
-6.445000 0.449900
-6.424700 0.462900
-6.404400 0.477700
-6.384100 0.492800
-6.363900 0.508100
-6.343600 0.524000
-6.323300 0.540800
-6.303000 0.558200
-6.282700 0.572700
-6.262400 0.584500
-6.242100 0.595500
-6.221800 0.607200
-6.201500 0.619400
-6.181300 0.633300
-6.161000 0.647400
-6.140700 0.661800
-6.120400 0.676400
-6.100100 0.691200
-6.079800 0.706300
-6.059500 0.721700
-6.039200 0.739800
-6.019000 0.759700
-5.998700 0.780800
-5.978400 0.808800
-5.958100 0.840300
-5.937800 0.880000
-5.917500 0.914900
-5.897200 0.937700
-5.876900 0.947800
-5.856600 0.960500
-5.836400 0.947200
-5.816100 0.957900
-5.795800 0.969800
-5.775500 0.982900
-5.755200 0.995200
-5.734900 1.003000
-5.714600 1.005600
-5.694300 1.009800
-5.674000 1.016000
-5.653800 1.024200
-5.633500 1.035300
-5.613200 1.047900
-5.592900 1.061100
-5.572600 1.075000
-5.552300 1.089300
-5.532000 1.104000
-5.511700 1.118900
-5.491500 1.133700
-5.471200 1.150600
-5.450900 1.175400
-5.430600 1.205900
-5.410300 1.243700
-5.390000 1.290200
-5.369700 1.345600
-5.349400 1.407300
-5.329100 1.554700
-5.308900 1.632600
-5.288600 1.686600
-5.268300 1.718300
-5.248000 1.715100
-5.227700 1.716800
-5.207400 1.756900
-5.187100 1.708800
-5.166800 1.539600
-5.146500 1.374200
-5.126300 1.262200
-5.106000 1.208700
-5.085700 1.152000
-5.065400 1.099500
-5.045100 1.051200
-5.024800 1.000900
-5.004500 0.954700
-4.984200 0.914200
-4.963900 0.896500
-4.943700 0.879800
-4.923400 0.862100
-4.903100 0.843400
-4.882800 0.822600
-4.862500 0.800200
-4.842200 0.775800
-4.821900 0.749700
-4.801600 0.726400
-4.781400 0.703800
-4.761100 0.683600
-4.740800 0.666100
-4.720500 0.651600
-4.700200 0.637800
-4.679900 0.624300
-4.659600 0.614000
-4.639300 0.603500
-4.619000 0.593400
-4.598800 0.584100
-4.578500 0.576800
-4.558200 0.577100
-4.537900 0.578900
-4.517600 0.575900
-4.497300 0.563200
-4.477000 0.531100
-4.456700 0.491900
-4.436400 0.466900
-4.416200 0.442100
-4.395900 0.417400
-4.375600 0.477200
-4.355300 0.501500
-4.335000 0.646000
-4.314700 0.105700
-4.294400 0.000000
-4.274100 0.000000
-4.253900 0.000000
-4.233600 0.000000
-4.213300 0.000000
-4.193000 0.000000
-4.172700 0.000000
-4.152400 0.000000
-4.132100 0.000000
-4.111800 0.000000
-4.091500 0.000000
-4.071300 0.000000
-4.051000 0.000000
-4.030700 0.060200
-4.010400 0.047900
-3.990100 0.061500
-3.969800 0.073700
-3.949500 0.084400
-3.929200 0.093700
-3.908900 0.101500
-3.888700 0.111700
-3.868400 0.124800
-3.848100 0.136100
-3.827800 0.145500
-3.807500 0.153000
-3.787200 0.159500
-3.766900 0.168100
-3.746600 0.160100
-3.726300 0.166500
-3.706100 0.173100
-3.685800 0.179800
-3.665500 0.186600
-3.645200 0.193600
-3.624900 0.200800
-3.604600 0.208000
-3.584300 0.215500
-3.564000 0.223100
-3.543800 0.230900
-3.523500 0.235200
-3.503200 0.239400
-3.482900 0.246600
-3.462600 0.253900
-3.442300 0.260900
-3.422000 0.267700
-3.401700 0.274200
-3.381400 0.280400
-3.361200 0.301300
-3.340900 0.423600
-3.320600 0.588600
-3.300300 0.621900
-3.280000 0.672400
-3.259700 0.726500
-3.239400 0.774300
-3.219100 0.821900
-3.198800 0.873200
-3.178600 0.927600
-3.158300 0.988000
-3.138000 1.058300
-3.117700 1.137700
-3.097400 1.239900
-3.077100 1.371600
-3.056800 1.412100
-3.036500 1.457500
-3.016300 1.419800
-2.996000 1.379900
-2.975700 1.349800
-2.955400 1.327100
-2.935100 1.307200
-2.914800 1.286200
-2.894500 1.263300
-2.874200 1.240100
-2.853900 1.220300
-2.833700 1.202600
-2.813400 1.185200
-2.793100 1.170800
-2.772800 1.168400
-2.752500 1.173300
-2.732200 1.177400
-2.711900 1.181000
-2.691600 1.206000
-2.671300 1.215600
-2.651100 1.219900
-2.630800 1.222200
-2.610500 1.230100
-2.590200 1.242200
-2.569900 1.255300
-2.549600 1.268200
-2.529300 1.281300
-2.509000 1.294600
-2.488700 1.278800
-2.468500 1.290900
-2.448200 1.308000
-2.427900 1.327000
-2.407600 1.346700
-2.387300 1.367100
-2.367000 1.387200
-2.346700 1.404500
-2.326400 1.423800
-2.306200 1.448900
-2.285900 1.553700
-2.265600 1.557700
-2.245300 1.546100
-2.225000 1.522300
-2.204700 1.501400
-2.184400 1.497900
-2.164100 1.521600
-2.143800 1.599800
-2.123600 1.610900
-2.103300 1.586900
-2.083000 1.556100
-2.062700 1.525600
-2.042400 1.495200
-2.022100 1.463600
-2.001800 1.469800
-1.981500 1.318500
-1.961200 1.281000
-1.941000 1.244900
-1.920700 1.210300
-1.900400 1.153100
-1.880100 1.136500
-1.859800 1.121000
-1.839500 1.105700
-1.819200 1.090700
-1.798900 0.998400
-1.778700 0.981100
-1.758400 0.989000
-1.738100 1.007400
-1.717800 1.025700
-1.697500 1.042400
-1.677200 1.053600
-1.656900 1.056800
-1.636600 1.060000
-1.616300 1.061000
-1.596100 1.064300
-1.575800 1.105000
-1.555500 1.130800
-1.535200 1.158400
-1.514900 1.184000
-1.494600 1.211200
-1.474300 1.240000
-1.454000 1.270500
-1.433700 1.302600
-1.413500 1.333300
-1.393200 1.368900
-1.372900 1.391000
-1.352600 1.365400
-1.332300 1.315800
-1.312000 1.307400
-1.291700 1.317200
-1.271400 1.328100
-1.251100 1.341000
-1.230900 1.355600
-1.210600 1.366300
-1.190300 1.371100
-1.170000 1.371000
-1.149700 1.379400
-1.129400 1.395900
-1.109100 1.423400
-1.088800 1.421900
-1.068600 1.452500
-1.048300 1.480500
-1.028000 1.504800
-1.007700 1.525200
-0.987400 1.549300
-0.967100 1.600700
-0.946800 1.620700
-0.926500 1.614800
-0.906200 1.643000
-0.886000 1.586800
-0.865700 1.542100
-0.845400 1.541400
-0.825100 1.567300
-0.804800 1.581200
-0.784500 1.528600
-0.764200 1.460900
-0.743900 1.403800
-0.723600 1.345300
-0.703400 1.300500
-0.683100 1.258700
-0.662800 1.224000
-0.642500 1.206700
-0.622200 1.193900
-0.601900 1.182700
-0.581600 1.171900
-0.561300 1.161100
-0.541100 1.154000
-0.520800 1.146700
-0.500500 1.132000
-0.480200 1.116700
-0.459900 1.103800
-0.439600 1.095100
-0.419300 1.088800
-0.399000 1.086100
-0.378700 1.084400
-0.358500 1.084200
-0.338200 1.085700
-0.317900 1.127800
-0.297600 1.138500
-0.277300 1.127900
-0.257000 1.113500
-0.236700 1.117300
-0.216400 1.130900
-0.196100 1.153300
-0.175900 1.181500
-0.155600 1.223600
-0.135300 1.280300
-0.115000 1.376500
-0.094700 1.473300
-0.074400 1.558600
-0.054100 1.628300
-0.033800 1.642100
-0.013500 1.641500
0.006700 1.648600
0.027000 1.654100
0.047300 1.656600
0.067600 1.656200
0.087900 1.656600
0.108200 1.658000
0.128500 1.654400
0.148800 1.642200
0.169000 1.619100
0.189300 1.591100
0.209600 1.563100
0.229900 1.535200
0.250200 1.510400
0.270500 1.490500
0.290800 1.489400
0.311100 1.462400
0.331400 1.498200
0.351600 1.526000
0.371900 1.546600
0.392200 1.564100
0.412500 1.579700
0.432800 1.592100
0.453100 1.600400
0.473400 1.587600
0.493700 1.548700
0.514000 1.566600
0.534200 1.560700
0.554500 1.550400
0.574800 1.714800
0.595100 1.631000
0.615400 1.582400
0.635700 1.512500
0.656000 1.438100
0.676300 1.380200
0.696500 1.338800
0.716800 1.313600
0.737100 1.299100
0.757400 1.290300
0.777700 1.280600
0.798000 1.276200
0.818300 1.286800
0.838600 1.381100
0.858900 1.327900
0.879100 1.304100
0.899400 1.289100
0.919700 1.284600
0.940000 1.278000
0.960300 1.268100
0.980600 1.268200
1.000900 1.285600
1.021200 1.324100
1.041500 1.344000
1.061700 1.356100
1.082000 1.401300
1.102300 1.276500
1.122600 1.225900
1.142900 1.187400
1.163200 1.153100
1.183500 1.124100
1.203800 1.100300
1.224100 1.067600
1.244300 1.054200
1.264600 1.047700
1.284900 1.042600
1.305200 1.039700
1.325500 1.039100
1.345800 1.055500
1.366100 1.091700
1.386400 1.124900
1.406600 1.162100
1.426900 1.204600
1.447200 1.250700
1.467500 1.301800
1.487800 1.357600
1.508100 1.393400
1.528400 1.384400
1.548700 1.414700
1.569000 1.444600
1.589200 1.397900
1.609500 1.403200
1.629800 1.404700
1.650100 1.402300
1.670400 1.417200
1.690700 1.398100
1.711000 1.373900
1.731300 1.357200
1.751600 1.342700
1.771800 1.321700
1.792100 1.322800
1.812400 1.328900
1.832700 1.325000
1.853000 1.319000
1.873300 1.302600
1.893600 1.298300
1.913900 1.294900
1.934100 1.296800
1.954400 1.305300
1.974700 1.319900
1.995000 1.338600
2.015300 1.366600
2.035600 1.404300
2.055900 1.436200
2.076200 1.440900
2.096500 1.455800
2.116700 1.484700
2.137000 1.452800
2.157300 1.469300
2.177600 1.489700
2.197900 1.513800
2.218200 1.540400
2.238500 1.562200
2.258800 1.592200
2.279100 1.621900
2.299300 1.648600
2.319600 1.697100
2.339900 1.725900
2.360200 1.756500
2.380500 1.788700
2.400800 1.821400
2.421100 1.856400
2.441400 1.895900
2.461700 1.938500
2.481900 1.976100
2.502200 2.090700
2.522500 2.094500
2.542800 2.118500
2.563100 2.153400
2.583400 2.175900
2.603700 2.199000
2.624000 2.222700
2.644200 2.240200
2.664500 2.255200
2.684800 2.268200
2.705100 2.279200
2.725400 2.284700
2.745700 2.282300
2.766000 2.234800
2.786300 2.225900
2.806600 2.215900
2.826800 2.201100
2.847100 2.180900
2.867400 2.130500
2.887700 2.141200
2.908000 2.143600
2.928300 2.084900
2.948600 2.068600
2.968900 2.050400
2.989200 2.034200
3.009400 2.020300
3.029700 1.997500
3.050000 2.016000
3.070300 1.963000
3.090600 1.919700
3.110900 1.888900
3.131200 1.859700
3.151500 1.833200
3.171800 1.809800
3.192000 1.790300
3.212300 1.768800
3.232600 1.768500
3.252900 1.761500
3.273200 1.765700
3.293500 1.843000
3.313800 1.852400
3.334100 1.819100
3.354300 1.778600
3.374600 1.774800
3.394900 1.780800
3.415200 1.789700
3.435500 1.823300
3.455800 1.839900
3.476100 1.857300
3.496400 1.874000
3.516700 1.886600
3.536900 1.898300
3.557200 1.900400
3.577500 1.885400
3.597800 1.867300
3.618100 1.845600
3.638400 1.855300
3.658700 1.868100
3.679000 1.880300
3.699300 1.903600
3.719500 1.920300
3.739800 1.922900
3.760100 1.910500
3.780400 1.891900
3.800700 1.889900
3.821000 1.853800
3.841300 1.804500
3.861600 1.772300
3.881800 1.762200
3.902100 1.741800
3.922400 1.721700
3.942700 1.756000
3.963000 1.719800
3.983300 1.690200
4.003600 1.667300
4.023900 1.650000
4.044200 1.639800
4.064400 1.641000
4.084700 1.644900
4.105000 1.653300
4.125300 1.663600
4.145600 1.676100
4.165900 1.689700
4.186200 1.704400
4.206500 1.762900
4.226800 1.864400
4.247000 1.906300
4.267300 1.927400
4.287600 1.966800
4.307900 1.985300
4.328200 2.000000
4.348500 2.017400
4.368800 2.027600
4.389100 2.042700
4.409400 2.061000
4.429600 2.082500
4.449900 2.134500
4.470200 2.187200
4.490500 2.236400
4.510800 2.264800
4.531100 2.241800
4.551400 2.185200
4.571700 2.135600
4.591900 2.125000
4.612200 2.109700
4.632500 2.095400
4.652800 2.084200
4.673100 2.075500
4.693400 2.064600
4.713700 2.053100
4.734000 2.042200
4.754300 2.023400
4.774500 1.986200
4.794800 1.921300
4.815100 1.861000
4.835400 1.816400
4.855700 1.783300
4.876000 1.747700
4.896300 1.709800
4.916600 1.674000
4.936900 1.648200
4.957100 1.624000
4.977400 1.597300
4.997700 1.575500
5.018000 1.558000
5.038300 1.541900
5.058600 1.521600
5.078900 1.496800
5.099200 1.473400
5.119400 1.458100
5.139700 1.445400
5.160000 1.432900
5.180300 1.421000
5.200600 1.411100
5.220900 1.428000
5.241200 1.459300
5.261500 1.481300
5.281800 1.498400
5.302000 1.512900
5.322300 1.526500
5.342600 1.540200
5.362900 1.552200
5.383200 1.551900
5.403500 1.570900
5.423800 1.601700
5.444100 1.627200
5.464400 1.648000
5.484600 1.676800
5.504900 1.729500
5.525200 1.761600
5.545500 1.769800
5.565800 1.773100
5.586100 1.751900
5.606400 1.725500
5.626700 1.738000
5.647000 1.756400
5.667200 1.752600
5.687500 1.747500
5.707800 1.741600
5.728100 1.732100
5.748400 1.723100
5.768700 1.714900
5.789000 1.708200
5.809300 1.702600
5.829500 1.699800
5.849800 1.701800
5.870100 1.709200
5.890400 1.713700
5.910700 1.738500
5.931000 1.791200
5.951300 1.819500
5.971600 1.850500
5.991900 1.885200
6.012100 1.916900
6.032400 1.954700
6.052700 2.017300
6.073000 2.071100
6.093300 2.146000
6.113600 2.312500
6.133900 2.397400
6.154200 2.437900
6.174500 2.389100
6.194700 2.455700
6.215000 2.518600
6.235300 2.535900
6.255600 2.523500
6.275900 2.461700
6.296200 2.359800
6.316500 2.306100
6.336800 2.246100
6.357000 2.196800
6.377300 2.152700
6.397600 2.111500
6.417900 2.081800
6.438200 2.047100
6.458500 2.016700
6.478800 1.989800
6.499100 1.964400
6.519400 1.907900
6.539600 1.910500
6.559900 1.951100
6.580200 1.811900
6.600500 1.810000
6.620800 1.845400
6.641100 1.881500
6.661400 1.898900
6.681700 1.958200
6.702000 2.049200
6.722200 2.132100
6.742500 2.204200
6.762800 2.263700
6.783100 2.514200
6.803400 2.438900
6.823700 2.388300
6.844000 2.377000
6.864300 2.360300
6.884600 2.329500
6.904800 2.304100
6.925100 2.299900
6.945400 2.342200
6.965700 2.388800
6.986000 2.437200
7.006300 2.479800
7.026600 2.515900
7.046900 2.543500
7.067100 2.563800
7.087400 2.583300
7.107700 2.672900
7.128000 2.734400
7.148300 2.748800
7.168600 2.758300
7.188900 2.699200
7.209200 2.659800
7.229500 2.631100
7.249700 2.604500
7.270000 2.690400
7.290300 2.346300
7.310600 2.267000
7.330900 2.201100
7.351200 2.139900
7.371500 2.092600
7.391800 2.085600
7.412100 2.196500
7.432300 2.190900
7.452600 2.121200
7.472900 2.074600
7.493200 2.078300
7.513500 2.088900
7.533800 2.175700
7.554100 2.100300
7.574400 2.069900
7.594600 2.058700
7.614900 2.056100
7.635200 2.062400
7.655500 2.078800
7.675800 2.093500
7.696100 2.099700
7.716400 2.106400
7.736700 2.147800
7.757000 2.198800
7.777200 2.218700
7.797500 2.236300
7.817800 2.261400
7.838100 2.295400
7.858400 2.320400
7.878700 2.314800
7.899000 2.307600
7.919300 2.303600
7.939600 2.302600
7.959800 2.304500
7.980100 2.308800
8.000400 2.334800
8.020700 2.386500
8.041000 2.457600
8.061300 2.542300
8.081600 2.541400
8.101900 2.599300
8.122200 2.578300
8.142400 2.492800
8.162700 2.417900
8.183000 2.322800
8.203300 2.274400
8.223600 2.241700
8.243900 2.232700
8.264200 2.229300
8.284500 2.181500
8.304700 2.173600
8.325000 2.201400
8.345300 2.273900
8.365600 2.241100
8.385900 2.208900
8.406200 2.194200
8.426500 2.193400
8.446800 2.195000
8.467100 2.215000
8.487300 2.250400
8.507600 2.268800
8.527900 2.284000
8.548200 2.291100
8.568500 2.305600
8.588800 2.338800
8.609100 2.380900
8.629400 2.429300
8.649700 2.477100
8.669900 2.543400
8.690200 2.604400
8.710500 2.693500
8.730800 2.772200
8.751100 2.902400
8.771400 2.962500
8.791700 2.964900
8.812000 2.961200
8.832200 2.939300
8.852500 2.906800
8.872800 2.875800
8.893100 2.819000
8.913400 2.789800
8.933700 2.778700
8.954000 2.665500
8.974300 2.625500
8.994600 2.619800
9.014800 2.616100
9.035100 2.623400
9.055400 2.638600
9.075700 2.660100
9.096000 2.686700
9.116300 2.764200
9.136600 2.754600
9.156900 2.716000
9.177200 2.680600
9.197400 2.652600
9.217700 2.617500
9.238000 2.613000
9.258300 2.572400
9.278600 2.542100
9.298900 2.525800
9.319200 2.526100
9.339500 2.520600
9.359800 2.510800
9.380000 2.508100
9.400300 2.504800
9.420600 2.496400
9.440900 2.473300
9.461200 2.507900
9.481500 2.436800
9.501800 2.409300
9.522100 2.390000
9.542300 2.399900
9.562600 2.415900
9.582900 2.433200
9.603200 2.453400
9.623500 2.475200
9.643800 2.452200
9.664100 2.439100
9.684400 2.424000
9.704700 2.414300
9.724900 2.402600
9.745200 2.386200
9.765500 2.380700
9.785800 2.384200
9.806100 2.430200
9.826400 2.470400
9.846700 2.504600
9.867000 2.529800
9.887300 2.550600
9.907500 2.550700
9.927800 2.544200
9.948100 2.533600
9.968400 2.525200
9.988700 2.524500
10.009000 2.535700
10.029300 2.552600
10.049600 2.551700
10.069800 2.554900
10.090100 2.534400
10.110400 2.484000
10.130700 2.427100
10.151000 2.363200
10.171300 2.299800
10.191600 2.243700
10.211900 2.206100
10.232200 2.173900
10.252400 2.142900
10.272700 2.094200
10.293000 2.057700
10.313300 2.043800
10.333600 2.029000
10.353900 2.001800
10.374200 1.993600
10.394500 1.994900
10.414800 1.978400
10.435000 1.967500
10.455300 1.940900
10.475600 1.945400
10.495900 1.949900
10.516200 1.993000
10.536500 2.015300
10.556800 2.013200
10.577100 1.979400
10.597400 1.926300
10.617600 1.937600
10.637900 1.965400
10.658200 1.966000
10.678500 1.952400
10.698800 1.934600
10.719100 1.918200
10.739400 1.910200
10.759700 1.915600
10.779900 1.931900
10.800200 1.962500
10.820500 1.972900
10.840800 1.985000
10.861100 1.995100
10.881400 2.005900
10.901700 2.011700
10.922000 2.014800
10.942300 2.021900
10.962500 2.028800
10.982800 2.119100
11.003100 2.023400
11.023400 2.039600
11.043700 2.050400
11.064000 2.046800
11.084300 2.068400
11.104600 2.117100
11.124900 2.061500
11.145100 2.081700
11.165400 2.105400
11.185700 2.108700
11.206000 2.105500
11.226300 2.100000
11.246600 2.087300
11.266900 2.069600
11.287200 2.048600
11.307400 2.037200
11.327700 2.036500
11.348000 2.033400
11.368300 2.039700
11.388600 2.029800
11.408900 2.019500
11.429200 1.984600
11.449500 1.945500
11.469800 1.936500
11.490000 1.880900
11.510300 1.892200
11.530600 1.917600
11.550900 1.941400
11.571200 1.957400
11.591500 1.963400
11.611800 1.955200
11.632100 1.940800
11.652400 1.938600
11.672600 1.937000
11.692900 1.976400
11.713200 2.019400
11.733500 1.946400
11.753800 1.948000
11.774100 1.944500
11.794400 1.924700
11.814700 1.905500
11.835000 1.894000
11.855200 1.891100
11.875500 1.886300
11.895800 1.881100
11.916100 1.878100
11.936400 1.870900
11.956700 1.869900
11.977000 1.868900
11.997300 1.874200
12.017500 1.889100
12.037800 1.906600
12.058100 1.955500
12.078400 2.030800
12.098700 2.114600
12.119000 2.104700
12.139300 2.094200
12.159600 2.080600
12.179900 2.065300
12.200100 2.055700
12.220400 2.046700
12.240700 2.024800
12.261000 2.042100
12.281300 2.087100
12.301600 2.118800
12.321900 2.151300
12.342200 2.185400
12.362500 2.152900
12.382700 2.182500
12.403000 2.218500
12.423300 2.225800
12.443600 2.216700
12.463900 2.213500
12.484200 2.221300
12.504500 2.248500
12.524800 2.194700
12.545000 2.166300
12.565300 2.146100
12.585600 2.133600
12.605900 2.127300
12.626200 2.131500
12.646500 2.146800
12.666800 2.158300
12.687100 2.165400
12.707400 2.206600
12.727600 2.246700
12.747900 2.263800
12.768200 2.269000
12.788500 2.257800
12.808800 2.200000
12.829100 2.174900
12.849400 2.144900
12.869700 2.117300
12.890000 2.091700
12.910200 2.074400
12.930500 2.058500
12.950800 2.049100
12.971100 2.047200
12.991400 2.070800
13.011700 2.013400
13.032000 1.981500
13.052300 1.969700
13.072600 1.990400
13.092800 1.991800
13.113100 2.009900
13.133400 2.020900
13.153700 1.957700
13.174000 1.971300
13.194300 1.992500
13.214600 2.038500
13.234900 2.183300
13.255100 2.234600
13.275400 2.256000
13.295700 2.297100
13.316000 2.340100
13.336300 2.379100
13.356600 2.437800
13.376900 2.513800
13.397200 2.567300
13.417500 2.569700
13.437700 2.531500
13.458000 2.508500
13.478300 2.507500
13.498600 2.520700
13.518900 2.534700
13.539200 2.549200
13.559500 2.559300
13.579800 2.562700
13.600100 2.559700
13.620300 2.633200
13.640600 2.816000
13.660900 2.755300
13.681200 2.769800
13.701500 2.792900
13.721800 2.225300
13.742100 2.210700
13.762400 2.188700
13.782600 2.162400
13.802900 2.140400
13.823200 2.138200
13.843500 2.128800
13.863800 2.129200
13.884100 2.137500
13.904400 2.151200
13.924700 2.168900
13.945000 2.191600
13.965200 2.220700
13.985500 2.259900
14.005800 2.278100
14.026100 2.345800
14.046400 2.369100
14.066700 2.384900
14.087000 2.433800
14.107300 2.433700
14.127600 2.426200
14.147800 2.420200
14.168100 2.425000
14.188400 2.443300
14.208700 2.447300
14.229000 2.487300
14.249300 2.499700
14.269600 2.550000
14.289900 2.576300
14.310200 2.572700
14.330400 2.558000
14.350700 2.505400
14.371000 2.516600
14.391300 2.444200
14.411600 2.371300
14.431900 2.294300
14.452200 2.280400
14.472500 2.271900
14.492700 2.264700
14.513000 2.308500
14.533300 2.485300
14.553600 2.450200
14.573900 2.412900
14.594200 2.388600
14.614500 2.375400
14.634800 2.352300
14.655100 2.322000
14.675300 2.296200
14.695600 2.278700
14.715900 2.271800
14.736200 2.273000
14.756500 2.274400
14.776800 2.275400
14.797100 2.275500
14.817400 2.275000
14.837700 2.274900
14.857900 2.276300
14.878200 2.279800
14.898500 2.283000
14.918800 2.287700
14.939100 2.296900
14.959400 2.312300
14.979700 2.331000
15.000000 2.354000
15.020300 2.454800
15.040500 2.502900
15.060800 2.551200
15.081100 2.591900
15.101400 2.572900
15.121700 2.593500
15.142000 2.638800
15.162300 2.728100
15.182600 2.691100
15.202800 2.720000
15.223100 2.726700
15.243400 2.739400
15.263700 2.743800
15.284000 2.736800
15.304300 2.736800
15.324600 2.752000
15.344900 2.839800
15.365200 2.795300
15.385400 2.810100
15.405700 2.856300
15.426000 2.954900
15.446300 2.918000
15.466600 2.866100
15.486900 2.770200
15.507200 2.772500
15.527500 2.786800
15.547800 2.791300
15.568000 2.798400
15.588300 2.745600
15.608600 2.641300
15.628900 2.581600
15.649200 2.567300
15.669500 2.565500
15.689800 2.499900
15.710100 2.519900
15.730300 2.552600
15.750600 2.594600
15.770900 2.628700
15.791200 2.695700
15.811500 2.777300
15.831800 2.783900
15.852100 2.736700
15.872400 2.761100
15.892700 2.915400
15.912900 3.033300
15.933200 3.090700
15.953500 3.050300
15.973800 3.012300
15.994100 2.978600
16.014400 2.969200
16.034700 3.017000
16.055000 3.058500
16.075300 3.115700
16.095500 3.191700
16.115800 3.231800
16.136100 3.209300
16.156400 3.208500
16.176700 3.195400
16.197000 3.172500
16.217300 3.139400
16.237600 3.096300
16.257900 3.000900
16.278100 2.970600
16.298400 2.985600
16.318700 2.995400
16.339000 3.009200
16.359300 2.966200
16.379600 3.068500
16.399900 3.097400
16.420200 3.134200
16.440400 3.183700
16.460700 3.229100
16.481000 3.273800
16.501300 3.299200
16.521600 3.334700
16.541900 3.414600
16.562200 3.384600
16.582500 3.325500
16.602800 3.337900
16.623000 3.124600
16.643300 3.005400
16.663600 2.949000
16.683900 2.921000
16.704200 2.850200
16.724500 2.798200
16.744800 2.708900
16.765100 2.621500
16.785400 2.557900
16.805600 2.555900
16.825900 2.555000
16.846200 2.543300
16.866500 2.520700
16.886800 2.513700
16.907100 2.494100
16.927400 2.479100
16.947700 2.469500
16.967900 2.465300
16.988200 2.471700
17.008500 2.524800
17.028800 2.551300
17.049100 2.580100
17.069400 2.611700
17.089700 2.650200
17.110000 2.678300
17.130300 2.706900
17.150500 2.707900
17.170800 2.700400
17.191100 2.698400
17.211400 2.701100
17.231700 2.696300
17.252000 2.685300
17.272300 2.692100
17.292600 2.742500
17.312900 2.806400
17.333100 2.839400
17.353400 2.885200
17.373700 2.890500
17.394000 2.881100
17.414300 2.841100
17.434600 2.803000
17.454900 2.728000
17.475200 2.661100
17.495500 2.610900
17.515700 2.592300
17.536000 2.586300
17.556300 2.604500
17.576600 2.651300
17.596900 2.702200
17.617200 2.764800
17.637500 2.835600
17.657800 2.908300
17.678000 3.189900
17.698300 2.849800
17.718600 2.810300
17.738900 2.783300
17.759200 2.761700
17.779500 2.742600
17.799800 2.734900
17.820100 2.676700
17.840400 2.634200
17.860600 2.602200
17.880900 2.622200
17.901200 2.613500
17.921500 2.610200
17.941800 2.605300
17.962100 2.616700
17.982400 2.630900
18.002700 2.654200
18.023000 2.687700
18.043200 2.728400
18.063500 2.801600
18.083800 3.068100
18.104100 3.017000
18.124400 2.719800
18.144700 2.877400
18.165000 2.547200
18.185300 2.526400
18.205500 2.728000
18.225800 2.804200
18.246100 2.744700
18.266400 2.814000
18.286700 2.905300
18.307000 3.006100
18.327300 3.037700
18.347600 3.131600
18.367900 3.097300
18.388100 3.064300
18.408400 3.054500
18.428700 3.075000
18.449000 3.117400
18.469300 3.145100
18.489600 3.070200
18.509900 2.869800
18.530200 2.749000
18.550500 2.643100
18.570700 2.603400
18.591000 2.549100
18.611300 2.489500
18.631600 2.442900
18.651900 2.459400
18.672200 2.437400
18.692500 2.434300
18.712800 2.573400
18.733100 2.565800
18.753300 2.557800
18.773600 2.575300
18.793900 2.591000
18.814200 2.560900
18.834500 2.508600
18.854800 2.495000
18.875100 2.516200
18.895400 2.522500
18.915600 2.583700
18.935900 2.750600
18.956200 2.910200
18.976500 3.028200
18.996800 2.994500
19.017100 3.059200
19.037400 3.105800
19.057700 3.156700
19.078000 3.205500
19.098200 3.183000
19.118500 3.211800
19.138800 3.249400
19.159100 3.287900
19.179400 3.325300
19.199700 3.335100
19.220000 3.352000
19.240300 3.378900
19.260600 3.447300
19.280800 3.517500
19.301100 3.580700
19.321400 3.652300
19.341700 3.635700
19.362000 3.600000
19.382300 3.561900
19.402600 3.520200
19.422900 3.463100
19.443100 3.402300
19.463400 3.352600
19.483700 3.336300
19.504000 3.330400
19.524300 3.373300
19.544600 3.311400
19.564900 3.273900
19.585200 3.257000
19.605500 3.235400
19.625700 3.179300
19.646000 3.169600
19.666300 3.182000
19.686600 3.274500
19.706900 3.351800
19.727200 3.367300
19.747500 3.306800
19.767800 3.296800
19.788100 3.311800
19.808300 3.309200
19.828600 3.339200
19.848900 3.368200
19.869200 3.349600
19.889500 3.351700
19.909800 3.358000
19.930100 3.363700
19.950400 3.392600
19.970700 3.413600
19.990900 3.410800
20.011200 3.381500
20.031500 3.340400
20.051800 3.262800
20.072100 3.219400
20.092400 3.181800
20.112700 3.039900
20.133000 3.049800
20.153200 3.059800
20.173500 3.093500
20.193800 3.156900
20.214100 3.187300
20.234400 3.052700
20.254700 3.095800
20.275000 3.058500
20.295300 3.107700
20.315600 3.073000
20.335800 3.057400
20.356100 3.052700
20.376400 3.069800
20.396700 3.121400
20.417000 3.163900
20.437300 3.195500
20.457600 3.253700
20.477900 3.324200
20.498200 3.394100
20.518400 3.451700
20.538700 3.509400
20.559000 3.519200
20.579300 3.519700
20.599600 3.453800
20.619900 3.318600
20.640200 3.328300
20.660500 3.329300
20.680700 3.313300
20.701000 3.298000
20.721300 3.264200
20.741600 3.304300
20.761900 3.304500
20.782200 3.324500
20.802500 3.356700
20.822800 3.420000
20.843100 3.464900
20.863300 3.490900
20.883600 3.489300
20.903900 3.505500
20.924200 3.506200
20.944500 3.487100
20.964800 3.456500
20.985100 3.427500
21.005400 3.407100
21.025700 3.376100
21.045900 3.256100
21.066200 3.213000
21.086500 3.172100
21.106800 3.126700
21.127100 3.072300
21.147400 3.026600
21.167700 3.029200
21.188000 2.982600
21.208300 2.974000
21.228500 2.977600
21.248800 2.996900
21.269100 3.020300
21.289400 3.083900
21.309700 3.113000
21.330000 3.171500
21.350300 3.164900
21.370600 3.158000
21.390800 3.163800
21.411100 3.178400
21.431400 3.219200
21.451700 3.267300
21.472000 3.365700
21.492300 3.436500
21.512600 3.547400
21.532900 3.690500
21.553200 4.002500
21.573400 4.108100
21.593700 3.532800
21.614000 3.508800
21.634300 3.575700
21.654600 3.667000
21.674900 3.455500
21.695200 3.346300
21.715500 3.324000
21.735800 3.405200
21.756000 3.453800
21.776300 3.479200
21.796600 3.510300
21.816900 3.550000
21.837200 3.558900
21.857500 3.546900
21.877800 3.524700
21.898100 3.580300
21.918300 3.629100
21.938600 3.856500
21.958900 3.773300
21.979200 3.819000
21.999500 3.874900
22.019800 3.935100
22.040100 3.948500
22.060400 3.925000
22.080700 3.914600
22.100900 3.905800
22.121200 3.899400
22.141500 3.901600
22.161800 3.814200
22.182100 3.717200
22.202400 3.624300
22.222700 3.556600
22.243000 3.641900
22.263300 3.444600
22.283500 3.314700
22.303800 3.378000
22.324100 3.294100
22.344400 3.226700
22.364700 3.176900
22.385000 3.127900
22.405300 3.111300
22.425600 3.119400
22.445900 3.126700
22.466100 3.141900
22.486400 3.149700
22.506700 3.154000
22.527000 3.152600
22.547300 3.152100
22.567600 3.154800
22.587900 3.160100
22.608200 3.168900
22.628400 3.395300
22.648700 3.402000
22.669000 3.408600
22.689300 3.390900
22.709600 3.355300
22.729900 3.366900
22.750200 3.384100
22.770500 3.352400
22.790800 3.394400
22.811000 3.467300
22.831300 3.576400
22.851600 3.707800
22.871900 3.770800
22.892200 4.011100
22.912500 4.245500
22.932800 4.440800
22.953100 4.568700
22.973400 4.629200
22.993600 4.629300
23.013900 4.671500
23.034200 4.431600
23.054500 4.119900
23.074800 3.883300
23.095100 3.576600
23.115400 3.400900
23.135700 3.335500
23.155900 3.308100
23.176200 3.278100
23.196500 3.252700
23.216800 3.234500
23.237100 3.210400
23.257400 3.181900
23.277700 3.148200
23.298000 3.213700
23.318300 3.180200
23.338500 3.175800
23.358800 3.154800
23.379100 3.144200
23.399400 3.151600
23.419700 3.184100
23.440000 3.226600
23.460300 3.281900
23.480600 3.273700
23.500900 3.169800
23.521100 3.157600
23.541400 3.142700
23.561700 3.110800
23.582000 3.066700
23.602300 3.001100
23.622600 2.912300
23.642900 2.818100
23.663200 2.735000
23.683500 2.690300
23.703700 2.561800
23.724000 2.456600
23.744300 2.346900
23.764600 2.257300
23.784900 2.196500
23.805200 2.169600
23.825500 2.142100
23.845800 2.130000
23.866000 2.128300
23.886300 2.133600
23.906600 2.145000
23.926900 2.159900
23.947200 2.170700
23.967500 2.132000
23.987800 2.088600
24.008100 2.049600
24.028400 2.015800
24.048600 1.998300
24.068900 1.983600
24.089200 1.962000
24.109500 1.919900
24.129800 1.895300
24.150100 1.852100
24.170400 1.803300
24.190700 1.768400
24.211000 1.795300
24.231200 1.616500
24.251500 1.516700
24.271800 1.437300
24.292100 1.371500
24.312400 1.295800
24.332700 1.261700
24.353000 1.234700
24.373300 1.208500
24.393500 1.183000
24.413800 1.158700
24.434100 1.134800
24.454400 1.112600
24.474700 1.092900
24.495000 1.077000
24.515300 1.065500
24.535600 1.058000
24.555900 1.055400
24.576100 1.059900
24.596400 1.020500
24.616700 0.993100
24.637000 0.969200
24.657300 0.941300
24.677600 0.917100
24.697900 0.899000
24.718200 0.879700
24.738500 0.857400
24.758700 0.832100
24.779000 0.804600
24.799300 0.777600
24.819600 0.754900
24.839900 0.735400
24.860200 0.760100
24.880500 0.761900
24.900800 0.740900
24.921100 0.717300
24.941300 0.690900
24.961600 0.661800
24.981900 0.629900
25.002200 0.595100
25.022500 0.555000
25.042800 0.549900
25.063100 0.509900
25.083400 0.475900
25.103600 0.449600
25.123900 0.427200
25.144200 0.381800
25.164500 0.350100
25.184800 0.331500
25.205100 0.322800
25.225400 0.314200
25.245700 0.305600
25.266000 0.297400
25.286200 0.289500
25.306500 0.282000
25.326800 0.274600
25.347100 0.267400
25.367400 0.260300
25.387700 0.253500
25.408000 0.246900
25.428300 0.240800
25.448600 0.235000
25.468800 0.229700
25.489100 0.224800
25.509400 0.220400
25.529700 0.218200
25.550000 0.218100
25.570300 0.219200
25.590600 0.221400
25.610900 0.224600
25.631100 0.228900
25.651400 0.233800
25.671700 0.230000
25.692000 0.220300
25.712300 0.215600
25.732600 0.219200
25.752900 0.221300
25.773200 0.224700
25.793500 0.224100
25.813700 0.220600
25.834000 0.216400
25.854300 0.211100
25.874600 0.203000
25.894900 0.192000
25.915200 0.154700
25.935500 0.110300
25.955800 0.090400
25.976100 0.085000
25.996300 0.079800
26.016600 0.074800
26.036900 0.069900
26.057200 0.065200
26.077500 0.060700
26.097800 0.056400
26.118100 0.052300
26.138400 0.060300
26.158700 0.059100
26.178900 0.057300
26.199200 0.055100
26.219500 0.052400
26.239800 0.049200
26.260100 0.045500
26.280400 0.041300
26.300700 0.036600
26.321000 0.031400
26.341200 0.027300
26.361500 0.024400
26.381800 0.021500
26.402100 0.018600
26.422400 0.015600
26.442700 0.012600
26.463000 0.009600
26.483300 0.006500
26.503600 0.003400
26.523800 0.000300
26.544100 0.000000
26.564400 0.000000
26.584700 0.000000
26.605000 0.000000
26.625300 0.000000
26.645600 0.000000
26.665900 0.000000
26.686200 0.000000
26.706400 0.000000
26.726700 0.000000
26.747000 0.000000
26.767300 0.000000
26.787600 0.000000
26.807900 0.000000
26.828200 0.000000
26.848500 0.000000
26.868800 0.000000
26.889000 0.000000
26.909300 0.000000
26.929600 0.000000
26.949900 0.000000
26.970200 0.000000
26.990500 0.000000
27.010800 0.000000
27.031100 0.000000
27.051300 0.000000
27.071600 0.000000
27.091900 0.000000
27.112200 0.000000
27.132500 0.000000
27.152800 0.000000
27.173100 0.000000
27.193400 0.000000
27.213700 0.000000
27.233900 0.000000
27.254200 0.000000
27.274500 0.000000
27.294800 0.000000
27.315100 0.000000
27.335400 0.000000
27.355700 0.000000
27.376000 0.000000
27.396300 0.000000
27.416500 0.000000
27.436800 0.000000
27.457100 0.000000
27.477400 0.000000
27.497700 0.000000
27.518000 0.000000
27.538300 0.000000
27.558600 0.000000
27.578800 0.000000
27.599100 0.000000
27.619400 0.000000
27.639700 0.000000
27.660000 0.000000
27.680300 0.000000
27.700600 0.000000
27.720900 0.000000
27.741200 0.000000
27.761400 0.000000
27.781700 0.000000
27.802000 0.000000
27.822300 0.000000
27.842600 0.000000
27.862900 0.000000
27.883200 0.000000
27.903500 0.000000
27.923800 0.000000
27.944000 0.000000
27.964300 0.000000
27.984600 0.000000
28.004900 0.000000
28.025200 0.000000
28.045500 0.000000
28.065800 0.000000
28.086100 0.000000
28.106400 0.000000
28.126600 0.000000
28.146900 0.000000
28.167200 0.000000
28.187500 0.000000
28.207800 0.000000
28.228100 0.000000
28.248400 0.000000
28.268700 0.000000
28.288900 0.000000
28.309200 0.000000
28.329500 0.000000
28.349800 0.000000
28.370100 0.000000
e
