set title 'mp-9924 - Density of States'
set xlabel 'Energy (eV)'
set ylabel 'DOS (states/eV)'
set grid
set xrange [-10:10]
set yrange [0:1.230]
set xzeroaxis lt -1
set terminal png size 800,600
set output 'mp-9924_dos_gnuplot.png'
plot '-' using 1:2 with lines title 'DOS'
-12.519900 0.000000
-12.481200 0.000000
-12.442500 0.000000
-12.403800 0.000000
-12.365100 0.000000
-12.326500 0.000000
-12.287800 0.000000
-12.249100 0.000000
-12.210400 0.000000
-12.171800 0.000000
-12.133100 0.000000
-12.094400 0.000000
-12.055700 0.000000
-12.017100 0.000000
-11.978400 0.000000
-11.939700 0.000000
-11.901000 0.000000
-11.862300 0.000000
-11.823700 0.000000
-11.785000 0.000000
-11.746300 0.000000
-11.707600 0.000000
-11.669000 0.000000
-11.630300 0.000000
-11.591600 0.000000
-11.552900 0.000000
-11.514300 0.000000
-11.475600 0.000000
-11.436900 0.000000
-11.398200 0.000000
-11.359600 0.000000
-11.320900 0.000000
-11.282200 0.000000
-11.243500 0.000000
-11.204800 0.000000
-11.166200 0.000000
-11.127500 0.000000
-11.088800 0.000000
-11.050100 0.000000
-11.011500 0.000000
-10.972800 0.000000
-10.934100 0.000000
-10.895400 0.000000
-10.856800 0.000000
-10.818100 0.000000
-10.779400 0.000000
-10.740700 0.000000
-10.702000 0.000000
-10.663400 0.000000
-10.624700 0.000000
-10.586000 0.000000
-10.547300 0.000000
-10.508700 0.000000
-10.470000 0.000000
-10.431300 0.000000
-10.392600 0.000000
-10.354000 0.000000
-10.315300 0.000000
-10.276600 0.000000
-10.237900 0.000000
-10.199200 0.000000
-10.160600 0.000000
-10.121900 0.000000
-10.083200 0.000000
-10.044500 0.000000
-10.005900 0.000000
-9.967200 0.000000
-9.928500 0.000000
-9.889800 0.000000
-9.851200 0.000000
-9.812500 0.000000
-9.773800 0.000000
-9.735100 0.000000
-9.696400 0.000000
-9.657800 0.000000
-9.619100 0.000000
-9.580400 0.000000
-9.541700 0.000000
-9.503100 0.000000
-9.464400 0.000000
-9.425700 0.000000
-9.387000 0.000000
-9.348400 0.000000
-9.309700 0.000000
-9.271000 0.000000
-9.232300 0.000000
-9.193700 0.000000
-9.155000 0.000000
-9.116300 0.000000
-9.077600 0.000000
-9.038900 0.000000
-9.000300 0.000800
-8.961600 0.071500
-8.922900 0.158800
-8.884200 0.240700
-8.845600 0.296500
-8.806900 0.388100
-8.768200 0.424000
-8.729500 0.423100
-8.690900 0.406400
-8.652200 0.416100
-8.613500 0.424900
-8.574800 0.431200
-8.536100 0.432900
-8.497500 0.434200
-8.458800 0.433300
-8.420100 0.425600
-8.381400 0.420800
-8.342800 0.424000
-8.304100 0.427700
-8.265400 0.430600
-8.226700 0.433400
-8.188100 0.436500
-8.149400 0.439100
-8.110700 0.442300
-8.072000 0.444800
-8.033300 0.447100
-7.994700 0.449600
-7.956000 0.450600
-7.917300 0.448600
-7.878600 0.448700
-7.840000 0.449700
-7.801300 0.450600
-7.762600 0.452200
-7.723900 0.454700
-7.685300 0.458100
-7.646600 0.461800
-7.607900 0.465600
-7.569200 0.469500
-7.530500 0.473400
-7.491900 0.477100
-7.453200 0.480800
-7.414500 0.484600
-7.375800 0.488600
-7.337200 0.492900
-7.298500 0.497800
-7.259800 0.502600
-7.221100 0.507400
-7.182500 0.512100
-7.143800 0.516900
-7.105100 0.522500
-7.066400 0.528600
-7.027800 0.535200
-6.989100 0.542000
-6.950400 0.549100
-6.911700 0.556000
-6.873000 0.562400
-6.834400 0.570800
-6.795700 0.595600
-6.757000 0.627800
-6.718300 0.675100
-6.679700 0.710300
-6.641000 0.745300
-6.602300 0.778200
-6.563600 0.810100
-6.525000 0.839100
-6.486300 0.820000
-6.447600 0.788600
-6.408900 0.761600
-6.370200 0.722300
-6.331600 0.689000
-6.292900 0.637400
-6.254200 0.582900
-6.215500 0.550200
-6.176900 0.528900
-6.138200 0.506900
-6.099500 0.488900
-6.060800 0.466400
-6.022200 0.448200
-5.983500 0.431100
-5.944800 0.413700
-5.906100 0.400000
-5.867400 0.389300
-5.828800 0.378800
-5.790100 0.371000
-5.751400 0.362800
-5.712700 0.354200
-5.674100 0.345100
-5.635400 0.335800
-5.596700 0.326400
-5.558000 0.315300
-5.519400 0.305400
-5.480700 0.296100
-5.442000 0.287500
-5.403300 0.281100
-5.364600 0.276000
-5.326000 0.270800
-5.287300 0.265500
-5.248600 0.260000
-5.209900 0.254500
-5.171300 0.249000
-5.132600 0.243500
-5.093900 0.238000
-5.055200 0.232400
-5.016600 0.227100
-4.977900 0.222200
-4.939200 0.217400
-4.900500 0.212400
-4.861900 0.207600
-4.823200 0.203100
-4.784500 0.198700
-4.745800 0.194400
-4.707100 0.190100
-4.668500 0.185900
-4.629800 0.181600
-4.591100 0.177400
-4.552400 0.173000
-4.513800 0.168100
-4.475100 0.163500
-4.436400 0.159700
-4.397700 0.156700
-4.359100 0.154600
-4.320400 0.152500
-4.281700 0.150300
-4.243000 0.148100
-4.204300 0.151100
-4.165700 0.153200
-4.127000 0.156700
-4.088300 0.146500
-4.049600 0.132000
-4.011000 0.117500
-3.972300 0.103100
-3.933600 0.088800
-3.894900 0.074600
-3.856300 0.060400
-3.817600 0.000000
-3.778900 0.000000
-3.740200 0.000000
-3.701500 0.000000
-3.662900 0.000000
-3.624200 0.000000
-3.585500 0.000000
-3.546800 0.000000
-3.508200 0.000000
-3.469500 0.000000
-3.430800 0.000000
-3.392100 0.000000
-3.353500 0.000000
-3.314800 0.000000
-3.276100 0.000000
-3.237400 0.000000
-3.198700 0.000000
-3.160100 0.000000
-3.121400 0.000000
-3.082700 0.000000
-3.044000 0.000000
-3.005400 0.000000
-2.966700 0.000000
-2.928000 0.000000
-2.889300 0.000000
-2.850700 0.000000
-2.812000 0.000000
-2.773300 0.000000
-2.734600 0.000000
-2.696000 0.000000
-2.657300 0.000000
-2.618600 0.000000
-2.579900 0.000000
-2.541200 0.000000
-2.502600 0.000000
-2.463900 0.000000
-2.425200 0.000000
-2.386500 0.000000
-2.347900 0.000000
-2.309200 0.000000
-2.270500 0.000000
-2.231800 0.000000
-2.193200 0.000000
-2.154500 0.000000
-2.115800 0.000000
-2.077100 0.000000
-2.038400 0.000000
-1.999800 0.000000
-1.961100 0.000000
-1.922400 0.000000
-1.883700 0.000000
-1.845100 0.000000
-1.806400 0.000000
-1.767700 0.000000
-1.729000 0.000000
-1.690400 0.000000
-1.651700 0.000000
-1.613000 0.000000
-1.574300 0.000000
-1.535600 0.000000
-1.497000 0.060900
-1.458300 0.116300
-1.419600 0.186100
-1.380900 0.228600
-1.342300 0.300700
-1.303600 0.329300
-1.264900 0.338900
-1.226200 0.342700
-1.187600 0.367700
-1.148900 0.388400
-1.110200 0.406900
-1.071500 0.422600
-1.032800 0.434500
-0.994200 0.442800
-0.955500 0.440600
-0.916800 0.433600
-0.878100 0.423600
-0.839500 0.414700
-0.800800 0.412100
-0.762100 0.412800
-0.723400 0.413600
-0.684800 0.415000
-0.646100 0.416900
-0.607400 0.419400
-0.568700 0.421500
-0.530100 0.425700
-0.491400 0.430300
-0.452700 0.435000
-0.414000 0.439700
-0.375300 0.444400
-0.336700 0.449600
-0.298000 0.454900
-0.259300 0.459500
-0.220600 0.464200
-0.182000 0.469600
-0.143300 0.475100
-0.104600 0.480600
-0.065900 0.486800
-0.027300 0.492500
0.011400 0.499000
0.050100 0.505600
0.088800 0.513000
0.127500 0.523800
0.166100 0.554200
0.204800 0.597900
0.243500 0.640300
0.282200 0.680200
0.320800 0.765800
0.359500 0.875100
0.398200 0.948100
0.436900 0.951200
0.475500 0.802300
0.514200 0.814400
0.552900 0.807600
0.591600 0.805200
0.630300 0.797600
0.668900 0.739900
0.707600 0.705700
0.746300 0.707100
0.785000 0.710800
0.823600 0.716800
0.862300 0.726300
0.901000 0.744400
0.939700 0.768800
0.978300 0.864500
1.017000 0.839800
1.055700 0.784200
1.094400 0.752500
1.133100 0.739000
1.171700 0.728500
1.210400 0.713000
1.249100 0.699800
1.287800 0.691800
1.326400 0.685600
1.365100 0.682100
1.403800 0.683000
1.442500 0.689200
1.481100 0.701300
1.519800 0.697300
1.558500 0.638600
1.597200 0.630800
1.635800 0.631500
1.674500 0.630200
1.713200 0.633100
1.751900 0.649000
1.790600 0.672200
1.829200 0.700200
1.867900 0.737400
1.906600 0.795600
1.945300 0.801100
1.983900 0.821800
2.022600 0.849500
2.061300 0.878300
2.100000 0.909500
2.138600 0.918700
2.177300 0.925100
2.216000 0.937600
2.254700 0.981600
2.293400 0.947500
2.332000 0.938100
2.370700 0.943500
2.409400 0.953700
2.448100 0.973800
2.486700 0.997400
2.525400 1.016700
2.564100 1.027800
2.602800 1.036600
2.641400 1.081200
2.680100 1.027000
2.718800 0.974700
2.757500 0.954200
2.796200 0.952300
2.834800 0.951300
2.873500 0.955800
2.912200 0.959000
2.950900 0.965800
2.989500 0.986400
3.028200 1.027500
3.066900 1.110600
3.105600 1.118300
3.144200 1.087800
3.182900 1.070200
3.221600 1.042600
3.260300 0.991100
3.299000 0.972800
3.337600 0.980800
3.376300 0.997100
3.415000 0.948700
3.453700 0.878000
3.492300 0.843100
3.531000 0.826600
3.569700 0.813300
3.608400 0.799500
3.647000 0.789900
3.685700 0.783200
3.724400 0.782000
3.763100 0.786200
3.801700 0.783600
3.840400 0.752600
3.879100 0.737100
3.917800 0.717300
3.956500 0.705400
3.995100 0.692100
4.033800 0.716300
4.072500 0.747600
4.111200 0.758200
4.149800 0.758000
4.188500 0.748400
4.227200 0.737600
4.265900 0.725100
4.304500 0.685400
4.343200 0.671500
4.381900 0.661800
4.420600 0.643100
4.459300 0.651100
4.497900 0.657400
4.536600 0.629400
4.575300 0.613000
4.614000 0.606100
4.652600 0.605900
4.691300 0.600600
4.730000 0.597700
4.768700 0.593200
4.807300 0.588800
4.846000 0.583600
4.884700 0.575600
4.923400 0.567900
4.962100 0.561100
5.000700 0.559600
5.039400 0.564200
5.078100 0.563600
5.116800 0.549700
5.155400 0.538000
5.194100 0.468600
5.232800 0.389400
5.271500 0.348200
5.310100 0.315300
5.348800 0.312200
5.387500 0.310300
5.426200 0.309200
5.464900 0.308700
5.503500 0.308500
5.542200 0.308500
5.580900 0.308700
5.619600 0.309000
5.658200 0.309300
5.696900 0.309800
5.735600 0.310300
5.774300 0.310900
5.812900 0.311600
5.851600 0.312800
5.890300 0.318200
5.929000 0.325800
5.967600 0.332200
6.006300 0.344800
6.045000 0.349900
6.083700 0.341500
6.122400 0.335900
6.161000 0.333100
6.199700 0.337100
6.238400 0.340800
6.277100 0.344400
6.315700 0.350500
6.354400 0.357100
6.393100 0.363200
6.431800 0.413500
6.470400 0.404300
6.509100 0.391300
6.547800 0.378900
6.586500 0.373000
6.625200 0.371200
6.663800 0.371900
6.702500 0.374000
6.741200 0.376400
6.779900 0.379300
6.818500 0.382600
6.857200 0.386200
6.895900 0.390000
6.934600 0.394100
6.973200 0.398500
7.011900 0.402900
7.050600 0.406800
7.089300 0.410200
7.128000 0.413200
7.166600 0.416000
7.205300 0.421000
7.244000 0.430900
7.282700 0.454400
7.321300 0.498400
7.360000 0.516600
7.398700 0.516400
7.437400 0.511400
7.476000 0.550900
7.514700 0.562000
7.553400 0.563300
7.592100 0.544500
7.630800 0.530800
7.669400 0.526500
7.708100 0.538100
7.746800 0.560900
7.785500 0.584200
7.824100 0.566600
7.862800 0.559300
7.901500 0.553000
7.940200 0.554200
7.978800 0.556100
8.017500 0.556700
8.056200 0.566600
8.094900 0.573900
8.133500 0.559300
8.172200 0.570300
8.210900 0.614700
8.249600 0.622900
8.288300 0.598500
8.326900 0.609600
8.365600 0.613200
8.404300 0.619300
8.443000 0.624700
8.481600 0.626600
8.520300 0.631900
8.559000 0.639800
8.597700 0.651500
8.636300 0.672400
8.675000 0.697900
8.713700 0.725100
8.752400 0.731200
8.791100 0.754400
8.829700 0.782600
8.868400 0.805400
8.907100 0.807100
8.945800 0.812900
8.984400 0.824000
9.023100 0.828100
9.061800 0.856200
9.100500 0.863300
9.139100 0.865800
9.177800 0.866700
9.216500 0.887200
9.255200 0.912200
9.293900 0.946200
9.332500 0.871800
9.371200 0.836300
9.409900 0.813100
9.448600 0.796200
9.487200 0.782900
9.525900 0.782200
9.564600 0.781800
9.603300 0.779400
9.641900 0.773300
9.680600 0.768600
9.719300 0.762900
9.758000 0.754900
9.796700 0.752500
9.835300 0.754400
9.874000 0.760400
9.912700 0.768200
9.951400 0.773600
9.990000 0.778400
10.028700 0.775800
10.067400 0.784600
10.106100 0.797700
10.144700 0.814800
10.183400 0.844400
10.222100 0.873800
10.260800 0.880400
10.299400 0.878800
10.338100 0.879100
10.376800 0.894200
10.415500 0.879400
10.454200 0.881400
10.492800 0.850000
10.531500 0.836800
10.570200 0.794800
10.608900 0.779000
10.647500 0.776200
10.686200 0.782700
10.724900 0.803900
10.763600 0.823100
10.802200 0.819800
10.840900 0.822100
10.879600 0.817700
10.918300 0.784600
10.957000 0.772400
10.995600 0.756700
11.034300 0.746000
11.073000 0.738000
11.111700 0.733900
11.150300 0.732900
11.189000 0.732000
11.227700 0.732600
11.266400 0.732200
11.305000 0.730400
11.343700 0.780400
11.382400 0.799300
11.421100 0.755900
11.459800 0.739600
11.498400 0.715500
11.537100 0.697500
11.575800 0.685800
11.614500 0.676300
11.653100 0.690500
11.691800 0.725500
11.730500 0.731300
11.769200 0.737000
11.807800 0.741600
11.846500 0.763300
11.885200 0.767900
11.923900 0.780000
11.962600 0.803900
12.001200 0.835400
12.039900 0.840900
12.078600 0.854500
12.117300 0.883600
12.155900 0.930800
12.194600 1.007200
12.233300 1.047800
12.272000 1.044500
12.310600 1.041500
12.349300 1.037000
12.388000 1.029600
12.426700 1.080100
12.465300 0.996800
12.504000 0.991900
12.542700 0.991900
12.581400 0.992800
12.620100 0.971100
12.658700 0.955400
12.697400 0.943900
12.736100 0.940600
12.774800 0.944900
12.813400 0.951700
12.852100 0.963200
12.890800 0.979500
12.929500 0.990400
12.968100 0.993500
13.006800 0.992200
13.045500 0.992800
13.084200 0.990400
13.122900 0.989900
13.161500 0.993900
13.200200 0.990500
13.238900 0.992200
13.277600 1.001900
13.316200 1.012800
13.354900 1.043900
13.393600 1.036700
13.432300 1.043500
13.470900 1.053900
13.509600 1.061600
13.548300 1.059500
13.587000 1.060600
13.625700 1.078200
13.664300 1.117100
13.703000 1.154000
13.741700 1.144500
13.780400 1.149300
13.819000 1.174400
13.857700 1.186700
13.896400 1.203300
13.935100 1.220800
13.973700 1.240200
14.012400 1.253900
14.051100 1.231300
14.089800 1.212100
14.128500 1.210200
14.167100 1.230500
14.205800 1.264500
14.244500 1.291200
14.283200 1.317000
14.321800 1.338500
14.360500 1.366600
14.399200 1.406500
14.437900 1.462300
14.476500 1.492500
14.515200 1.508000
14.553900 1.535200
14.592600 1.539500
14.631200 1.509300
14.669900 1.441300
14.708600 1.394700
14.747300 1.357300
14.786000 1.338400
14.824600 1.287300
14.863300 1.258500
14.902000 1.242300
14.940700 1.230500
14.979300 1.210300
15.018000 1.191000
15.056700 1.166800
15.095400 1.130800
15.134000 1.107300
15.172700 1.077600
15.211400 1.062900
15.250100 1.053000
15.288800 1.055800
15.327400 1.048000
15.366100 1.037700
15.404800 1.034600
15.443500 1.022600
15.482100 1.021400
15.520800 1.033600
15.559500 0.952500
15.598200 0.842600
15.636800 0.864300
15.675500 0.891200
15.714200 0.931000
15.752900 0.946400
15.791600 0.936400
15.830200 0.945800
15.868900 0.970000
15.907600 1.001400
15.946300 1.043000
15.984900 1.100700
16.023600 1.185900
16.062300 1.267800
16.101000 1.211300
16.139600 1.178200
16.178300 1.169700
16.217000 1.172500
16.255700 1.173200
16.294400 1.212100
16.333000 1.204500
16.371700 1.210000
16.410400 1.250100
16.449100 1.222900
16.487700 1.237800
16.526400 1.209300
16.565100 1.231300
16.603800 1.269300
16.642400 1.318000
16.681100 1.392900
16.719800 1.444300
16.758500 1.510500
16.797100 1.601200
16.835800 1.601000
16.874500 1.609000
16.913200 1.570200
16.951900 1.565400
16.990500 1.426800
17.029200 1.405800
17.067900 1.392100
17.106600 1.385700
17.145200 1.386100
17.183900 1.390100
17.222600 1.386300
17.261300 1.394400
17.299900 1.421100
17.338600 1.358600
17.377300 1.351300
17.416000 1.349300
17.454700 1.342800
17.493300 1.337800
17.532000 1.335300
17.570700 1.335600
17.609400 1.340000
17.648000 1.351000
17.686700 1.368400
17.725400 1.376700
17.764100 1.387700
17.802700 1.394700
17.841400 1.388300
17.880100 1.391700
17.918800 1.399900
17.957500 1.421900
17.996100 1.447400
18.034800 1.463200
18.073500 1.476100
18.112200 1.477800
18.150800 1.473900
18.189500 1.458900
18.228200 1.444600
18.266900 1.426400
18.305500 1.416000
18.344200 1.404500
18.382900 1.391400
18.421600 1.382700
18.460300 1.383000
18.498900 1.387000
18.537600 1.396700
18.576300 1.387600
18.615000 1.374000
18.653600 1.386200
18.692300 1.400200
18.731000 1.398500
18.769700 1.397700
18.808300 1.379900
18.847000 1.351900
18.885700 1.326000
18.924400 1.308500
18.963000 1.250400
19.001700 1.228400
19.040400 1.232300
19.079100 1.242700
19.117800 1.243500
19.156400 1.280700
19.195100 1.289500
19.233800 1.311500
19.272500 1.312900
19.311100 1.317700
19.349800 1.286100
19.388500 1.235700
19.427200 1.181400
19.465800 1.147400
19.504500 1.123000
19.543200 1.096400
19.581900 1.084300
19.620600 1.069700
19.659200 1.035000
19.697900 1.037900
19.736600 1.052100
19.775300 1.072900
19.813900 1.101100
19.852600 1.131900
19.891300 1.163100
19.930000 1.193300
19.968600 1.244800
20.007300 1.314100
20.046000 1.395400
20.084700 1.494400
20.123400 1.576800
20.162000 1.608200
20.200700 1.656800
20.239400 1.710900
20.278100 1.759900
20.316700 1.837300
20.355400 1.915400
20.394100 1.912500
20.432800 1.903700
20.471400 1.867400
20.510100 1.789400
20.548800 1.700100
20.587500 1.616200
20.626200 1.539900
20.664800 1.469500
20.703500 1.432300
20.742200 1.416100
20.780900 1.413100
20.819500 1.397600
20.858200 1.390400
20.896900 1.390700
20.935600 1.393700
20.974200 1.374800
21.012900 1.369600
21.051600 1.380200
21.090300 1.398500
21.128900 1.412400
21.167600 1.443600
21.206300 1.451400
21.245000 1.484100
21.283700 1.504000
21.322300 1.542900
21.361000 1.568200
21.399700 1.549900
21.438400 1.529500
21.477000 1.520600
21.515700 1.505600
21.554400 1.501400
21.593100 1.481400
21.631700 1.447900
21.670400 1.407100
21.709100 1.384600
21.747800 1.372300
21.786500 1.400500
21.825100 1.416800
21.863800 1.422400
21.902500 1.405500
21.941200 1.424400
21.979800 1.441800
22.018500 1.447700
22.057200 1.445700
22.095900 1.440900
22.134500 1.424000
22.173200 1.412600
22.211900 1.411200
22.250600 1.443700
22.289300 1.477700
22.327900 1.482300
22.366600 1.494500
22.405300 1.504000
22.444000 1.512200
22.482600 1.528500
22.521300 1.547200
22.560000 1.573200
22.598700 1.614900
22.637300 1.640000
22.676000 1.617200
22.714700 1.595700
22.753400 1.584800
22.792100 1.573700
22.830700 1.562300
22.869400 1.548200
22.908100 1.540000
22.946800 1.548100
22.985400 1.574300
23.024100 1.624700
23.062800 1.659300
23.101500 1.671800
23.140100 1.683400
23.178800 1.679800
23.217500 1.660000
23.256200 1.630000
23.294800 1.602200
23.333500 1.569800
23.372200 1.535300
23.410900 1.500600
23.449600 1.491300
23.488200 1.543800
23.526900 1.596000
23.565600 1.617400
23.604300 1.619000
23.642900 1.605600
23.681600 1.602100
23.720300 1.594900
23.759000 1.583800
23.797600 1.578300
23.836300 1.569200
23.875000 1.562600
23.913700 1.555400
23.952400 1.562200
23.991000 1.585400
24.029700 1.619700
24.068400 1.638000
24.107100 1.645200
24.145700 1.657600
24.184400 1.643000
24.223100 1.624500
24.261800 1.600800
24.300400 1.586000
24.339100 1.571900
24.377800 1.567500
24.416500 1.566400
24.455200 1.577300
24.493800 1.610600
24.532500 1.605200
24.571200 1.626400
24.609900 1.654500
24.648500 1.649500
24.687200 1.668200
24.725900 1.673300
24.764600 1.660400
24.803200 1.650700
24.841900 1.650900
24.880600 1.680300
24.919300 1.691300
24.958000 1.705400
24.996600 1.726800
25.035300 1.754200
25.074000 1.769300
25.112700 1.781100
25.151300 1.787300
25.190000 1.792400
25.228700 1.764300
25.267400 1.751500
25.306000 1.744500
25.344700 1.763300
25.383400 1.776600
25.422100 1.775500
25.460700 1.770600
25.499400 1.752700
25.538100 1.737300
25.576800 1.702800
25.615500 1.680200
25.654100 1.660800
25.692800 1.622700
25.731500 1.608100
25.770200 1.601900
25.808800 1.568000
25.847500 1.519400
25.886200 1.454600
25.924900 1.416300
25.963500 1.402500
26.002200 1.408900
26.040900 1.417500
26.079600 1.451900
26.118300 1.481900
26.156900 1.520900
26.195600 1.569200
26.234300 1.605000
26.273000 1.643000
26.311600 1.691100
26.350300 1.749900
26.389000 1.766800
26.427700 1.764300
26.466300 1.744300
26.505000 1.751400
26.543700 1.749600
26.582400 1.755500
26.621100 1.764100
26.659700 1.752900
26.698400 1.748200
26.737100 1.765800
26.775800 1.807600
26.814400 1.794300
26.853100 1.770900
26.891800 1.750900
26.930500 1.736800
26.969100 1.722800
27.007800 1.711600
27.046500 1.708800
27.085200 1.709500
27.123900 1.721300
27.162500 1.752700
27.201200 1.796900
27.239900 1.832700
27.278600 1.877200
27.317200 1.923700
27.355900 1.935700
27.394600 1.930600
27.433300 1.904400
27.471900 1.875600
27.510600 1.847100
27.549300 1.855900
27.588000 1.814100
27.626600 1.796700
27.665300 1.757000
27.704000 1.738000
27.742700 1.727200
27.781400 1.726900
27.820000 1.726600
27.858700 1.719400
27.897400 1.727400
27.936100 1.730400
27.974700 1.732000
28.013400 1.738700
28.052100 1.736500
28.090800 1.696900
28.129400 1.653700
28.168100 1.636100
28.206800 1.635700
28.245500 1.640600
28.284200 1.638100
28.322800 1.617900
28.361500 1.634300
28.400200 1.638900
28.438900 1.626100
28.477500 1.645800
28.516200 1.667800
28.554900 1.681400
28.593600 1.726100
28.632200 1.747500
28.670900 1.777900
28.709600 1.816200
28.748300 1.851400
28.787000 1.881400
28.825600 1.901500
28.864300 1.903100
28.903000 1.907000
28.941700 1.889600
28.980300 1.874600
29.019000 1.865100
29.057700 1.865800
29.096400 1.884900
29.135000 1.895200
29.173700 1.914500
29.212400 1.939200
29.251100 1.910300
29.289800 1.901000
29.328400 1.904700
29.367100 1.899700
29.405800 1.882700
29.444500 1.829900
29.483100 1.785200
29.521800 1.749700
29.560500 1.749900
29.599200 1.734900
29.637800 1.720800
29.676500 1.760800
29.715200 1.728300
29.753900 1.732900
29.792500 1.761000
29.831200 1.771400
29.869900 1.776200
29.908600 1.746900
29.947300 1.740200
29.985900 1.738800
30.024600 1.726700
30.063300 1.716300
30.102000 1.731100
30.140600 1.754700
30.179300 1.805700
30.218000 1.793500
30.256700 1.834800
30.295300 1.894200
30.334000 1.964400
30.372700 2.064800
30.411400 2.096100
30.450100 2.047400
30.488700 2.028500
30.527400 1.974100
30.566100 1.914500
30.604800 1.902700
30.643400 1.895600
30.682100 1.908600
30.720800 1.935000
30.759500 1.976100
30.798100 1.992000
30.836800 2.031500
30.875500 2.089400
30.914200 2.133200
30.952900 2.127500
30.991500 2.107700
31.030200 2.107200
31.068900 2.091900
31.107600 2.068400
31.146200 2.028800
31.184900 1.987200
31.223600 1.923100
31.262300 1.864500
31.300900 1.790100
31.339600 1.800100
31.378300 1.790700
31.417000 1.780700
31.455700 1.805300
31.494300 1.832500
31.533000 1.870500
31.571700 1.890600
31.610400 1.925200
31.649000 1.994200
31.687700 1.911600
31.726400 1.909300
31.765100 1.941200
31.803700 1.953700
31.842400 1.959000
31.881100 1.938700
31.919800 1.912300
31.958400 1.860600
31.997100 1.817100
32.035800 1.771700
32.074500 1.742100
32.113200 1.724600
32.151800 1.712100
32.190500 1.733100
32.229200 1.714000
32.267900 1.725500
32.306500 1.765000
32.345200 1.786900
32.383900 1.801300
32.422600 1.832400
32.461200 1.817700
32.499900 1.836900
32.538600 1.836700
32.577300 1.778800
32.616000 1.756600
32.654600 1.721900
32.693300 1.702700
32.732000 1.680800
32.770700 1.688400
32.809300 1.665000
32.848000 1.655500
32.886700 1.658900
32.925400 1.688800
32.964000 1.769200
33.002700 1.787900
33.041400 1.794800
33.080100 1.806200
33.118800 1.811200
33.157400 1.820100
33.196100 1.832500
33.234800 1.840200
33.273500 1.781500
33.312100 1.748400
33.350800 1.736000
33.389500 1.723500
33.428200 1.721500
33.466800 1.713300
33.505500 1.691900
33.544200 1.688300
33.582900 1.707000
33.621600 1.737000
33.660200 1.739100
33.698900 1.737300
33.737600 1.727600
33.776300 1.749800
33.814900 1.777300
33.853600 1.835300
33.892300 1.927300
33.931000 1.992400
33.969600 2.073000
34.008300 2.134800
34.047000 2.151100
34.085700 2.210200
34.124300 2.254100
34.163000 2.260300
34.201700 2.271300
34.240400 2.270300
34.279100 2.264100
34.317700 2.278800
34.356400 2.212900
34.395100 2.145600
34.433800 2.082400
34.472400 2.035700
34.511100 1.952500
34.549800 1.867100
34.588500 1.817200
34.627100 1.786700
34.665800 1.796100
34.704500 1.743300
34.743200 1.720900
34.781900 1.730700
34.820500 1.729000
34.859200 1.743700
34.897900 1.751100
34.936600 1.823400
34.975200 1.906300
35.013900 1.836400
35.052600 1.755100
35.091300 1.715100
35.129900 1.688700
35.168600 1.653400
35.207300 1.610800
35.246000 1.610500
35.284700 1.564000
35.323300 1.653700
35.362000 1.851800
35.400700 1.841100
35.439400 1.804800
35.478000 1.807200
35.516700 1.800900
35.555400 1.800700
35.594100 1.805300
35.632700 1.813400
35.671400 1.809100
35.710100 1.826300
35.748800 1.843900
35.787500 1.884400
35.826100 1.927100
35.864800 1.906400
35.903500 1.889800
35.942200 1.894600
35.980800 1.916500
36.019500 1.848400
36.058200 1.820600
36.096900 1.804400
36.135500 1.777300
36.174200 1.783400
36.212900 1.799700
36.251600 1.827400
36.290200 1.843000
36.328900 1.836800
36.367600 1.843600
36.406300 1.850800
36.445000 1.848100
36.483600 1.895300
36.522300 1.973300
36.561000 2.064400
36.599700 1.973900
36.638300 1.929800
36.677000 1.924400
36.715700 1.955000
36.754400 2.013300
36.793000 2.088800
36.831700 2.103800
36.870400 2.129800
36.909100 2.054900
36.947800 2.093700
36.986400 2.139100
37.025100 2.119000
37.063800 2.094500
37.102500 2.034400
37.141100 1.967300
37.179800 1.926600
37.218500 1.939900
37.257200 1.961800
37.295800 1.913000
37.334500 1.910000
37.373200 1.911000
37.411900 1.942200
37.450600 1.916100
37.489200 1.877100
37.527900 1.892200
37.566600 1.908400
37.605300 1.897300
37.643900 1.780000
37.682600 1.731200
37.721300 1.731300
37.760000 1.733000
37.798600 1.764700
37.837300 1.820200
37.876000 1.928800
37.914700 1.963000
37.953400 2.067400
37.992000 2.089300
38.030700 1.915000
38.069400 1.870000
38.108100 1.765900
38.146700 1.704900
38.185400 1.675300
38.224100 1.624100
38.262800 1.571400
38.301400 1.569400
38.340100 1.601900
38.378800 1.624000
38.417500 1.668100
38.456100 1.701100
38.494800 1.754200
38.533500 1.799900
38.572200 1.807700
38.610900 1.815600
38.649500 1.829100
38.688200 1.819100
38.726900 1.796000
38.765600 1.787900
38.804200 1.782500
38.842900 1.786600
38.881600 1.826600
38.920300 1.845700
38.958900 1.874400
38.997600 1.893100
39.036300 1.916300
39.075000 1.900000
39.113700 1.922500
39.152300 1.917300
39.191000 1.900100
39.229700 1.911200
39.268400 1.908800
39.307000 1.902400
39.345700 1.912900
39.384400 1.923400
39.423100 1.939600
39.461700 1.996800
39.500400 2.013300
39.539100 2.006200
39.577800 2.002200
39.616500 1.996400
39.655100 2.046300
39.693800 1.993300
39.732500 1.970500
39.771200 1.982100
39.809800 1.928000
39.848500 1.917600
39.887200 1.955100
39.925900 2.011700
39.964500 2.044000
40.003200 2.066600
40.041900 2.084700
40.080600 2.128300
40.119300 2.179800
40.157900 2.205600
40.196600 2.213100
40.235300 2.205700
40.274000 2.204400
40.312600 2.238600
40.351300 2.277700
40.390000 2.224800
40.428700 2.205900
40.467300 2.180000
40.506000 2.148200
40.544700 2.077300
40.583400 1.990900
40.622000 1.930700
40.660700 1.876200
40.699400 1.836700
40.738100 1.804800
40.776800 1.765500
40.815400 1.744200
40.854100 1.732500
40.892800 1.740200
40.931500 1.748800
40.970100 1.795600
41.008800 1.870800
41.047500 1.915700
41.086200 1.978800
41.124800 2.101600
41.163500 2.173800
41.202200 2.188900
41.240900 2.191200
41.279600 2.199200
41.318200 2.222200
41.356900 1.935500
41.395600 1.811500
41.434300 1.724200
41.472900 1.680400
41.511600 1.664000
41.550300 1.670200
41.589000 1.694100
41.627600 1.726100
41.666300 1.737600
41.705000 1.758900
41.743700 1.749300
41.782400 1.773000
41.821000 1.795600
41.859700 1.840400
41.898400 1.870600
41.937100 1.871300
41.975700 1.870600
42.014400 1.883300
42.053100 1.896800
42.091800 1.913300
42.130400 1.991600
42.169100 2.087000
42.207800 2.197900
42.246500 2.268600
42.285200 2.272800
42.323800 2.233000
42.362500 2.165000
42.401200 2.154200
42.439900 2.045200
42.478500 2.007100
42.517200 2.005500
42.555900 2.039000
42.594600 2.131700
42.633200 2.105200
42.671900 2.132800
42.710600 2.149400
42.749300 2.149500
42.787900 2.164600
42.826600 2.162100
42.865300 2.142300
42.904000 2.132600
42.942700 2.117900
42.981300 2.097000
43.020000 2.088400
43.058700 2.081000
43.097400 2.105000
43.136000 2.143100
43.174700 2.116800
43.213400 2.121700
43.252100 2.133600
43.290700 2.127700
43.329400 2.220700
43.368100 2.162400
43.406800 2.103700
43.445500 2.040300
43.484100 1.983700
43.522800 1.965000
43.561500 1.939700
43.600200 1.953800
43.638800 1.986100
43.677500 2.027300
43.716200 2.070700
43.754900 2.094100
43.793500 2.148000
43.832200 2.246000
43.870900 2.250500
43.909600 2.219600
43.948300 2.188900
43.986900 2.147900
44.025600 2.080100
44.064300 2.057500
44.103000 2.053000
44.141600 2.052100
44.180300 2.044900
44.219000 2.028700
44.257700 2.023300
44.296300 2.005400
44.335000 2.055400
44.373700 2.068300
44.412400 2.150900
44.451100 2.264900
44.489700 2.293600
44.528400 2.404400
44.567100 2.342300
44.605800 2.314500
44.644400 2.281600
44.683100 2.268500
44.721800 2.273600
44.760500 2.257300
44.799100 2.214500
44.837800 2.175500
44.876500 2.164300
44.915200 2.128300
44.953800 2.130900
44.992500 2.143500
45.031200 2.154400
45.069900 2.161000
45.108600 2.187300
45.147200 2.151200
45.185900 2.168000
45.224600 2.165300
45.263300 2.177700
45.301900 2.222000
45.340600 2.268900
45.379300 2.283300
45.418000 2.299800
45.456600 2.339900
45.495300 2.428700
45.534000 2.485100
45.572700 2.507000
45.611400 2.452000
45.650000 2.468300
45.688700 2.297700
45.727400 2.237500
45.766100 2.235900
45.804700 2.137900
45.843400 2.080700
45.882100 2.056500
45.920800 2.050200
45.959400 2.031700
45.998100 2.010800
46.036800 2.059300
46.075500 2.002900
46.114200 2.003900
46.152800 1.986900
46.191500 1.949000
46.230200 1.909700
46.268900 1.880300
46.307500 1.831500
46.346200 1.824300
46.384900 1.842700
46.423600 1.912700
46.462200 1.905800
46.500900 1.903900
46.539600 1.872900
46.578300 1.863000
46.617000 1.835200
46.655600 1.825000
46.694300 1.768500
46.733000 1.740800
46.771700 1.755100
46.810300 1.769900
46.849000 1.820400
46.887700 1.855300
46.926400 1.896600
46.965000 1.972800
47.003700 2.044300
47.042400 2.144600
47.081100 2.173200
47.119700 2.025400
47.158400 2.018500
47.197100 2.072200
47.235800 2.147800
47.274500 2.203200
47.313100 2.209000
47.351800 2.247200
47.390500 2.285800
47.429200 2.187700
47.467800 2.080900
47.506500 2.006700
47.545200 1.960300
47.583900 1.928800
47.622500 1.849300
47.661200 1.758900
47.699900 1.682000
47.738600 1.640700
47.777300 1.588100
47.815900 1.632700
47.854600 1.657300
47.893300 1.672700
47.932000 1.737900
47.970600 1.817500
48.009300 1.896000
48.048000 1.976100
48.086700 2.024300
48.125300 2.093200
48.164000 2.151600
48.202700 2.241300
48.241400 2.352000
48.280100 2.410900
48.318700 2.446500
48.357400 2.456000
48.396100 2.378400
48.434800 2.239200
48.473400 2.117700
48.512100 2.020800
48.550800 1.946200
48.589500 1.922200
48.628100 1.959200
48.666800 1.876500
48.705500 1.782600
48.744200 1.743100
48.782900 1.738800
48.821500 1.763800
48.860200 1.814000
48.898900 1.841400
48.937600 1.912600
48.976200 1.947700
49.014900 1.939900
49.053600 1.957100
49.092300 1.968500
49.130900 2.008800
49.169600 2.032400
49.208300 2.057000
49.247000 2.078200
49.285600 2.118600
49.324300 2.140400
49.363000 2.112600
49.401700 2.079700
49.440400 2.054800
49.479000 2.050900
49.517700 2.116300
49.556400 2.097500
49.595100 2.073200
49.633700 2.053400
49.672400 1.987500
49.711100 1.981700
49.749800 1.944700
49.788400 1.897500
49.827100 1.870300
49.865800 1.829200
49.904500 1.837800
49.943200 1.898300
49.981800 1.937100
50.020500 1.906200
50.059200 1.917400
50.097900 1.949100
50.136500 1.970400
50.175200 1.979400
50.213900 2.020300
50.252600 2.019100
50.291200 2.042200
50.329900 2.078500
50.368600 2.169300
50.407300 2.250200
50.446000 2.286100
50.484600 2.302800
50.523300 2.280400
50.562000 2.265900
50.600700 2.203100
50.639300 2.180800
50.678000 2.140500
50.716700 2.071600
50.755400 2.015400
50.794000 1.926700
50.832700 1.885700
50.871400 1.876000
50.910100 1.895800
50.948800 1.957800
50.987400 2.013800
51.026100 2.076900
51.064800 2.071100
51.103500 2.078300
51.142100 2.077800
51.180800 2.058400
51.219500 2.053500
51.258200 2.012100
51.296800 1.969500
51.335500 1.958400
51.374200 2.001100
51.412900 2.054800
51.451500 2.101500
51.490200 2.151400
51.528900 2.218700
51.567600 2.202900
51.606300 2.100300
51.644900 2.060500
51.683600 2.007600
51.722300 1.966300
51.761000 1.953000
51.799600 1.955900
51.838300 2.005600
51.877000 2.024900
51.915700 2.042300
51.954300 2.095700
51.993000 2.135300
52.031700 2.188500
52.070400 2.254100
52.109100 2.356200
52.147700 2.309300
52.186400 2.343500
52.225100 2.347800
52.263800 2.307100
52.302400 2.265000
52.341100 2.257200
52.379800 2.194200
52.418500 2.128200
52.457100 2.032400
52.495800 2.022400
52.534500 2.050300
52.573200 2.049500
52.611900 2.036700
52.650500 2.008200
52.689200 1.953000
52.727900 2.033400
52.766600 2.002900
52.805200 1.962700
52.843900 1.934100
52.882600 1.933200
52.921300 1.921900
52.959900 1.876100
52.998600 1.936100
53.037300 2.051500
53.076000 2.077000
53.114700 2.010900
53.153300 2.108300
53.192000 2.192800
53.230700 2.247000
53.269400 2.321800
53.308000 2.375300
53.346700 2.415300
53.385400 2.455200
53.424100 2.498100
53.462700 2.585400
53.501400 2.645200
53.540100 2.517100
53.578800 2.429000
53.617400 2.371700
53.656100 2.345200
53.694800 2.204100
53.733500 2.132100
53.772200 2.110900
53.810800 2.113200
53.849500 2.107400
53.888200 2.112700
53.926900 2.150800
53.965500 2.220700
54.004200 2.286100
54.042900 2.344900
54.081600 2.367300
54.120200 2.350500
54.158900 2.356800
54.197600 2.422200
54.236300 2.421400
54.275000 2.464300
54.313600 2.450300
54.352300 2.430500
54.391000 2.479900
54.429700 2.533600
54.468300 2.477000
54.507000 2.412700
54.545700 2.406100
54.584400 2.369300
54.623000 2.344600
54.661700 2.327200
54.700400 2.313800
54.739100 2.299400
54.777800 2.313700
54.816400 2.279200
54.855100 2.260600
54.893800 2.225000
54.932500 2.170500
54.971100 2.150200
55.009800 2.168600
55.048500 2.183900
55.087200 2.184300
55.125800 2.184900
55.164500 2.165200
55.203200 2.150500
55.241900 2.144100
55.280600 2.158500
55.319200 2.184600
55.357900 2.145200
55.396600 2.080000
55.435300 2.050400
55.473900 2.023000
55.512600 1.988700
55.551300 1.970700
55.590000 1.944900
55.628600 1.954700
55.667300 2.017700
55.706000 2.060100
55.744700 2.153500
55.783300 2.226900
55.822000 2.276300
55.860700 2.348200
55.899400 2.407100
55.938100 2.442900
55.976700 2.595900
56.015400 2.499600
56.054100 2.456100
56.092800 2.426300
56.131400 2.365900
56.170100 2.321200
56.208800 2.299900
56.247500 2.298500
56.286100 2.333200
56.324800 2.208800
56.363500 2.154300
56.402200 2.129000
56.440900 2.131600
56.479500 2.129500
56.518200 2.136100
56.556900 2.167900
56.595600 2.200400
56.634200 2.205500
56.672900 2.193800
56.711600 2.169200
56.750300 2.145000
56.788900 2.101400
56.827600 2.062900
56.866300 2.040500
56.905000 2.032300
56.943700 2.037300
56.982300 2.053700
57.021000 2.070600
57.059700 2.084800
57.098400 2.120300
57.137000 2.109500
57.175700 2.110700
57.214400 2.141500
57.253100 2.160200
57.291700 2.159600
57.330400 2.183300
57.369100 2.233400
57.407800 2.218500
57.446500 2.176300
57.485100 2.133600
57.523800 2.129100
57.562500 2.100700
57.601200 2.088800
57.639800 2.032700
57.678500 1.971200
57.717200 1.947800
57.755900 1.943100
57.794500 1.955800
57.833200 1.947500
57.871900 1.928300
57.910600 1.938700
57.949200 1.976300
57.987900 2.005500
58.026600 2.026700
58.065300 2.037700
58.104000 2.028900
58.142600 1.998900
58.181300 1.971100
58.220000 1.976400
58.258700 1.999900
58.297300 2.009100
58.336000 2.016900
58.374700 1.985400
58.413400 1.915400
58.452000 1.850300
58.490700 1.761600
58.529400 1.641900
58.568100 1.593900
58.606800 1.568600
58.645400 1.560400
58.684100 1.563800
58.722800 1.530300
58.761500 1.461700
58.800100 1.344500
58.838800 1.330500
58.877500 1.305300
58.916200 1.306000
58.954800 1.314200
58.993500 1.300700
59.032200 1.227400
59.070900 1.171600
59.109600 1.139800
59.148200 1.109900
59.186900 1.086700
59.225600 1.079600
59.264300 1.069300
59.302900 1.058000
59.341600 1.011600
59.380300 0.937600
59.419000 0.872500
59.457600 0.793000
59.496300 0.738100
59.535000 0.691600
59.573700 0.649400
59.612400 0.619400
59.651000 0.569600
59.689700 0.520300
59.728400 0.483700
59.767100 0.450600
59.805700 0.420000
59.844400 0.393800
59.883100 0.367500
59.921800 0.341000
59.960400 0.313800
59.999100 0.290900
60.037800 0.269900
60.076500 0.251400
60.115100 0.235000
60.153800 0.220000
60.192500 0.200600
60.231200 0.182800
60.269900 0.160900
60.308500 0.132300
60.347200 0.101200
60.385900 0.075500
60.424600 0.057300
60.463200 0.045600
60.501900 0.037000
60.540600 0.030000
60.579300 0.024300
60.617900 0.017500
60.656600 0.016100
60.695300 0.015300
60.734000 0.014600
60.772700 0.014000
60.811300 0.013300
60.850000 0.012700
60.888700 0.012100
60.927400 0.011500
60.966000 0.010800
61.004700 0.010200
61.043400 0.009600
61.082100 0.009000
61.120700 0.008400
61.159400 0.007700
61.198100 0.007000
61.236800 0.005400
61.275500 0.003100
61.314100 0.000000
61.352800 0.000000
61.391500 0.000000
61.430200 0.000000
61.468800 0.000000
61.507500 0.000000
61.546200 0.000000
61.584900 0.000000
61.623500 0.000000
61.662200 0.000000
61.700900 0.000000
61.739600 0.000000
61.778300 0.000000
61.816900 0.000000
61.855600 0.000000
61.894300 0.000000
61.933000 0.000000
61.971600 0.000000
62.010300 0.000000
62.049000 0.000000
62.087700 0.000000
62.126300 0.000000
62.165000 0.000000
62.203700 0.000000
62.242400 0.000000
62.281000 0.000000
62.319700 0.000000
62.358400 0.000000
62.397100 0.000000
62.435800 0.000000
62.474400 0.000000
62.513100 0.000000
62.551800 0.000000
62.590500 0.000000
62.629100 0.000000
62.667800 0.000000
62.706500 0.000000
62.745200 0.000000
62.783800 0.000000
62.822500 0.000000
62.861200 0.000000
62.899900 0.000000
62.938600 0.000000
62.977200 0.000000
63.015900 0.000000
63.054600 0.000000
63.093300 0.000000
63.131900 0.000000
63.170600 0.000000
63.209300 0.000000
63.248000 0.000000
63.286600 0.000000
63.325300 0.000000
63.364000 0.000000
63.402700 0.000000
63.441400 0.000000
63.480000 0.000000
63.518700 0.000000
63.557400 0.000000
63.596100 0.000000
63.634700 0.000000
63.673400 0.000000
63.712100 0.000000
63.750800 0.000000
63.789400 0.000000
63.828100 0.000000
63.866800 0.000000
63.905500 0.000000
63.944200 0.000000
63.982800 0.000000
64.021500 0.000000
64.060200 0.000000
64.098900 0.000000
64.137500 0.000000
64.176200 0.000000
64.214900 0.000000
64.253600 0.000000
64.292200 0.000000
64.330900 0.000000
64.369600 0.000000
64.408300 0.000000
64.446900 0.000000
64.485600 0.000000
64.524300 0.000000
64.563000 0.000000
64.601700 0.000000
64.640300 0.000000
64.679000 0.000000
64.717700 0.000000
64.756400 0.000000
64.795000 0.000000
64.833700 0.000000
e
