set title 'mp-1184687 - Density of States'
set xlabel 'Energy (eV)'
set ylabel 'DOS (states/eV)'
set grid
set xrange [-10:10]
set yrange [0:28.672]
set xzeroaxis lt -1
set terminal png size 800,600
set output 'mp-1184687_dos_gnuplot.png'
plot '-' using 1:2 with lines title 'DOS'
-8.474900 0.000000
-8.450400 0.000000
-8.425900 0.000000
-8.401400 0.000000
-8.376900 0.000000
-8.352300 0.000000
-8.327800 0.000000
-8.303300 0.000000
-8.278800 0.000000
-8.254300 0.000000
-8.229700 0.000000
-8.205200 0.000000
-8.180700 0.000000
-8.156200 0.000000
-8.131700 0.000000
-8.107100 0.000000
-8.082600 0.000000
-8.058100 0.000000
-8.033600 0.000000
-8.009000 0.000000
-7.984500 0.000000
-7.960000 0.000000
-7.935500 0.000000
-7.911000 0.000000
-7.886400 0.000000
-7.861900 0.000000
-7.837400 0.000000
-7.812900 0.000000
-7.788400 0.000000
-7.763800 0.000000
-7.739300 0.000000
-7.714800 0.000000
-7.690300 0.000000
-7.665700 0.000000
-7.641200 0.000000
-7.616700 0.000000
-7.592200 0.000000
-7.567700 0.000000
-7.543100 0.000000
-7.518600 0.000000
-7.494100 0.000000
-7.469600 0.000000
-7.445100 0.000000
-7.420500 0.000000
-7.396000 0.000000
-7.371500 0.000000
-7.347000 0.000000
-7.322400 0.000000
-7.297900 0.000000
-7.273400 0.000000
-7.248900 0.000000
-7.224400 0.000000
-7.199800 0.000000
-7.175300 0.000000
-7.150800 0.000000
-7.126300 0.000000
-7.101800 0.000000
-7.077200 0.000000
-7.052700 0.000000
-7.028200 0.000000
-7.003700 0.000000
-6.979200 0.000000
-6.954600 0.000000
-6.930100 0.000000
-6.905600 0.000000
-6.881100 0.000000
-6.856500 0.000000
-6.832000 0.000000
-6.807500 0.000000
-6.783000 0.000000
-6.758500 0.000000
-6.733900 0.000000
-6.709400 0.000000
-6.684900 0.000000
-6.660400 0.000000
-6.635900 0.000000
-6.611300 0.000000
-6.586800 0.000000
-6.562300 0.000000
-6.537800 0.000000
-6.513200 0.000000
-6.488700 0.000000
-6.464200 0.000000
-6.439700 0.000000
-6.415200 0.000000
-6.390600 0.000000
-6.366100 0.000000
-6.341600 0.000000
-6.317100 0.000000
-6.292600 0.000000
-6.268000 0.000000
-6.243500 0.000200
-6.219000 0.034200
-6.194500 0.131100
-6.169900 0.877800
-6.145400 2.910000
-6.120900 8.938200
-6.096400 17.736700
-6.071900 25.880900
-6.047300 23.408800
-6.022800 13.151900
-5.998300 9.193400
-5.973800 10.938100
-5.949300 13.789600
-5.924700 15.211200
-5.900200 16.930200
-5.875700 19.936200
-5.851200 23.458600
-5.826700 25.688900
-5.802100 21.615200
-5.777600 20.024900
-5.753100 19.076600
-5.728600 19.315100
-5.704000 13.216700
-5.679500 8.921000
-5.655000 10.132300
-5.630500 16.401500
-5.606000 15.787600
-5.581400 14.180500
-5.556900 13.441400
-5.532400 19.973400
-5.507900 22.480600
-5.483400 21.027500
-5.458800 23.601300
-5.434300 18.821700
-5.409800 19.430700
-5.385300 20.012200
-5.360700 16.723100
-5.336200 19.330800
-5.311700 21.952000
-5.287200 25.206600
-5.262700 25.845800
-5.238100 26.065000
-5.213600 21.703800
-5.189100 20.639500
-5.164600 16.568700
-5.140100 13.355700
-5.115500 10.369400
-5.091000 7.522600
-5.066500 7.636300
-5.042000 8.743800
-5.017400 9.649700
-4.992900 11.178400
-4.968400 10.664600
-4.943900 6.646900
-4.919400 2.716800
-4.894800 0.547000
-4.870300 0.518200
-4.845800 0.500100
-4.821300 0.493200
-4.796800 0.487700
-4.772200 0.481800
-4.747700 0.475900
-4.723200 0.469900
-4.698700 0.461900
-4.674200 0.452500
-4.649600 0.444800
-4.625100 0.439000
-4.600600 0.435200
-4.576100 0.433000
-4.551500 0.432000
-4.527000 0.431600
-4.502500 0.430500
-4.478000 0.438100
-4.453500 0.444800
-4.428900 0.447800
-4.404400 0.450700
-4.379900 0.453700
-4.355400 0.458800
-4.330900 0.464700
-4.306300 0.470400
-4.281800 0.475400
-4.257300 0.479600
-4.232800 0.483400
-4.208200 0.487500
-4.183700 0.491500
-4.159200 0.495100
-4.134700 0.496900
-4.110200 0.496200
-4.085600 0.496600
-4.061100 0.499200
-4.036600 0.503300
-4.012100 0.506700
-3.987600 0.509900
-3.963000 0.512800
-3.938500 0.515700
-3.914000 0.518800
-3.889500 0.522200
-3.864900 0.525800
-3.840400 0.529700
-3.815900 0.533900
-3.791400 0.538300
-3.766900 0.543000
-3.742300 0.547400
-3.717800 0.551800
-3.693300 0.556200
-3.668800 0.560500
-3.644300 0.565100
-3.619700 0.569600
-3.595200 0.574300
-3.570700 0.578500
-3.546200 0.582500
-3.521700 0.586200
-3.497100 0.589900
-3.472600 0.593800
-3.448100 0.597900
-3.423600 0.602000
-3.399000 0.605900
-3.374500 0.609500
-3.350000 0.613500
-3.325500 0.617600
-3.301000 0.621900
-3.276400 0.626100
-3.251900 0.630400
-3.227400 0.634700
-3.202900 0.639000
-3.178400 0.643300
-3.153800 0.647600
-3.129300 0.651600
-3.104800 0.655700
-3.080300 0.660200
-3.055700 0.664600
-3.031200 0.668900
-3.006700 0.673300
-2.982200 0.677700
-2.957700 0.682000
-2.933100 0.686500
-2.908600 0.691300
-2.884100 0.696400
-2.859600 0.701900
-2.835100 0.707900
-2.810500 0.713900
-2.786000 0.719900
-2.761500 0.726000
-2.737000 0.732200
-2.712500 0.738600
-2.687900 0.745300
-2.663400 0.752200
-2.638900 0.759400
-2.614400 0.766900
-2.589800 0.774600
-2.565300 0.782500
-2.540800 0.790700
-2.516300 0.799200
-2.491800 0.808000
-2.467200 0.817200
-2.442700 0.826700
-2.418200 0.836700
-2.393700 0.846900
-2.369200 0.857500
-2.344600 0.876900
-2.320100 0.890500
-2.295600 0.904200
-2.271100 0.918100
-2.246500 0.932200
-2.222000 0.946600
-2.197500 0.962000
-2.173000 0.979600
-2.148500 1.005900
-2.123900 1.036100
-2.099400 1.062900
-2.074900 1.086100
-2.050400 1.108100
-2.025900 1.133100
-2.001300 1.156100
-1.976800 1.176200
-1.952300 1.194800
-1.927800 1.206100
-1.903200 1.208600
-1.878700 1.198400
-1.854200 1.193700
-1.829700 1.193400
-1.805200 1.191600
-1.780600 1.192800
-1.756100 1.175800
-1.731600 1.156900
-1.707100 1.138200
-1.682600 1.112200
-1.658000 1.142900
-1.633500 1.105300
-1.609000 1.073200
-1.584500 1.055600
-1.560000 1.039700
-1.535400 1.024900
-1.510900 1.015200
-1.486400 1.010900
-1.461900 1.043500
-1.437300 1.018300
-1.412800 0.992600
-1.388300 0.962300
-1.363800 0.935300
-1.339300 0.879000
-1.314700 0.834300
-1.290200 0.806200
-1.265700 0.780300
-1.241200 0.764000
-1.216700 0.749400
-1.192100 0.738500
-1.167600 0.730200
-1.143100 0.723400
-1.118600 0.716700
-1.094000 0.712600
-1.069500 0.717200
-1.045000 0.728500
-1.020500 0.742900
-0.996000 0.760200
-0.971400 0.770300
-0.946900 0.780700
-0.922400 0.791400
-0.897900 0.811100
-0.873400 0.843800
-0.848800 0.860100
-0.824300 0.870700
-0.799800 0.874700
-0.775300 0.883200
-0.750700 0.854000
-0.726200 0.829900
-0.701700 0.825100
-0.677200 0.821000
-0.652700 0.818600
-0.628100 0.816000
-0.603600 0.816200
-0.579100 0.815900
-0.554600 0.813800
-0.530100 0.813500
-0.505500 0.807400
-0.481000 0.800600
-0.456500 0.793700
-0.432000 0.793900
-0.407500 0.803600
-0.382900 0.803300
-0.358400 0.786500
-0.333900 0.775200
-0.309400 0.766100
-0.284800 0.748100
-0.260300 0.715300
-0.235800 0.679000
-0.211300 0.638600
-0.186800 0.595700
-0.162200 0.567300
-0.137700 0.537200
-0.113200 0.491700
-0.088700 0.463200
-0.064200 0.414100
-0.039600 0.371800
-0.015100 0.327500
0.009400 0.295000
0.033900 0.277300
0.058500 0.267900
0.083000 0.260400
0.107500 0.254100
0.132000 0.249000
0.156500 0.244900
0.181100 0.241900
0.205600 0.240100
0.230100 0.236200
0.254600 0.230300
0.279100 0.225600
0.303700 0.222000
0.328200 0.219600
0.352700 0.219000
0.377200 0.243600
0.401800 0.249300
0.426300 0.258400
0.450800 0.265900
0.475300 0.271600
0.499800 0.271400
0.524400 0.270600
0.548900 0.271900
0.573400 0.276000
0.597900 0.280200
0.622400 0.278900
0.647000 0.277100
0.671500 0.275600
0.696000 0.281500
0.720500 0.287800
0.745000 0.291300
0.769600 0.292300
0.794100 0.297400
0.818600 0.305000
0.843100 0.314900
0.867700 0.311700
0.892200 0.303200
0.916700 0.304700
0.941200 0.312700
0.965700 0.325400
0.990300 0.335800
1.014800 0.346900
1.039300 0.361600
1.063800 0.379100
1.088300 0.398600
1.112900 0.419300
1.137400 0.438400
1.161900 0.461300
1.186400 0.493400
1.211000 0.518700
1.235500 0.552400
1.260000 0.587700
1.284500 0.621100
1.309000 0.646500
1.333600 0.674000
1.358100 0.709600
1.382600 0.735900
1.407100 0.749400
1.431600 0.758500
1.456200 0.754000
1.480700 0.724200
1.505200 0.725300
1.529700 0.730600
1.554300 0.740600
1.578800 0.752500
1.603300 0.765000
1.627800 0.771200
1.652300 0.776500
1.676900 0.784400
1.701400 0.794900
1.725900 0.806000
1.750400 0.816700
1.774900 0.827400
1.799500 0.841100
1.824000 0.857900
1.848500 0.884400
1.873000 0.911700
1.897500 0.935500
1.922100 0.959000
1.946600 0.985600
1.971100 1.015300
1.995600 1.012500
2.020200 1.021300
2.044700 1.045000
2.069200 1.063500
2.093700 1.077600
2.118200 1.099600
2.142800 1.123200
2.167300 1.144900
2.191800 1.160900
2.216300 1.164300
2.240800 1.166000
2.265400 1.169700
2.289900 1.173100
2.314400 1.171400
2.338900 1.165300
2.363500 1.163300
2.388000 1.160200
2.412500 1.193900
2.437000 1.157400
2.461500 1.136300
2.486100 1.121800
2.510600 1.110600
2.535100 1.101500
2.559600 1.093900
2.584100 1.094600
2.608700 1.094500
2.633200 1.084900
2.657700 1.074800
2.682200 1.067600
2.706800 1.063600
2.731300 1.066900
2.755800 1.075000
2.780300 1.087300
2.804800 1.103000
2.829400 1.128100
2.853900 1.151800
2.878400 1.153900
2.902900 1.156200
2.927400 1.157600
2.952000 1.157400
2.976500 1.158400
3.001000 1.153400
3.025500 1.150900
3.050000 1.139100
3.074600 1.131700
3.099100 1.126400
3.123600 1.120200
3.148100 1.112500
3.172700 1.104300
3.197200 1.107900
3.221700 1.114800
3.246200 1.110200
3.270700 1.103500
3.295300 1.103100
3.319800 1.090100
3.344300 1.069500
3.368800 1.046400
3.393300 1.025800
3.417900 1.014300
3.442400 1.004300
3.466900 1.000900
3.491400 1.018100
3.516000 1.028700
3.540500 1.029300
3.565000 1.026600
3.589500 1.019800
3.614000 1.006900
3.638600 0.970700
3.663100 0.962700
3.687600 0.979600
3.712100 0.978200
3.736600 0.972500
3.761200 0.969700
3.785700 0.970500
3.810200 0.978500
3.834700 0.989200
3.859300 0.999000
3.883800 1.010600
3.908300 1.028100
3.932800 1.048900
3.957300 1.042800
3.981900 1.041900
4.006400 1.041300
4.030900 1.037000
4.055400 1.030900
4.079900 1.026400
4.104500 1.004600
4.129000 0.989200
4.153500 0.979800
4.178000 0.972800
4.202500 0.965900
4.227100 0.962500
4.251600 0.963600
4.276100 0.966300
4.300600 0.969800
4.325200 0.974700
4.349700 0.985100
4.374200 0.995000
4.398700 1.001700
4.423200 1.009100
4.447800 1.004600
4.472300 1.010400
4.496800 1.018000
4.521300 1.026000
4.545800 1.033800
4.570400 1.040900
4.594900 1.047800
4.619400 1.056500
4.643900 1.070500
4.668500 1.076400
4.693000 1.080800
4.717500 1.087000
4.742000 1.093400
4.766500 1.100100
4.791100 1.108800
4.815600 1.116900
4.840100 1.123400
4.864600 1.128800
4.889100 1.133500
4.913700 1.139000
4.938200 1.142200
4.962700 1.147200
4.987200 1.159800
5.011800 1.170600
5.036300 1.177900
5.060800 1.187500
5.085300 1.193100
5.109800 1.198400
5.134400 1.203900
5.158900 1.216200
5.183400 1.221500
5.207900 1.215600
5.232400 1.210000
5.257000 1.208600
5.281500 1.205100
5.306000 1.201200
5.330500 1.199600
5.355000 1.200200
5.379600 1.202500
5.404100 1.205600
5.428600 1.210100
5.453100 1.216300
5.477700 1.223100
5.502200 1.230500
5.526700 1.237900
5.551200 1.246100
5.575700 1.256000
5.600300 1.267700
5.624800 1.281200
5.649300 1.296600
5.673800 1.319700
5.698300 1.335100
5.722900 1.335400
5.747400 1.330900
5.771900 1.324600
5.796400 1.304500
5.821000 1.294800
5.845500 1.291900
5.870000 1.296600
5.894500 1.303600
5.919000 1.306300
5.943600 1.300900
5.968100 1.295100
5.992600 1.287000
6.017100 1.258600
6.041600 1.225800
6.066200 1.214800
6.090700 1.208400
6.115200 1.204000
6.139700 1.202200
6.164300 1.202600
6.188800 1.203700
6.213300 1.204600
6.237800 1.204700
6.262300 1.202700
6.286900 1.200000
6.311400 1.198800
6.335900 1.198200
6.360400 1.195800
6.384900 1.188500
6.409500 1.181000
6.434000 1.174700
6.458500 1.175400
6.483000 1.179400
6.507500 1.183400
6.532100 1.186500
6.556600 1.193000
6.581100 1.196300
6.605600 1.191200
6.630200 1.188900
6.654700 1.188500
6.679200 1.181800
6.703700 1.176700
6.728200 1.173300
6.752800 1.172800
6.777300 1.178500
6.801800 1.188400
6.826300 1.202200
6.850800 1.223700
6.875400 1.254200
6.899900 1.272400
6.924400 1.278000
6.948900 1.275500
6.973500 1.262000
6.998000 1.248700
7.022500 1.241000
7.047000 1.222700
7.071500 1.211800
7.096100 1.198700
7.120600 1.191500
7.145100 1.187600
7.169600 1.183600
7.194100 1.176700
7.218700 1.166700
7.243200 1.159400
7.267700 1.154800
7.292200 1.151700
7.316800 1.149500
7.341300 1.148100
7.365800 1.147600
7.390300 1.146700
7.414800 1.149300
7.439400 1.155000
7.463900 1.165300
7.488400 1.173100
7.512900 1.184500
7.537400 1.193700
7.562000 1.204400
7.586500 1.223100
7.611000 1.251300
7.635500 1.273000
7.660000 1.292500
7.684600 1.309900
7.709100 1.316000
7.733600 1.315900
7.758100 1.313800
7.782700 1.311800
7.807200 1.310300
7.831700 1.305700
7.856200 1.296000
7.880700 1.279800
7.905300 1.265900
7.929800 1.256300
7.954300 1.250300
7.978800 1.249500
8.003300 1.249200
8.027900 1.257700
8.052400 1.272000
8.076900 1.283600
8.101400 1.298000
8.126000 1.322100
8.150500 1.339400
8.175000 1.343200
8.199500 1.339000
8.224000 1.335800
8.248600 1.331000
8.273100 1.324200
8.297600 1.316800
8.322100 1.315000
8.346600 1.317800
8.371200 1.317200
8.395700 1.324400
8.420200 1.324900
8.444700 1.336100
8.469200 1.343400
8.493800 1.355000
8.518300 1.373600
8.542800 1.369900
8.567300 1.403100
8.591900 1.418700
8.616400 1.430000
8.640900 1.448100
8.665400 1.455600
8.689900 1.459700
8.714500 1.466800
8.739000 1.475200
8.763500 1.482200
8.788000 1.487200
8.812500 1.487900
8.837100 1.489000
8.861600 1.489400
8.886100 1.488100
8.910600 1.488200
8.935200 1.486600
8.959700 1.485900
8.984200 1.487400
9.008700 1.490400
9.033200 1.493000
9.057800 1.495900
9.082300 1.499500
9.106800 1.502100
9.131300 1.509000
9.155800 1.512800
9.180400 1.514200
9.204900 1.516500
9.229400 1.523000
9.253900 1.534700
9.278500 1.547500
9.303000 1.557100
9.327500 1.568100
9.352000 1.580600
9.376500 1.567000
9.401100 1.556600
9.425600 1.545100
9.450100 1.525000
9.474600 1.503400
9.499100 1.482300
9.523700 1.460000
9.548200 1.435200
9.572700 1.409600
9.597200 1.391100
9.621700 1.371700
9.646300 1.353100
9.670800 1.338600
9.695300 1.327600
9.719800 1.316600
9.744400 1.308500
9.768900 1.301700
9.793400 1.286800
9.817900 1.272500
9.842400 1.254000
9.867000 1.232600
9.891500 1.211900
9.916000 1.206800
9.940500 1.215700
9.965000 1.210900
9.989600 1.207100
10.014100 1.208200
10.038600 1.211600
10.063100 1.215700
10.087700 1.218500
10.112200 1.223600
10.136700 1.226600
10.161200 1.233000
10.185700 1.243500
10.210300 1.255400
10.234800 1.270400
10.259300 1.280800
10.283800 1.278500
10.308300 1.273300
10.332900 1.276900
10.357400 1.282100
10.381900 1.291700
10.406400 1.314700
10.431000 1.324100
10.455500 1.329600
10.480000 1.331600
10.504500 1.329100
10.529000 1.324400
10.553600 1.321200
10.578100 1.320000
10.602600 1.322600
10.627100 1.329700
10.651600 1.343300
10.676200 1.361400
10.700700 1.368600
10.725200 1.371400
10.749700 1.377300
10.774200 1.384900
10.798800 1.397900
10.823300 1.412500
10.847800 1.428000
10.872300 1.446900
10.896900 1.465400
10.921400 1.479100
10.945900 1.489900
10.970400 1.498100
10.994900 1.502800
11.019500 1.501300
11.044000 1.508300
11.068500 1.511500
11.093000 1.495800
11.117500 1.483600
11.142100 1.466900
11.166600 1.455300
11.191100 1.452200
11.215600 1.448300
11.240200 1.444600
11.264700 1.445900
11.289200 1.451800
11.313700 1.455800
11.338200 1.468100
11.362800 1.483300
11.387300 1.489700
11.411800 1.495600
11.436300 1.482300
11.460800 1.476500
11.485400 1.478500
11.509900 1.487900
11.534400 1.492400
11.558900 1.485200
11.583500 1.483600
11.608000 1.481200
11.632500 1.478900
11.657000 1.482500
11.681500 1.496900
11.706100 1.504600
11.730600 1.512700
11.755100 1.518900
11.779600 1.524700
11.804100 1.537000
11.828700 1.555600
11.853200 1.587300
11.877700 1.598900
11.902200 1.608600
11.926700 1.617900
11.951300 1.627800
11.975800 1.647600
12.000300 1.672100
12.024800 1.696700
12.049400 1.728800
12.073900 1.760700
12.098400 1.809500
12.122900 1.846300
12.147400 1.873700
12.172000 1.980600
12.196500 2.009800
12.221000 1.974500
12.245500 1.955500
12.270000 1.924200
12.294600 1.894900
12.319100 1.856900
12.343600 1.824900
12.368100 1.800800
12.392700 1.782500
12.417200 1.757700
12.441700 1.727200
12.466200 1.697100
12.490700 1.679300
12.515300 1.667300
12.539800 1.658300
12.564300 1.653400
12.588800 1.651900
12.613300 1.653500
12.637900 1.659800
12.662400 1.666900
12.686900 1.723900
12.711400 1.742200
12.736000 1.765000
12.760500 1.782700
12.785000 1.776300
12.809500 1.773600
12.834000 1.766000
12.858600 1.740300
12.883100 1.714800
12.907600 1.690600
12.932100 1.665300
12.956600 1.639000
12.981200 1.607700
13.005700 1.585300
13.030200 1.565200
13.054700 1.544500
13.079200 1.527100
13.103800 1.513000
13.128300 1.502700
13.152800 1.490700
13.177300 1.472100
13.201900 1.452700
13.226400 1.431200
13.250900 1.398700
13.275400 1.352600
13.299900 1.314900
13.324500 1.282200
13.349000 1.248400
13.373500 1.218400
13.398000 1.190900
13.422500 1.165600
13.447100 1.132200
13.471600 1.083000
13.496100 1.040500
13.520600 1.006400
13.545200 0.987000
13.569700 0.978300
13.594200 0.965800
13.618700 0.964700
13.643200 0.977800
13.667800 1.004900
13.692300 1.030400
13.716800 1.045800
13.741300 1.061900
13.765800 1.079900
13.790400 1.099300
13.814900 1.105400
13.839400 1.110000
13.863900 1.123100
13.888500 1.139200
13.913000 1.154600
13.937500 1.171800
13.962000 1.191200
13.986500 1.212400
14.011100 1.226700
14.035600 1.239200
14.060100 1.263100
14.084600 1.276600
14.109100 1.264400
14.133700 1.254600
14.158200 1.255200
14.182700 1.257300
14.207200 1.254800
14.231700 1.254500
14.256300 1.255200
14.280800 1.259300
14.305300 1.271500
14.329800 1.290300
14.354400 1.302000
14.378900 1.321400
14.403400 1.362500
14.427900 1.387700
14.452400 1.416700
14.477000 1.432100
14.501500 1.440500
14.526000 1.474000
14.550500 1.528300
14.575000 1.595700
14.599600 1.655900
14.624100 1.719900
14.648600 1.784100
14.673100 1.842800
14.697700 1.919400
14.722200 1.979200
14.746700 1.985700
14.771200 1.967700
14.795700 1.947000
14.820300 1.937100
14.844800 1.943800
14.869300 1.954400
14.893800 1.981000
14.918300 2.018500
14.942900 2.052100
14.967400 2.032300
14.991900 2.027600
15.016400 2.029900
15.041000 2.047400
15.065500 2.078800
15.090000 2.092300
15.114500 2.093900
15.139000 2.096600
15.163600 2.134400
15.188100 2.143200
15.212600 2.134800
15.237100 2.127000
15.261600 2.132100
15.286200 2.130500
15.310700 2.125600
15.335200 2.116700
15.359700 2.102200
15.384200 2.087200
15.408800 2.084900
15.433300 2.085200
15.457800 2.122600
15.482300 2.124000
15.506900 2.128200
15.531400 2.142700
15.555900 2.126300
15.580400 2.130800
15.604900 2.144700
15.629500 2.148700
15.654000 2.123000
15.678500 2.135800
15.703000 2.086500
15.727500 2.080900
15.752100 2.118900
15.776600 2.139900
15.801100 2.171600
15.825600 2.195000
15.850200 2.246700
15.874700 2.299600
15.899200 2.287500
15.923700 2.258800
15.948200 2.257600
15.972800 2.191500
15.997300 2.201400
16.021800 2.223500
16.046300 2.177300
16.070800 2.113300
16.095400 2.047900
16.119900 1.997100
16.144400 1.965600
16.168900 1.952000
16.193500 1.926400
16.218000 1.883700
16.242500 1.834600
16.267000 1.794000
16.291500 1.777600
16.316100 1.770700
16.340600 1.766700
16.365100 1.764900
16.389600 1.764000
16.414100 1.761000
16.438700 1.777000
16.463200 1.802900
16.487700 1.840000
16.512200 1.884500
16.536700 1.916100
16.561300 1.949000
16.585800 1.993600
16.610300 2.039100
16.634800 2.070800
16.659400 2.079400
16.683900 2.087700
16.708400 2.091500
16.732900 2.084000
16.757400 2.074500
16.782000 2.076000
16.806500 2.084000
16.831000 2.086600
16.855500 2.129400
16.880000 2.140600
16.904600 2.122200
16.929100 2.110500
16.953600 2.088000
16.978100 2.097100
17.002700 2.118400
17.027200 2.120100
17.051700 2.132400
17.076200 2.113100
17.100700 2.079000
17.125300 2.097000
17.149800 2.109500
17.174300 2.102300
17.198800 2.098000
17.223300 2.115700
17.247900 2.137300
17.272400 2.149900
17.296900 2.172700
17.321400 2.199400
17.346000 2.224300
17.370500 2.252600
17.395000 2.274500
17.419500 2.293800
17.444000 2.297300
17.468600 2.291700
17.493100 2.287700
17.517600 2.291200
17.542100 2.293900
17.566600 2.294700
17.591200 2.274400
17.615700 2.252300
17.640200 2.230900
17.664700 2.217300
17.689200 2.209300
17.713800 2.197200
17.738300 2.175000
17.762800 2.137900
17.787300 2.096800
17.811900 2.066800
17.836400 2.043000
17.860900 2.025800
17.885400 2.009300
17.909900 1.998700
17.934500 1.995300
17.959000 1.989900
17.983500 1.981800
18.008000 1.972500
18.032500 1.964300
18.057100 1.960300
18.081600 1.957200
18.106100 1.954300
18.130600 1.949700
18.155200 1.942200
18.179700 1.936600
18.204200 1.925500
18.228700 1.910200
18.253200 1.903400
18.277800 1.897500
18.302300 1.894800
18.326800 1.891900
18.351300 1.887700
18.375800 1.882200
18.400400 1.875200
18.424900 1.867500
18.449400 1.859800
18.473900 1.845600
18.498500 1.837500
18.523000 1.825500
18.547500 1.813400
18.572000 1.803400
18.596500 1.802100
18.621100 1.795600
18.645600 1.790800
18.670100 1.777900
18.694600 1.766100
18.719100 1.757500
18.743700 1.755600
18.768200 1.757900
18.792700 1.764200
18.817200 1.771500
18.841700 1.781600
18.866300 1.791900
18.890800 1.790800
18.915300 1.782200
18.939800 1.766400
18.964400 1.757900
18.988900 1.788000
19.013400 1.801900
19.037900 1.823300
19.062400 1.862800
19.087000 1.881300
19.111500 1.891100
19.136000 1.910500
19.160500 1.928600
19.185000 1.944400
19.209600 1.966700
19.234100 1.991900
19.258600 2.006400
19.283100 2.041600
19.307700 2.045500
19.332200 2.101800
19.356700 2.145300
19.381200 2.167400
19.405700 2.183800
19.430300 2.201400
19.454800 2.217600
19.479300 2.242800
19.503800 2.233800
19.528300 2.243900
19.552900 2.266000
19.577400 2.291500
19.601900 2.282000
19.626400 2.276100
19.651000 2.257300
19.675500 2.247200
19.700000 2.231600
19.724500 2.228100
19.749000 2.232600
19.773600 2.244300
19.798100 2.247300
19.822600 2.246100
19.847100 2.246400
19.871600 2.255700
19.896200 2.264500
19.920700 2.258800
19.945200 2.255100
19.969700 2.256100
19.994200 2.260900
20.018800 2.279900
20.043300 2.295900
20.067800 2.301600
20.092300 2.308100
20.116900 2.314000
20.141400 2.319500
20.165900 2.328300
20.190400 2.340600
20.214900 2.351800
20.239500 2.349400
20.264000 2.331600
20.288500 2.316000
20.313000 2.307500
20.337500 2.302400
20.362100 2.303700
20.386600 2.315600
20.411100 2.338300
20.435600 2.368800
20.460200 2.389400
20.484700 2.404000
20.509200 2.414100
20.533700 2.426400
20.558200 2.451400
20.582800 2.485700
20.607300 2.514400
20.631800 2.542200
20.656300 2.581100
20.680800 2.646500
20.705400 2.696800
20.729900 2.736600
20.754400 2.764000
20.778900 2.789000
20.803400 2.810600
20.828000 2.853800
20.852500 2.871300
20.877000 2.830900
20.901500 2.782900
20.926100 2.755400
20.950600 2.741600
20.975100 2.732200
20.999600 2.739300
21.024100 2.740400
21.048700 2.742200
21.073200 2.747900
21.097700 2.775100
21.122200 2.786900
21.146700 2.774000
21.171300 2.754900
21.195800 2.746800
21.220300 2.756200
21.244800 2.768500
21.269400 2.781200
21.293900 2.795600
21.318400 2.808800
21.342900 2.824800
21.367400 2.836100
21.392000 2.841700
21.416500 2.845200
21.441000 2.847600
21.465500 2.843400
21.490000 2.840800
21.514600 2.845400
21.539100 2.850700
21.563600 2.859000
21.588100 2.857200
21.612700 2.846700
21.637200 2.827400
21.661700 2.800000
21.686200 2.775800
21.710700 2.761500
21.735300 2.725100
21.759800 2.690800
21.784300 2.666200
21.808800 2.644700
21.833300 2.626900
21.857900 2.594900
21.882400 2.561500
21.906900 2.517700
21.931400 2.479300
21.955900 2.456600
21.980500 2.439700
22.005000 2.423200
22.029500 2.411600
22.054000 2.425700
22.078600 2.444900
22.103100 2.447800
22.127600 2.447700
22.152100 2.412300
22.176600 2.404300
22.201200 2.399600
22.225700 2.393600
22.250200 2.391100
22.274700 2.393700
22.299200 2.384800
22.323800 2.374700
22.348300 2.379700
22.372800 2.374000
22.397300 2.366600
22.421900 2.358100
22.446400 2.347100
22.470900 2.337900
22.495400 2.335000
22.519900 2.334300
22.544500 2.340200
22.569000 2.338400
22.593500 2.343800
22.618000 2.358700
22.642500 2.376900
22.667100 2.400300
22.691600 2.426200
22.716100 2.446600
22.740600 2.469100
22.765200 2.475100
22.789700 2.467100
22.814200 2.471500
22.838700 2.461100
22.863200 2.437400
22.887800 2.426700
22.912300 2.439500
22.936800 2.440800
22.961300 2.423200
22.985800 2.407000
23.010400 2.396800
23.034900 2.385400
23.059400 2.376300
23.083900 2.368200
23.108400 2.359400
23.133000 2.345600
23.157500 2.324700
23.182000 2.308500
23.206500 2.296100
23.231100 2.293400
23.255600 2.273900
23.280100 2.236200
23.304600 2.216200
23.329100 2.195300
23.353700 2.169600
23.378200 2.142100
23.402700 2.111200
23.427200 2.081300
23.451700 2.059700
23.476300 2.045400
23.500800 2.036200
23.525300 2.027300
23.549800 2.023300
23.574400 2.020600
23.598900 2.020100
23.623400 2.025100
23.647900 2.038700
23.672400 2.058800
23.697000 2.081600
23.721500 2.111100
23.746000 2.144400
23.770500 2.175200
23.795000 2.205700
23.819600 2.228400
23.844100 2.255300
23.868600 2.281900
23.893100 2.305800
23.917700 2.326800
23.942200 2.342200
23.966700 2.355900
23.991200 2.368100
24.015700 2.377900
24.040300 2.379800
24.064800 2.379500
24.089300 2.385300
24.113800 2.379300
24.138300 2.372600
24.162900 2.372800
24.187400 2.365500
24.211900 2.367900
24.236400 2.360500
24.260900 2.363300
24.285500 2.360800
24.310000 2.361400
24.334500 2.369500
24.359000 2.372200
24.383600 2.370200
24.408100 2.373800
24.432600 2.396300
24.457100 2.419200
24.481600 2.421100
24.506200 2.408700
24.530700 2.412700
24.555200 2.429700
24.579700 2.443700
24.604200 2.461200
24.628800 2.492600
24.653300 2.529200
24.677800 2.547000
24.702300 2.546000
24.726900 2.520900
24.751400 2.509000
24.775900 2.499100
24.800400 2.498800
24.824900 2.509000
24.849500 2.525400
24.874000 2.540600
24.898500 2.549000
24.923000 2.558200
24.947500 2.579700
24.972100 2.591800
24.996600 2.589500
25.021100 2.551600
25.045600 2.534000
25.070200 2.516300
25.094700 2.498700
25.119200 2.491400
25.143700 2.482600
25.168200 2.468200
25.192800 2.448100
25.217300 2.428200
25.241800 2.412200
25.266300 2.393700
25.290800 2.382300
25.315400 2.395800
25.339900 2.404000
25.364400 2.431200
25.388900 2.438300
25.413400 2.436500
25.438000 2.432300
25.462500 2.435700
25.487000 2.440300
25.511500 2.444800
25.536100 2.445500
25.560600 2.448900
25.585100 2.460400
25.609600 2.468500
25.634100 2.463700
25.658700 2.466300
25.683200 2.478000
25.707700 2.496800
25.732200 2.531800
25.756700 2.572900
25.781300 2.585300
25.805800 2.579700
25.830300 2.545200
25.854800 2.542000
25.879400 2.542500
25.903900 2.543700
25.928400 2.552600
25.952900 2.561400
25.977400 2.559600
26.002000 2.565900
26.026500 2.556500
26.051000 2.537100
26.075500 2.493300
26.100000 2.464700
26.124600 2.450900
26.149100 2.438200
26.173600 2.422700
26.198100 2.411700
26.222700 2.408900
26.247200 2.407200
26.271700 2.398400
26.296200 2.381700
26.320700 2.377600
26.345300 2.380600
26.369800 2.387400
26.394300 2.388300
26.418800 2.394400
26.443300 2.409400
26.467900 2.425600
26.492400 2.446700
26.516900 2.467900
26.541400 2.495300
26.565900 2.530000
26.590500 2.572600
26.615000 2.623900
26.639500 2.671700
26.664000 2.707700
26.688600 2.721200
26.713100 2.711600
26.737600 2.700700
26.762100 2.690400
26.786600 2.682600
26.811200 2.674200
26.835700 2.665300
26.860200 2.663300
26.884700 2.678300
26.909200 2.687900
26.933800 2.668600
26.958300 2.661500
26.982800 2.659700
27.007300 2.653300
27.031900 2.656000
27.056400 2.673800
27.080900 2.670500
27.105400 2.656700
27.129900 2.657000
27.154500 2.665500
27.179000 2.704500
27.203500 2.717800
27.228000 2.717500
27.252500 2.702700
27.277100 2.698000
27.301600 2.694500
27.326100 2.643100
27.350600 2.633500
27.375200 2.650200
27.399700 2.666500
27.424200 2.688400
27.448700 2.705600
27.473200 2.736200
27.497800 2.784800
27.522300 2.807000
27.546800 2.814600
27.571300 2.811900
27.595800 2.807700
27.620400 2.818200
27.644900 2.803300
27.669400 2.798900
27.693900 2.806700
27.718400 2.836600
27.743000 2.869400
27.767500 2.891100
27.792000 2.898700
27.816500 2.897100
27.841100 2.917300
27.865600 2.901600
27.890100 2.910400
27.914600 2.922300
27.939100 2.936900
27.963700 2.917600
27.988200 2.921400
28.012700 2.918400
28.037200 2.926700
28.061700 2.922700
28.086300 2.913900
28.110800 2.909400
28.135300 2.889500
28.159800 2.896900
28.184400 2.908800
28.208900 2.931400
28.233400 2.925700
28.257900 2.894100
28.282400 2.864400
28.307000 2.843300
28.331500 2.811900
28.356000 2.784100
28.380500 2.754700
28.405000 2.709500
28.429600 2.692000
28.454100 2.684800
28.478600 2.671900
28.503100 2.666300
28.527700 2.665000
28.552200 2.658300
28.576700 2.645500
28.601200 2.614300
28.625700 2.591700
28.650300 2.578900
28.674800 2.581600
28.699300 2.604100
28.723800 2.620400
28.748300 2.628300
28.772900 2.630600
28.797400 2.631900
28.821900 2.622900
28.846400 2.619100
28.870900 2.583800
28.895500 2.545600
28.920000 2.520400
28.944500 2.515200
28.969000 2.494100
28.993600 2.470500
29.018100 2.465900
29.042600 2.437100
29.067100 2.415900
29.091600 2.401300
29.116200 2.409400
29.140700 2.418100
29.165200 2.425100
29.189700 2.425700
29.214200 2.421000
29.238800 2.404800
29.263300 2.395100
29.287800 2.375300
29.312300 2.339700
29.336900 2.272300
29.361400 2.248400
29.385900 2.254400
29.410400 2.253100
29.434900 2.266700
29.459500 2.284800
29.484000 2.312100
29.508500 2.338600
29.533000 2.360200
29.557500 2.393100
29.582100 2.479900
29.606600 2.521200
29.631100 2.534900
29.655600 2.559500
29.680200 2.597500
29.704700 2.629400
29.729200 2.669900
29.753700 2.638400
29.778200 2.585300
29.802800 2.575900
29.827300 2.567800
29.851800 2.558800
29.876300 2.556500
29.900800 2.484300
29.925400 2.431600
29.949900 2.444500
29.974400 2.438400
29.998900 2.439100
30.023400 2.435400
30.048000 2.433600
30.072500 2.406200
30.097000 2.409400
30.121500 2.423600
30.146100 2.453600
30.170600 2.497600
30.195100 2.517400
30.219600 2.548800
30.244100 2.598500
30.268700 2.630700
30.293200 2.658700
30.317700 2.678200
30.342200 2.679600
30.366700 2.676400
30.391300 2.661600
30.415800 2.624800
30.440300 2.544700
30.464800 2.492100
30.489400 2.455700
30.513900 2.429900
30.538400 2.407400
30.562900 2.393400
30.587400 2.371500
30.612000 2.366300
30.636500 2.371300
30.661000 2.398200
30.685500 2.462900
30.710000 2.556100
30.734600 2.641600
30.759100 2.744800
30.783600 2.799500
30.808100 2.802800
30.832700 2.830700
30.857200 2.882700
30.881700 2.924800
30.906200 2.922400
30.930700 2.943200
30.955300 2.973700
30.979800 2.944100
31.004300 2.882900
31.028800 2.834000
31.053300 2.780800
31.077900 2.732000
31.102400 2.709200
31.126900 2.680500
31.151400 2.658000
31.175900 2.648700
31.200500 2.661300
31.225000 2.689400
31.249500 2.741700
31.274000 2.795500
31.298600 2.828300
31.323100 2.898100
31.347600 2.917300
31.372100 2.905000
31.396600 2.884500
31.421200 2.858500
31.445700 2.834000
31.470200 2.824600
31.494700 2.818800
31.519200 2.816400
31.543800 2.823300
31.568300 2.833900
31.592800 2.813800
31.617300 2.782400
31.641900 2.759300
31.666400 2.784000
31.690900 2.748200
31.715400 2.726300
31.739900 2.726000
31.764500 2.718200
31.789000 2.706600
31.813500 2.692900
31.838000 2.656300
31.862500 2.645200
31.887100 2.616200
31.911600 2.615100
31.936100 2.593900
31.960600 2.553700
31.985100 2.514700
32.009700 2.496400
32.034200 2.464300
32.058700 2.430800
32.083200 2.386700
32.107800 2.350700
32.132300 2.317000
32.156800 2.302700
32.181300 2.305100
32.205800 2.325700
32.230400 2.375600
32.254900 2.375100
32.279400 2.390000
32.303900 2.413000
32.328400 2.418500
32.353000 2.416400
32.377500 2.429900
32.402000 2.466300
32.426500 2.506400
32.451100 2.558300
32.475600 2.613500
32.500100 2.653300
32.524600 2.684400
32.549100 2.731600
32.573700 2.757400
32.598200 2.784900
32.622700 2.811300
32.647200 2.835400
32.671700 2.861900
32.696300 2.854100
32.720800 2.844500
32.745300 2.844800
32.769800 2.842300
32.794400 2.827100
32.818900 2.818100
32.843400 2.801000
32.867900 2.805600
32.892400 2.777300
32.917000 2.721900
32.941500 2.653700
32.966000 2.640600
32.990500 2.639300
33.015000 2.662300
33.039600 2.727700
33.064100 2.855100
33.088600 2.900400
33.113100 2.911600
33.137600 2.927100
33.162200 2.891600
33.186700 2.852500
33.211200 2.850600
33.235700 2.881200
33.260300 2.888500
33.284800 2.866300
33.309300 2.839400
33.333800 2.839000
33.358300 2.848700
33.382900 2.871800
33.407400 2.880600
33.431900 2.901300
33.456400 2.923200
33.480900 2.942400
33.505500 2.968900
33.530000 2.992300
33.554500 3.006400
33.579000 3.036200
33.603600 3.069800
33.628100 3.112000
33.652600 3.067800
33.677100 3.050400
33.701600 3.063300
33.726200 3.064300
33.750700 3.106800
33.775200 3.070800
33.799700 3.028500
33.824200 3.007600
33.848800 2.955600
33.873300 2.918800
33.897800 2.901500
33.922300 2.883500
33.946900 2.882200
33.971400 2.898200
33.995900 2.929200
34.020400 2.938600
34.044900 2.954500
34.069500 3.006700
34.094000 3.040600
34.118500 3.094400
34.143000 3.078700
34.167500 3.078500
34.192100 3.058400
34.216600 3.030500
34.241100 3.005600
34.265600 2.960700
34.290100 2.893700
34.314700 2.870900
34.339200 2.872300
34.363700 2.895300
34.388200 2.899000
34.412800 2.946500
34.437300 2.974900
34.461800 2.990500
34.486300 3.009000
34.510800 3.021300
34.535400 3.025300
34.559900 3.028700
34.584400 3.033700
34.608900 3.017200
34.633400 2.997200
34.658000 2.986100
34.682500 2.984900
34.707000 2.988000
34.731500 3.002300
34.756100 3.038100
34.780600 3.055200
34.805100 3.059600
34.829600 3.050000
34.854100 3.019900
34.878700 3.004400
34.903200 2.999500
34.927700 2.969300
34.952200 2.957500
34.976700 2.971700
35.001300 3.019400
35.025800 3.034100
35.050300 3.037300
35.074800 3.071400
35.099400 3.129500
35.123900 3.191000
35.148400 3.246100
35.172900 3.311200
35.197400 3.378000
35.222000 3.389500
35.246500 3.336700
35.271000 3.314800
35.295500 3.250600
35.320000 3.183700
35.344600 3.131200
35.369100 3.071800
35.393600 2.999200
35.418100 2.978800
35.442600 2.907500
35.467200 2.836300
35.491700 2.816500
35.516200 2.810700
35.540700 2.763500
35.565300 2.734200
35.589800 2.723000
35.614300 2.679700
35.638800 2.628200
35.663300 2.576900
35.687900 2.547000
35.712400 2.529100
35.736900 2.500800
35.761400 2.472800
35.785900 2.442700
35.810500 2.403500
35.835000 2.374300
35.859500 2.353200
35.884000 2.326100
35.908600 2.308700
35.933100 2.286400
35.957600 2.261400
35.982100 2.230200
36.006600 2.207900
36.031200 2.178200
36.055700 2.137500
36.080200 2.108300
36.104700 2.073800
36.129200 2.034500
36.153800 1.990600
36.178300 1.947000
36.202800 1.906600
36.227300 1.871500
36.251900 1.837700
36.276400 1.799100
36.300900 1.770000
36.325400 1.752200
36.349900 1.722500
36.374500 1.695200
36.399000 1.673300
36.423500 1.651700
36.448000 1.628100
36.472500 1.594200
36.497100 1.555400
36.521600 1.516300
36.546100 1.453100
36.570600 1.384000
36.595100 1.321400
36.619700 1.250200
36.644200 1.177800
36.668700 1.134000
36.693200 1.095100
36.717800 1.062200
36.742300 1.038200
36.766800 1.012400
36.791300 0.999100
36.815800 0.963600
36.840400 0.928400
36.864900 0.889900
36.889400 0.867400
36.913900 0.848700
36.938400 0.828000
36.963000 0.800000
36.987500 0.770700
37.012000 0.742400
37.036500 0.717200
37.061100 0.689700
37.085600 0.670300
37.110100 0.651400
37.134600 0.633300
37.159100 0.616500
37.183700 0.600300
37.208200 0.587900
37.232700 0.577800
37.257200 0.567600
37.281700 0.555000
37.306300 0.541100
37.330800 0.528200
37.355300 0.516700
37.379800 0.505200
37.404400 0.494800
37.428900 0.475500
37.453400 0.457300
37.477900 0.441600
37.502400 0.428900
37.527000 0.416000
37.551500 0.403500
37.576000 0.393000
37.600500 0.385700
37.625000 0.383000
37.649600 0.379900
37.674100 0.369200
37.698600 0.375300
37.723100 0.319400
37.747600 0.279100
37.772200 0.251000
37.796700 0.230500
37.821200 0.214500
37.845700 0.199500
37.870300 0.190500
37.894800 0.185200
37.919300 0.180100
37.943800 0.172900
37.968300 0.162800
37.992900 0.150900
38.017400 0.138100
38.041900 0.124100
38.066400 0.110900
38.090900 0.101200
38.115500 0.092100
38.140000 0.078500
38.164500 0.065000
38.189000 0.052500
38.213600 0.041000
38.238100 0.030400
38.262600 0.018700
38.287100 0.005600
38.311600 0.000600
38.336200 0.000000
38.360700 0.000000
38.385200 0.000000
38.409700 0.000000
38.434200 0.000000
38.458800 0.000000
38.483300 0.000000
38.507800 0.000000
38.532300 0.000000
38.556900 0.000000
38.581400 0.000000
38.605900 0.000000
38.630400 0.000000
38.654900 0.000000
38.679500 0.000000
38.704000 0.000000
38.728500 0.000000
38.753000 0.000000
38.777500 0.000000
38.802100 0.000000
38.826600 0.000000
38.851100 0.000000
38.875600 0.000000
38.900100 0.000000
38.924700 0.000000
38.949200 0.000000
38.973700 0.000000
38.998200 0.000000
39.022800 0.000000
39.047300 0.000000
39.071800 0.000000
39.096300 0.000000
39.120800 0.000000
39.145400 0.000000
39.169900 0.000000
39.194400 0.000000
39.218900 0.000000
39.243400 0.000000
39.268000 0.000000
39.292500 0.000000
39.317000 0.000000
39.341500 0.000000
39.366100 0.000000
39.390600 0.000000
39.415100 0.000000
39.439600 0.000000
39.464100 0.000000
39.488700 0.000000
39.513200 0.000000
39.537700 0.000000
39.562200 0.000000
39.586700 0.000000
39.611300 0.000000
39.635800 0.000000
39.660300 0.000000
39.684800 0.000000
39.709400 0.000000
39.733900 0.000000
39.758400 0.000000
39.782900 0.000000
39.807400 0.000000
39.832000 0.000000
39.856500 0.000000
39.881000 0.000000
39.905500 0.000000
39.930000 0.000000
39.954600 0.000000
39.979100 0.000000
40.003600 0.000000
40.028100 0.000000
40.052600 0.000000
40.077200 0.000000
40.101700 0.000000
40.126200 0.000000
40.150700 0.000000
40.175300 0.000000
40.199800 0.000000
40.224300 0.000000
40.248800 0.000000
40.273300 0.000000
40.297900 0.000000
40.322400 0.000000
40.346900 0.000000
40.371400 0.000000
40.395900 0.000000
40.420500 0.000000
40.445000 0.000000
40.469500 0.000000
40.494000 0.000000
40.518600 0.000000
40.543100 0.000000
40.567600 0.000000
e
