set title 'mp-1184658 - Density of States'
set xlabel 'Energy (eV)'
set ylabel 'DOS (states/eV)'
set grid
set xrange [-10:10]
set yrange [0:26.558]
set xzeroaxis lt -1
set terminal png size 800,600
set output 'mp-1184658_dos_gnuplot.png'
plot '-' using 1:2 with lines title 'DOS'
-5.110300 0.000000
-5.093800 0.000000
-5.077300 0.000000
-5.060800 0.000000
-5.044300 0.000000
-5.027800 0.000000
-5.011400 0.000000
-4.994900 0.000000
-4.978400 0.000000
-4.961900 0.000000
-4.945400 0.000000
-4.928900 0.000000
-4.912400 0.000000
-4.895900 0.000000
-4.879400 0.000000
-4.863000 0.000000
-4.846500 0.000000
-4.830000 0.000000
-4.813500 0.000000
-4.797000 0.000000
-4.780500 0.000000
-4.764000 0.000000
-4.747500 0.000000
-4.731000 0.000000
-4.714600 0.000000
-4.698100 0.000000
-4.681600 0.000000
-4.665100 0.000000
-4.648600 0.000000
-4.632100 0.000000
-4.615600 0.000000
-4.599100 0.000000
-4.582600 0.000000
-4.566100 0.000000
-4.549700 0.000000
-4.533200 0.000000
-4.516700 0.000000
-4.500200 0.000000
-4.483700 0.000000
-4.467200 0.000000
-4.450700 0.000000
-4.434200 0.000000
-4.417700 0.000000
-4.401300 0.000000
-4.384800 0.000000
-4.368300 0.000000
-4.351800 0.000000
-4.335300 0.000000
-4.318800 0.000000
-4.302300 0.000000
-4.285800 0.000000
-4.269300 0.000000
-4.252900 0.000000
-4.236400 0.000000
-4.219900 0.000000
-4.203400 0.000000
-4.186900 0.000000
-4.170400 0.000000
-4.153900 0.000000
-4.137400 0.000000
-4.120900 0.000000
-4.104500 0.000000
-4.088000 0.000000
-4.071500 0.000000
-4.055000 0.000000
-4.038500 0.000000
-4.022000 0.000000
-4.005500 0.000000
-3.989000 0.000000
-3.972500 0.000000
-3.956100 0.000000
-3.939600 0.000000
-3.923100 0.000000
-3.906600 0.000000
-3.890100 0.000000
-3.873600 0.000000
-3.857100 0.000000
-3.840600 0.000000
-3.824100 0.000000
-3.807600 0.000000
-3.791200 0.000000
-3.774700 0.000000
-3.758200 0.000000
-3.741700 0.000000
-3.725200 0.000100
-3.708700 0.000300
-3.692200 0.001100
-3.675700 0.003300
-3.659200 0.007800
-3.642800 0.015300
-3.626300 0.025200
-3.609800 0.036500
-3.593300 0.048600
-3.576800 0.062400
-3.560300 0.080000
-3.543800 0.104600
-3.527300 0.139200
-3.510800 0.180800
-3.494400 0.216600
-3.477900 0.228100
-3.461400 0.205900
-3.444900 0.160500
-3.428400 0.117500
-3.411900 0.103900
-3.395400 0.135600
-3.378900 0.211600
-3.362400 0.315500
-3.346000 0.423800
-3.329500 0.519900
-3.313000 0.603800
-3.296500 0.688000
-3.280000 0.785100
-3.263500 0.897800
-3.247000 1.017300
-3.230500 1.132300
-3.214000 1.244600
-3.197600 1.376900
-3.181100 1.566600
-3.164600 1.860700
-3.148100 2.319900
-3.131600 3.018400
-3.115100 4.017200
-3.098600 5.325700
-3.082100 6.906100
-3.065600 8.740100
-3.049100 10.873800
-3.032700 13.338900
-3.016200 16.007200
-2.999700 18.577400
-2.983200 20.751000
-2.966700 22.391200
-2.950200 23.492000
-2.933700 24.066800
-2.917200 24.143700
-2.900700 23.841900
-2.884300 23.369900
-2.867800 22.911700
-2.851300 22.548500
-2.834800 22.309500
-2.818300 22.240100
-2.801800 22.333000
-2.785300 22.401100
-2.768800 22.112300
-2.752300 21.224500
-2.735900 19.783500
-2.719400 18.070900
-2.702900 16.380800
-2.686400 14.882300
-2.669900 13.656900
-2.653400 12.741900
-2.636900 12.063700
-2.620400 11.395200
-2.603900 10.482400
-2.587500 9.239100
-2.571000 7.805000
-2.554500 6.420700
-2.538000 5.268600
-2.521500 4.412100
-2.505000 3.821300
-2.488500 3.415100
-2.472000 3.102900
-2.455500 2.819100
-2.439100 2.523900
-2.422600 2.184300
-2.406100 1.790200
-2.389600 1.391000
-2.373100 1.082100
-2.356600 0.933900
-2.340100 0.932700
-2.323600 0.991300
-2.307100 1.021400
-2.290600 1.001700
-2.274200 0.977600
-2.257700 0.995700
-2.241200 1.048500
-2.224700 1.089300
-2.208200 1.089300
-2.191700 1.062800
-2.175200 1.037800
-2.158700 1.020400
-2.142200 0.999200
-2.125800 0.969300
-2.109300 0.936600
-2.092800 0.903900
-2.076300 0.876400
-2.059800 0.880800
-2.043300 0.954200
-2.026800 1.097300
-2.010300 1.248900
-1.993800 1.323500
-1.977400 1.279100
-1.960900 1.149400
-1.944400 1.026600
-1.927900 1.032100
-1.911400 1.284200
-1.894900 1.839100
-1.878400 2.613400
-1.861900 3.380800
-1.845400 3.893600
-1.829000 4.040400
-1.812500 3.885900
-1.796000 3.573100
-1.779500 3.218400
-1.763000 2.893700
-1.746500 2.655200
-1.730000 2.537100
-1.713500 2.514300
-1.697000 2.501600
-1.680600 2.415300
-1.664100 2.246800
-1.647600 2.078600
-1.631100 2.017800
-1.614600 2.094100
-1.598100 2.211600
-1.581600 2.221100
-1.565100 2.060100
-1.548600 1.814600
-1.532100 1.627600
-1.515700 1.562400
-1.499200 1.565300
-1.482700 1.538300
-1.466200 1.422000
-1.449700 1.215100
-1.433200 0.950500
-1.416700 0.671400
-1.400200 0.420500
-1.383700 0.229100
-1.367300 0.106800
-1.350800 0.042000
-1.334300 0.013800
-1.317800 0.003800
-1.301300 0.000900
-1.284800 0.000200
-1.268300 0.000000
-1.251800 0.000000
-1.235300 0.000000
-1.218900 0.000000
-1.202400 0.000000
-1.185900 0.000000
-1.169400 0.000000
-1.152900 0.000000
-1.136400 0.000000
-1.119900 0.000000
-1.103400 0.000000
-1.086900 0.000000
-1.070500 0.000000
-1.054000 0.000000
-1.037500 0.000000
-1.021000 0.000000
-1.004500 0.000000
-0.988000 0.000000
-0.971500 0.000000
-0.955000 0.000000
-0.938500 0.000000
-0.922100 0.000000
-0.905600 0.000100
-0.889100 0.000600
-0.872600 0.001900
-0.856100 0.004900
-0.839600 0.010600
-0.823100 0.019600
-0.806600 0.032700
-0.790100 0.053500
-0.773600 0.090600
-0.757200 0.151700
-0.740700 0.232200
-0.724200 0.307600
-0.707700 0.345400
-0.691200 0.330500
-0.674700 0.282300
-0.658200 0.243000
-0.641700 0.247800
-0.625200 0.302200
-0.608800 0.387100
-0.592300 0.485100
-0.575800 0.595400
-0.559300 0.715100
-0.542800 0.812500
-0.526300 0.838400
-0.509800 0.776200
-0.493300 0.676000
-0.476800 0.629500
-0.460400 0.706600
-0.443900 0.909000
-0.427400 1.179900
-0.410900 1.454300
-0.394400 1.703100
-0.377900 1.930400
-0.361400 2.135000
-0.344900 2.288600
-0.328400 2.360900
-0.312000 2.362600
-0.295500 2.347100
-0.279000 2.362800
-0.262500 2.407400
-0.246000 2.433700
-0.229500 2.404100
-0.213000 2.344000
-0.196500 2.343600
-0.180000 2.494700
-0.163600 2.814900
-0.147100 3.227100
-0.130600 3.611200
-0.114100 3.880600
-0.097600 4.021600
-0.081100 4.072800
-0.064600 4.072700
-0.048100 4.030500
-0.031600 3.932300
-0.015100 3.759100
0.001300 3.505700
0.017800 3.207100
0.034300 2.950300
0.050800 2.844200
0.067300 2.971400
0.083800 3.361200
0.100300 3.983000
0.116800 4.748400
0.133300 5.541200
0.149700 6.281500
0.166200 6.971400
0.182700 7.661300
0.199200 8.357700
0.215700 8.976500
0.232200 9.403000
0.248700 9.588800
0.265200 9.579500
0.281700 9.466600
0.298100 9.342700
0.314600 9.314600
0.331100 9.519500
0.347600 10.063200
0.364100 10.894900
0.380600 11.771400
0.397100 12.424400
0.413600 12.788500
0.430100 13.019900
0.446500 13.277300
0.463000 13.540300
0.479500 13.664300
0.496000 13.576200
0.512500 13.381900
0.529000 13.270500
0.545500 13.313100
0.562000 13.381400
0.578500 13.261100
0.594900 12.804000
0.611400 11.984400
0.627900 10.909200
0.644400 9.832700
0.660900 9.089400
0.677400 8.901100
0.693900 9.201700
0.710400 9.667300
0.726900 9.955000
0.743400 9.927500
0.759800 9.659500
0.776300 9.279400
0.792800 8.857600
0.809300 8.426600
0.825800 8.042000
0.842300 7.793800
0.858800 7.754900
0.875300 7.914200
0.891800 8.156200
0.908200 8.324600
0.924700 8.316400
0.941200 8.123800
0.957700 7.823700
0.974200 7.565600
0.990700 7.534700
1.007200 7.832400
1.023700 8.350800
1.040200 8.801900
1.056600 8.931400
1.073100 8.730900
1.089600 8.430400
1.106100 8.277800
1.122600 8.341000
1.139100 8.512500
1.155600 8.647300
1.172100 8.666600
1.188600 8.574800
1.205000 8.441500
1.221500 8.372600
1.238000 8.467700
1.254500 8.777000
1.271000 9.270800
1.287500 9.827400
1.304000 10.264600
1.320500 10.428200
1.337000 10.283400
1.353400 9.924700
1.369900 9.490000
1.386400 9.057800
1.402900 8.630900
1.419400 8.209200
1.435900 7.839000
1.452400 7.570000
1.468900 7.396400
1.485400 7.284500
1.501900 7.233900
1.518300 7.266800
1.534800 7.366800
1.551300 7.471800
1.567800 7.533500
1.584300 7.567000
1.600800 7.630000
1.617300 7.745300
1.633800 7.839300
1.650300 7.778600
1.666700 7.489700
1.683200 7.037400
1.699700 6.580400
1.716200 6.252900
1.732700 6.074900
1.749200 5.955800
1.765700 5.791400
1.782200 5.580800
1.798700 5.455300
1.815100 5.577600
1.831600 5.984700
1.848100 6.513900
1.864600 6.898600
1.881100 6.960900
1.897600 6.731200
1.914100 6.392000
1.930600 6.117500
1.947100 5.965900
1.963500 5.900200
1.980000 5.881700
1.996500 5.927000
2.013000 6.077500
2.029500 6.342900
2.046000 6.707200
2.062500 7.183500
2.079000 7.811300
2.095500 8.582600
2.111900 9.412600
2.128400 10.207200
2.144900 10.923400
2.161400 11.542700
2.177900 12.028800
2.194400 12.352300
2.210900 12.544400
2.227400 12.689800
2.243900 12.854800
2.260400 13.036200
2.276800 13.175500
2.293300 13.191300
2.309800 12.997400
2.326300 12.545700
2.342800 11.898200
2.359300 11.233500
2.375800 10.736900
2.392300 10.469100
2.408800 10.347200
2.425200 10.245600
2.441700 10.102800
2.458200 9.945600
2.474700 9.837200
2.491200 9.807100
2.507700 9.823800
2.524200 9.832800
2.540700 9.808100
2.557200 9.750400
2.573600 9.644600
2.590100 9.457400
2.606600 9.194000
2.623100 8.932700
2.639600 8.763600
2.656100 8.689500
2.672600 8.617800
2.689100 8.471300
2.705600 8.283100
2.722000 8.161400
2.738500 8.173400
2.755000 8.271700
2.771500 8.314100
2.788000 8.141100
2.804500 7.664200
2.821000 6.914100
2.837500 6.016100
2.854000 5.123100
2.870400 4.376600
2.886900 3.914800
2.903400 3.863300
2.919900 4.270100
2.936400 5.041000
2.952900 5.949800
2.969400 6.723500
2.985900 7.146700
3.002400 7.145000
3.018900 6.822700
3.035300 6.421600
3.051800 6.205700
3.068300 6.332600
3.084800 6.785100
3.101300 7.403400
3.117800 8.004700
3.134300 8.494300
3.150800 8.865700
3.167300 9.114500
3.183700 9.191100
3.200200 9.035300
3.216700 8.618700
3.233200 7.951600
3.249700 7.091000
3.266200 6.158600
3.282700 5.307300
3.299200 4.621400
3.315700 4.049800
3.332100 3.467300
3.348600 2.812600
3.365100 2.160000
3.381600 1.659300
3.398100 1.415200
3.414600 1.418200
3.431100 1.568100
3.447600 1.751400
3.464100 1.896900
3.480500 1.970100
3.497000 1.940100
3.513500 1.779400
3.530000 1.497100
3.546500 1.157300
3.563000 0.860600
3.579500 0.698400
3.596000 0.706300
3.612500 0.841400
3.628900 1.008900
3.645400 1.125700
3.661900 1.171600
3.678400 1.187600
3.694900 1.226500
3.711400 1.301100
3.727900 1.369500
3.744400 1.371100
3.760900 1.282500
3.777400 1.141200
3.793800 1.019800
3.810300 0.977000
3.826800 1.026800
3.843300 1.134900
3.859800 1.237800
3.876300 1.277900
3.892800 1.240900
3.909300 1.167400
3.925800 1.128900
3.942200 1.176100
3.958700 1.292100
3.975200 1.389700
3.991700 1.372600
4.008200 1.218500
4.024700 0.998700
4.041200 0.813200
4.057700 0.717800
4.074200 0.710100
4.090600 0.761600
4.107100 0.846400
4.123600 0.946800
4.140100 1.048600
4.156600 1.138800
4.173100 1.211400
4.189600 1.271300
4.206100 1.329600
4.222600 1.389100
4.239000 1.429600
4.255500 1.417100
4.272000 1.337200
4.288500 1.222100
4.305000 1.133800
4.321500 1.116100
4.338000 1.162000
4.354500 1.219800
4.371000 1.230600
4.387400 1.176300
4.403900 1.102200
4.420400 1.079500
4.436900 1.133100
4.453400 1.209000
4.469900 1.224200
4.486400 1.144100
4.502900 1.010100
4.519400 0.895000
4.535900 0.843600
4.552300 0.850300
4.568800 0.876000
4.585300 0.878500
4.601800 0.836700
4.618300 0.763800
4.634800 0.698100
4.651300 0.672400
4.667800 0.688600
4.684300 0.726900
4.700700 0.774600
4.717200 0.838500
4.733700 0.930100
4.750200 1.049100
4.766700 1.186300
4.783200 1.335000
4.799700 1.483300
4.816200 1.589900
4.832700 1.591800
4.849100 1.452300
4.865600 1.199200
4.882100 0.909300
4.898600 0.664600
4.915100 0.517900
4.931600 0.478700
4.948100 0.517100
4.964600 0.584900
4.981100 0.642400
4.997500 0.676500
5.014000 0.704100
5.030500 0.762200
5.047000 0.887100
5.063500 1.083200
5.080000 1.301000
5.096500 1.452200
5.113000 1.464900
5.129500 1.339600
5.145900 1.151300
5.162400 0.997300
5.178900 0.941800
5.195400 0.994700
5.211900 1.113700
5.228400 1.220400
5.244900 1.242700
5.261400 1.166300
5.277900 1.048700
5.294400 0.972400
5.310800 0.981100
5.327300 1.048300
5.343800 1.099900
5.360300 1.071100
5.376800 0.954400
5.393300 0.801200
5.409800 0.678100
5.426300 0.626900
5.442800 0.654400
5.459200 0.741300
5.475700 0.855100
5.492200 0.971900
5.508700 1.098600
5.525200 1.263000
5.541700 1.466600
5.558200 1.649800
5.574700 1.721700
5.591200 1.634800
5.607600 1.429900
5.624100 1.204000
5.640600 1.033600
5.657100 0.931400
5.673600 0.868100
5.690100 0.823600
5.706600 0.808200
5.723100 0.840900
5.739600 0.916000
5.756000 0.996100
5.772500 1.037700
5.789000 1.024300
5.805500 0.975800
5.822000 0.929400
5.838500 0.916600
5.855000 0.950300
5.871500 1.016800
5.888000 1.076000
5.904400 1.085600
5.920900 1.033900
5.937400 0.947000
5.953900 0.864200
5.970400 0.817800
5.986900 0.830200
6.003400 0.908300
6.019900 1.027600
6.036400 1.135500
6.052900 1.190400
6.069300 1.200100
6.085800 1.215600
6.102300 1.277700
6.118800 1.369000
6.135300 1.422100
6.151800 1.378400
6.168300 1.235200
6.184800 1.045700
6.201300 0.886800
6.217700 0.825100
6.234200 0.890900
6.250700 1.063000
6.267200 1.279000
6.283700 1.470600
6.300200 1.596300
6.316700 1.645000
6.333200 1.621500
6.349700 1.533600
6.366100 1.395300
6.382600 1.238300
6.399100 1.106400
6.415600 1.028100
6.432100 0.991000
6.448600 0.954800
6.465100 0.896700
6.481600 0.836100
6.498100 0.811600
6.514500 0.843400
6.531000 0.923100
6.547500 1.031600
6.564000 1.150100
6.580500 1.250800
6.597000 1.291200
6.613500 1.236100
6.630000 1.091000
6.646500 0.910900
6.662900 0.769900
6.679400 0.719700
6.695900 0.768000
6.712400 0.882600
6.728900 1.007500
6.745400 1.088500
6.761900 1.104200
6.778400 1.079900
6.794900 1.058900
6.811400 1.058300
6.827800 1.059700
6.844300 1.038200
6.860800 0.987800
6.877300 0.920800
6.893800 0.857100
6.910300 0.815000
6.926800 0.801600
6.943300 0.807800
6.959800 0.812400
6.976200 0.795300
6.992700 0.753600
7.009200 0.708800
7.025700 0.695000
7.042200 0.736200
7.058700 0.834900
7.075200 0.980200
7.091700 1.154300
7.108200 1.327900
7.124600 1.463400
7.141100 1.536700
7.157600 1.551700
7.174100 1.525300
7.190600 1.469000
7.207100 1.390200
7.223600 1.294100
7.240100 1.175700
7.256600 1.027800
7.273000 0.873100
7.289500 0.769200
7.306000 0.755900
7.322500 0.804800
7.339000 0.847900
7.355500 0.857400
7.372000 0.880500
7.388500 0.986500
7.405000 1.191000
7.421400 1.435400
7.437900 1.620400
7.454400 1.659100
7.470900 1.522300
7.487400 1.259500
7.503900 0.968400
7.520400 0.732600
7.536900 0.584200
7.553400 0.519200
7.569900 0.527000
7.586300 0.597500
7.602800 0.717800
7.619300 0.879200
7.635800 1.074100
7.652300 1.272900
7.668800 1.412700
7.685300 1.435400
7.701800 1.343000
7.718300 1.204700
7.734700 1.103200
7.751200 1.074700
7.767700 1.093900
7.784200 1.107200
7.800700 1.077900
7.817200 1.008000
7.833700 0.925700
7.850200 0.854600
7.866700 0.791600
7.883100 0.711600
7.899600 0.595100
7.916100 0.453800
7.932600 0.325000
7.949100 0.243800
7.965600 0.221700
7.982100 0.248400
7.998600 0.304600
8.015100 0.369800
8.031500 0.434500
8.048000 0.513800
8.064500 0.639900
8.081000 0.822700
8.097500 1.021400
8.114000 1.168200
8.130500 1.220000
8.147000 1.180500
8.163500 1.081500
8.179900 0.962400
8.196400 0.864100
8.212900 0.822700
8.229400 0.853800
8.245900 0.940700
8.262400 1.038700
8.278900 1.095200
8.295400 1.080700
8.311900 1.012100
8.328300 0.944000
8.344800 0.924700
8.361300 0.957300
8.377800 1.000600
8.394300 1.004700
8.410800 0.947400
8.427300 0.849900
8.443800 0.764400
8.460300 0.736700
8.476800 0.770900
8.493200 0.827300
8.509700 0.858300
8.526200 0.849000
8.542700 0.826700
8.559200 0.831000
8.575700 0.871400
8.592200 0.916700
8.608700 0.926700
8.625200 0.898000
8.641600 0.874200
8.658100 0.911700
8.674600 1.033100
8.691100 1.210300
8.707600 1.377700
8.724100 1.453800
8.740600 1.376600
8.757100 1.149400
8.773600 0.858000
8.790000 0.624900
8.806500 0.536200
8.823000 0.598400
8.839500 0.749800
8.856000 0.906600
8.872500 1.012100
8.889000 1.053700
8.905500 1.040500
8.922000 0.974600
8.938400 0.853800
8.954900 0.697200
8.971400 0.550500
8.987900 0.461900
9.004400 0.458700
9.020900 0.552300
9.037400 0.750600
9.053900 1.044600
9.070400 1.379400
9.086800 1.657300
9.103300 1.788100
9.119800 1.749000
9.136300 1.600000
9.152800 1.441900
9.169300 1.357800
9.185800 1.383400
9.202300 1.509900
9.218800 1.697400
9.235300 1.893300
9.251700 2.052500
9.268200 2.150000
9.284700 2.177000
9.301200 2.129900
9.317700 2.000800
9.334200 1.782300
9.350700 1.490600
9.367200 1.185600
9.383700 0.952700
9.400100 0.853100
9.416600 0.886800
9.433100 0.996800
9.449600 1.100300
9.466100 1.123800
9.482600 1.034100
9.499100 0.856300
9.515600 0.661600
9.532100 0.521800
9.548500 0.463500
9.565000 0.460800
9.581500 0.468500
9.598000 0.461700
9.614500 0.449300
9.631000 0.457300
9.647500 0.497300
9.664000 0.550400
9.680500 0.582000
9.696900 0.581800
9.713400 0.588600
9.729900 0.667000
9.746400 0.846200
9.762900 1.078200
9.779400 1.261800
9.795900 1.316400
9.812400 1.234100
9.828900 1.069600
9.845300 0.893100
9.861800 0.753000
9.878300 0.667100
9.894800 0.632300
9.911300 0.633000
9.927800 0.645100
9.944300 0.644200
9.960800 0.622700
9.977300 0.601500
9.993800 0.621600
10.010200 0.710700
10.026700 0.853200
10.043200 0.995500
10.059700 1.084200
10.076200 1.100000
10.092700 1.058400
10.109200 0.986800
10.125700 0.909500
10.142200 0.852500
10.158600 0.844000
10.175100 0.892400
10.191600 0.970100
10.208100 1.036100
10.224600 1.074800
10.241100 1.099500
10.257600 1.116500
10.274100 1.102300
10.290600 1.025400
10.307000 0.884800
10.323500 0.717900
10.340000 0.576800
10.356500 0.501400
10.373000 0.505700
10.389500 0.574000
10.406000 0.669300
10.422500 0.754000
10.439000 0.811800
10.455400 0.850900
10.471900 0.886700
10.488400 0.920900
10.504900 0.937400
10.521400 0.918300
10.537900 0.866900
10.554400 0.813300
10.570900 0.796200
10.587400 0.835500
10.603800 0.923700
10.620300 1.037600
10.636800 1.151200
10.653300 1.242700
10.669800 1.306800
10.686300 1.369700
10.702800 1.476100
10.719300 1.647000
10.735800 1.847500
10.752300 2.001300
10.768700 2.040800
10.785200 1.947400
10.801700 1.756700
10.818200 1.530500
10.834700 1.320900
10.851200 1.151700
10.867700 1.021600
10.884200 0.923100
10.900700 0.856000
10.917100 0.826800
10.933600 0.840700
10.950100 0.895700
10.966600 0.985600
10.983100 1.106500
10.999600 1.257400
11.016100 1.421100
11.032600 1.549100
11.049100 1.584100
11.065500 1.506200
11.082000 1.347100
11.098500 1.161300
11.115000 0.995800
11.131500 0.883300
11.148000 0.841900
11.164500 0.865100
11.181000 0.917500
11.197500 0.955600
11.213900 0.962000
11.230400 0.959900
11.246900 0.988000
11.263400 1.057500
11.279900 1.140400
11.296400 1.202300
11.312900 1.238600
11.329400 1.269400
11.345900 1.305100
11.362300 1.331500
11.378800 1.325900
11.395300 1.279300
11.411800 1.207200
11.428300 1.147000
11.444800 1.138100
11.461300 1.188000
11.477800 1.254500
11.494300 1.272300
11.510800 1.211800
11.527200 1.113800
11.543700 1.060400
11.560200 1.103800
11.576700 1.217200
11.593200 1.315300
11.609700 1.319300
11.626200 1.211700
11.642700 1.045400
11.659200 0.908600
11.675600 0.873500
11.692100 0.949600
11.708600 1.071900
11.725100 1.140100
11.741600 1.093500
11.758100 0.959800
11.774600 0.836200
11.791100 0.823300
11.807600 0.964300
11.824000 1.225800
11.840500 1.522100
11.857000 1.765700
11.873500 1.908400
11.890000 1.949400
11.906500 1.912200
11.923000 1.816100
11.939500 1.670200
11.956000 1.489100
11.972400 1.306600
11.988900 1.163700
12.005400 1.085300
12.021900 1.076500
12.038400 1.137100
12.054900 1.256400
12.071400 1.386600
12.087900 1.450400
12.104400 1.402900
12.120800 1.284200
12.137300 1.191500
12.153800 1.194600
12.170300 1.284700
12.186800 1.400700
12.203300 1.492100
12.219800 1.553600
12.236300 1.603800
12.252800 1.642900
12.269300 1.639800
12.285700 1.561300
12.302200 1.406800
12.318700 1.213500
12.335200 1.031800
12.351700 0.898600
12.368200 0.830700
12.384700 0.830900
12.401200 0.890400
12.417700 0.986500
12.434100 1.092000
12.450600 1.184500
12.467100 1.244300
12.483600 1.256200
12.500100 1.228000
12.516600 1.202000
12.533100 1.236200
12.549600 1.370400
12.566100 1.603300
12.582500 1.885900
12.599000 2.132800
12.615500 2.258500
12.632000 2.226600
12.648500 2.077100
12.665000 1.895500
12.681500 1.746500
12.698000 1.631600
12.714500 1.505500
12.730900 1.325600
12.747400 1.094500
12.763900 0.863200
12.780400 0.696800
12.796900 0.629200
12.813400 0.645400
12.829900 0.701900
12.846400 0.758200
12.862900 0.796500
12.879300 0.828700
12.895800 0.887000
12.912300 0.990800
12.928800 1.111200
12.945300 1.188600
12.961800 1.198700
12.978300 1.187400
12.994800 1.225300
13.011300 1.343300
13.027800 1.523600
13.044200 1.726900
13.060700 1.901000
13.077200 1.974400
13.093700 1.880000
13.110200 1.609900
13.126700 1.243200
13.143200 0.911100
13.159700 0.723900
13.176200 0.717200
13.192600 0.846400
13.209100 1.017700
13.225600 1.134800
13.242100 1.141400
13.258600 1.042500
13.275100 0.896100
13.291600 0.779800
13.308100 0.752300
13.324600 0.831500
13.341000 0.994600
13.357500 1.190200
13.374000 1.359400
13.390500 1.465000
13.407000 1.510900
13.423500 1.529900
13.440000 1.551500
13.456500 1.586500
13.473000 1.633600
13.489400 1.692700
13.505900 1.761300
13.522400 1.818200
13.538900 1.824600
13.555400 1.756900
13.571900 1.637500
13.588400 1.522200
13.604900 1.463100
13.621400 1.485500
13.637800 1.582900
13.654300 1.716700
13.670800 1.834900
13.687300 1.910000
13.703800 1.960800
13.720300 2.028200
13.736800 2.131900
13.753300 2.253900
13.769800 2.354700
13.786300 2.389000
13.802700 2.311900
13.819200 2.103900
13.835700 1.809600
13.852200 1.532200
13.868700 1.361800
13.885200 1.304800
13.901700 1.295600
13.918200 1.274100
13.934700 1.242400
13.951100 1.250700
13.967600 1.340500
13.984100 1.504100
14.000600 1.681500
14.017100 1.787900
14.033600 1.756500
14.050100 1.581100
14.066600 1.326200
14.083100 1.095400
14.099500 0.977500
14.116000 1.001700
14.132500 1.126600
14.149000 1.274000
14.165500 1.390000
14.182000 1.481700
14.198500 1.591100
14.215000 1.733500
14.231500 1.868500
14.247900 1.932600
14.264400 1.896700
14.280900 1.787500
14.297400 1.658100
14.313900 1.551200
14.330400 1.494200
14.346900 1.511000
14.363400 1.614600
14.379900 1.788000
14.396300 1.985800
14.412800 2.162800
14.429300 2.291500
14.445800 2.353000
14.462300 2.326500
14.478800 2.200000
14.495300 1.996600
14.511800 1.784800
14.528300 1.648700
14.544800 1.629200
14.561200 1.690100
14.577700 1.745700
14.594200 1.719200
14.610700 1.584600
14.627200 1.376100
14.643700 1.172700
14.660200 1.057200
14.676700 1.070600
14.693200 1.200000
14.709600 1.404100
14.726100 1.636200
14.742600 1.848800
14.759100 2.000600
14.775600 2.078400
14.792100 2.110000
14.808600 2.143800
14.825100 2.206700
14.841600 2.282800
14.858000 2.332500
14.874500 2.334000
14.891000 2.297900
14.907500 2.244000
14.924000 2.176200
14.940500 2.095900
14.957000 2.030300
14.973500 2.021500
14.990000 2.075200
15.006400 2.134700
15.022900 2.122100
15.039400 2.008800
15.055900 1.838000
15.072400 1.679700
15.088900 1.574400
15.105400 1.527400
15.121900 1.538700
15.138400 1.618500
15.154800 1.765200
15.171300 1.941200
15.187800 2.076900
15.204300 2.108400
15.220800 2.020200
15.237300 1.855900
15.253800 1.688500
15.270300 1.582800
15.286800 1.585400
15.303300 1.719900
15.319700 1.953100
15.336200 2.172900
15.352700 2.247700
15.369200 2.134100
15.385700 1.918500
15.402200 1.751300
15.418700 1.744000
15.435200 1.910100
15.451700 2.166000
15.468100 2.384700
15.484600 2.474500
15.501100 2.428300
15.517600 2.309300
15.534100 2.197100
15.550600 2.143400
15.567100 2.161500
15.583600 2.233900
15.600100 2.326500
15.616500 2.398300
15.633000 2.411800
15.649500 2.347700
15.666000 2.215900
15.682500 2.046300
15.699000 1.865700
15.715500 1.690500
15.732000 1.538500
15.748500 1.435200
15.764900 1.404600
15.781400 1.458100
15.797900 1.589700
15.814400 1.774200
15.830900 1.967600
15.847400 2.117800
15.863900 2.183100
15.880400 2.148300
15.896900 2.030800
15.913300 1.876200
15.929800 1.744200
15.946300 1.683500
15.962800 1.704800
15.979300 1.770800
15.995800 1.817100
16.012300 1.800800
16.028800 1.742600
16.045300 1.710900
16.061800 1.758000
16.078200 1.878600
16.094700 2.033100
16.111200 2.185800
16.127700 2.306500
16.144200 2.359700
16.160700 2.318000
16.177200 2.183200
16.193700 1.984500
16.210200 1.767100
16.226600 1.588000
16.243100 1.505400
16.259600 1.549400
16.276100 1.695700
16.292600 1.880500
16.309100 2.046700
16.325600 2.169100
16.342100 2.236200
16.358600 2.225000
16.375000 2.118900
16.391500 1.952600
16.408000 1.823100
16.424500 1.836400
16.441000 2.028800
16.457500 2.328000
16.474000 2.589800
16.490500 2.688500
16.507000 2.596100
16.523400 2.392100
16.539900 2.202700
16.556400 2.121400
16.572900 2.164800
16.589400 2.271800
16.605900 2.338800
16.622400 2.278900
16.638900 2.081800
16.655400 1.832100
16.671800 1.653900
16.688300 1.616400
16.704800 1.685500
16.721300 1.770800
16.737800 1.820300
16.754300 1.867400
16.770800 1.981000
16.787300 2.172900
16.803800 2.370800
16.820300 2.490200
16.836700 2.522900
16.853200 2.541200
16.869700 2.618400
16.886200 2.758600
16.902700 2.896300
16.919200 2.941700
16.935700 2.832800
16.952200 2.572500
16.968700 2.239300
16.985100 1.959100
17.001600 1.852700
17.018100 1.983300
17.034600 2.320000
17.051100 2.731800
17.067600 3.033200
17.084100 3.082700
17.100600 2.874400
17.117100 2.544200
17.133500 2.273100
17.150000 2.166400
17.166500 2.203500
17.183000 2.282200
17.199500 2.303400
17.216000 2.222600
17.232500 2.048100
17.249000 1.819800
17.265500 1.589700
17.281900 1.399700
17.298400 1.264500
17.314900 1.180300
17.331400 1.147400
17.347900 1.166700
17.364400 1.217800
17.380900 1.264100
17.397400 1.292700
17.413900 1.332600
17.430300 1.421600
17.446800 1.561200
17.463300 1.718800
17.479800 1.871300
17.496300 2.032000
17.512800 2.225300
17.529300 2.442200
17.545800 2.627900
17.562300 2.712500
17.578800 2.651800
17.595200 2.446200
17.611700 2.141600
17.628200 1.820100
17.644700 1.574600
17.661200 1.469700
17.677700 1.512800
17.694200 1.662700
17.710700 1.858900
17.727200 2.044300
17.743600 2.169700
17.760100 2.197100
17.776600 2.115500
17.793100 1.960400
17.809600 1.805500
17.826100 1.722500
17.842600 1.747000
17.859100 1.876700
17.875600 2.084400
17.892000 2.322000
17.908500 2.529100
17.925000 2.657900
17.941500 2.693200
17.958000 2.644800
17.974500 2.529300
17.991000 2.375800
18.007500 2.244500
18.024000 2.211500
18.040400 2.310600
18.056900 2.484800
18.073400 2.608100
18.089900 2.571200
18.106400 2.361000
18.122900 2.060700
18.139400 1.776800
18.155900 1.572700
18.172400 1.467100
18.188800 1.467300
18.205300 1.580600
18.221800 1.792000
18.238300 2.049100
18.254800 2.283100
18.271300 2.445700
18.287800 2.521100
18.304300 2.506500
18.320800 2.395800
18.337300 2.193600
18.353700 1.941600
18.370200 1.717300
18.386700 1.593900
18.403200 1.589500
18.419700 1.655100
18.436200 1.714200
18.452700 1.719800
18.469200 1.681600
18.485700 1.653200
18.502100 1.696200
18.518600 1.837600
18.535100 2.037700
18.551600 2.194700
18.568100 2.204500
18.584600 2.040100
18.601100 1.777800
18.617600 1.547500
18.634100 1.455200
18.650500 1.535300
18.667000 1.751800
18.683500 2.029700
18.700000 2.281500
18.716500 2.423100
18.733000 2.406700
18.749500 2.263000
18.766000 2.096900
18.782500 2.009700
18.798900 2.022200
18.815400 2.078000
18.831900 2.105900
18.848400 2.065800
18.864900 1.951900
18.881400 1.791500
18.897900 1.645600
18.914400 1.583000
18.930900 1.630700
18.947300 1.751300
18.963800 1.870500
18.980300 1.928600
18.996800 1.915200
19.013300 1.870300
19.029800 1.858100
19.046300 1.930000
19.062800 2.092900
19.079300 2.298700
19.095800 2.469600
19.112200 2.558200
19.128700 2.593100
19.145200 2.647800
19.161700 2.748200
19.178200 2.823700
19.194700 2.765500
19.211200 2.535500
19.227700 2.212000
19.244200 1.937600
19.260600 1.828500
19.277100 1.916900
19.293600 2.149800
19.310100 2.425000
19.326600 2.633900
19.343100 2.697200
19.359600 2.591500
19.376100 2.360800
19.392600 2.092500
19.409000 1.864000
19.425500 1.698600
19.442000 1.571000
19.458500 1.452400
19.475000 1.346300
19.491500 1.282700
19.508000 1.286400
19.524500 1.363100
19.541000 1.515400
19.557400 1.745100
19.573900 2.016300
19.590400 2.230100
19.606900 2.278700
19.623400 2.139500
19.639900 1.905500
19.656400 1.713300
19.672900 1.648300
19.689400 1.702500
19.705800 1.791700
19.722300 1.811800
19.738800 1.715800
19.755300 1.556600
19.771800 1.441800
19.788300 1.432500
19.804800 1.486800
19.821300 1.502400
19.837800 1.419500
19.854300 1.284900
19.870700 1.221900
19.887200 1.335800
19.903700 1.638200
19.920200 2.037400
19.936700 2.392400
19.953200 2.600000
19.969700 2.653900
19.986200 2.625600
20.002700 2.597100
20.019100 2.618500
20.035600 2.711600
20.052100 2.873700
20.068600 3.058600
20.085100 3.178200
20.101600 3.157700
20.118100 2.997200
20.134600 2.778200
20.151100 2.616900
20.167500 2.604600
20.184000 2.757000
20.200500 2.985700
20.217000 3.130400
20.233500 3.060400
20.250000 2.772900
20.266500 2.394300
20.283000 2.092200
20.299500 1.983000
20.315900 2.083000
20.332400 2.304000
20.348900 2.497300
20.365400 2.541600
20.381900 2.416900
20.398400 2.199900
20.414900 1.992000
20.431400 1.857800
20.447900 1.815900
20.464300 1.854600
20.480800 1.939600
20.497300 2.021500
20.513800 2.061000
20.530300 2.056900
20.546800 2.042200
20.563300 2.045600
20.579800 2.059800
20.596300 2.058200
20.612700 2.042000
20.629200 2.057700
20.645700 2.160400
20.662200 2.363700
20.678700 2.615100
20.695200 2.808000
20.711700 2.839100
20.728200 2.691000
20.744700 2.463200
20.761200 2.296000
20.777600 2.245400
20.794100 2.235400
20.810600 2.136200
20.827100 1.883900
20.843600 1.530200
20.860100 1.195500
20.876600 0.984500
20.893100 0.932000
20.909600 1.006600
20.926000 1.154500
20.942500 1.338200
20.959000 1.536900
20.975500 1.723400
20.992000 1.857800
21.008500 1.913300
21.025000 1.901200
21.041500 1.869200
21.058000 1.876900
21.074400 1.968300
21.090900 2.146200
21.107400 2.356200
21.123900 2.504900
21.140400 2.522900
21.156900 2.424600
21.173400 2.295900
21.189900 2.219700
21.206400 2.212200
21.222800 2.219600
21.239300 2.165300
21.255800 2.006800
21.272300 1.772300
21.288800 1.549300
21.305300 1.428700
21.321800 1.447200
21.338300 1.572400
21.354800 1.736400
21.371200 1.884300
21.387700 1.997300
21.404200 2.079600
21.420700 2.131500
21.437200 2.136200
21.453700 2.070600
21.470200 1.934200
21.486700 1.769100
21.503200 1.643200
21.519700 1.602700
21.536100 1.641300
21.552600 1.718200
21.569100 1.799700
21.585600 1.867400
21.602100 1.894600
21.618600 1.848000
21.635100 1.730300
21.651600 1.600900
21.668100 1.536600
21.684500 1.575800
21.701000 1.705300
21.717500 1.892200
21.734000 2.123100
21.750500 2.401000
21.767000 2.695200
21.783500 2.911400
21.800000 2.951200
21.816500 2.810200
21.832900 2.585600
21.849400 2.373900
21.865900 2.189700
21.882400 1.997100
21.898900 1.791400
21.915400 1.618800
21.931900 1.528500
21.948400 1.536000
21.964900 1.633300
21.981300 1.800900
21.997800 1.989000
22.014300 2.113600
22.030800 2.111700
22.047300 2.005200
22.063800 1.889700
22.080300 1.851100
22.096800 1.894300
22.113300 1.949900
22.129700 1.941300
22.146200 1.842800
22.162700 1.680700
22.179200 1.502000
22.195700 1.359600
22.212200 1.316100
22.228700 1.426500
22.245200 1.691800
22.261700 2.032300
22.278200 2.318900
22.294600 2.440300
22.311100 2.351600
22.327600 2.090900
22.344100 1.767900
22.360600 1.524300
22.377100 1.463000
22.393600 1.581300
22.410100 1.765500
22.426600 1.871400
22.443000 1.838700
22.459500 1.736000
22.476000 1.688900
22.492500 1.759200
22.509000 1.886800
22.525500 1.945900
22.542000 1.865400
22.558500 1.704100
22.575000 1.604200
22.591400 1.669800
22.607900 1.892600
22.624400 2.187800
22.640900 2.475500
22.657400 2.715100
22.673900 2.881900
22.690400 2.955100
22.706900 2.943900
22.723400 2.906400
22.739800 2.919300
22.756300 3.020000
22.772800 3.172600
22.789300 3.289200
22.805800 3.299000
22.822300 3.209300
22.838800 3.097400
22.855300 3.042600
22.871800 3.071400
22.888200 3.169000
22.904700 3.331300
22.921200 3.582200
22.937700 3.917800
22.954200 4.249500
22.970700 4.449000
22.987200 4.468800
23.003700 4.385400
23.020200 4.301000
23.036700 4.227100
23.053100 4.093500
23.069600 3.841400
23.086100 3.473500
23.102600 3.030400
23.119100 2.565000
23.135600 2.146500
23.152100 1.865200
23.168600 1.809100
23.185100 2.020400
23.201500 2.460200
23.218000 3.012900
23.234500 3.527900
23.251000 3.879100
23.267500 4.014000
23.284000 3.962700
23.300500 3.789800
23.317000 3.531800
23.333500 3.192100
23.349900 2.797700
23.366400 2.438100
23.382900 2.228000
23.399400 2.227200
23.415900 2.402600
23.432400 2.663200
23.448900 2.912400
23.465400 3.068500
23.481900 3.074600
23.498300 2.928700
23.514800 2.705300
23.531300 2.524000
23.547800 2.484700
23.564300 2.630000
23.580800 2.951800
23.597300 3.400600
23.613800 3.870600
23.630300 4.201700
23.646700 4.250600
23.663200 3.991900
23.679700 3.547500
23.696200 3.103900
23.712700 2.792300
23.729200 2.635800
23.745700 2.586000
23.762200 2.593700
23.778700 2.646100
23.795200 2.749900
23.811600 2.905700
23.828100 3.107900
23.844600 3.348400
23.861100 3.597700
23.877600 3.799600
23.894100 3.905200
23.910600 3.904300
23.927100 3.825100
23.943600 3.717200
23.960000 3.634300
23.976500 3.603500
23.993000 3.594700
24.009500 3.531600
24.026000 3.353900
24.042500 3.082100
24.059000 2.822800
24.075500 2.700700
24.092000 2.779100
24.108400 3.036900
24.124900 3.400800
24.141400 3.778700
24.157900 4.070100
24.174400 4.182400
24.190900 4.072000
24.207400 3.773900
24.223900 3.378000
24.240400 2.971600
24.256800 2.608800
24.273300 2.324100
24.289800 2.153700
24.306300 2.130100
24.322800 2.251100
24.339300 2.457700
24.355800 2.660700
24.372300 2.808000
24.388800 2.917100
24.405200 3.030000
24.421700 3.141800
24.438200 3.185600
24.454700 3.090700
24.471200 2.857500
24.487700 2.577600
24.504200 2.367800
24.520700 2.269000
24.537200 2.214700
24.553700 2.108000
24.570100 1.921600
24.586600 1.720100
24.603100 1.598600
24.619600 1.608400
24.636100 1.724800
24.652600 1.869900
24.669100 1.969000
24.685600 1.998000
24.702100 1.990300
24.718500 2.012400
24.735000 2.130500
24.751500 2.372300
24.768000 2.691500
24.784500 2.975700
24.801000 3.118500
24.817500 3.102300
24.834000 3.005000
24.850500 2.920700
24.866900 2.884300
24.883400 2.880900
24.899900 2.904400
24.916400 2.973700
24.932900 3.093000
24.949400 3.235000
24.965900 3.374100
24.982400 3.508300
24.998900 3.633200
25.015300 3.714300
25.031800 3.700700
25.048300 3.558600
25.064800 3.294400
25.081300 2.961200
25.097800 2.640500
25.114300 2.397700
25.130800 2.248700
25.147300 2.178700
25.163700 2.178000
25.180200 2.232500
25.196700 2.285200
25.213200 2.246100
25.229700 2.058900
25.246200 1.752000
25.262700 1.416100
25.279200 1.139700
25.295700 0.970000
25.312200 0.920200
25.328600 0.993200
25.345100 1.183300
25.361600 1.467800
25.378100 1.820600
25.394600 2.228000
25.411100 2.670700
25.427600 3.092100
25.444100 3.408600
25.460600 3.560600
25.477000 3.544300
25.493500 3.395200
25.510000 3.150100
25.526500 2.838300
25.543000 2.508600
25.559500 2.246800
25.576000 2.133700
25.592500 2.183900
25.609000 2.337300
25.625400 2.510200
25.641900 2.650300
25.658400 2.759600
25.674900 2.889600
25.691400 3.118300
25.707900 3.510000
25.724400 4.076900
25.740900 4.769800
25.757400 5.507800
25.773800 6.231800
25.790300 6.958100
25.806800 7.823900
25.823300 9.115800
25.839800 11.270100
25.856300 14.832000
25.872800 20.343900
25.889300 28.133600
25.905800 38.089800
25.922200 49.664300
25.938700 62.203100
25.955200 75.147700
25.971700 87.491500
25.988200 96.901100
26.004700 100.012000
26.021200 94.445600
26.037700 80.806500
26.054200 62.578200
26.070700 44.104700
26.087100 28.581000
26.103600 17.318700
26.120100 10.109400
26.136600 5.970100
26.153100 3.784100
26.169600 2.655700
26.186100 2.004000
26.202600 1.521700
26.219100 1.097900
26.235500 0.733100
26.252000 0.458700
26.268500 0.283600
26.285000 0.184800
26.301500 0.130000
26.318000 0.100400
26.334500 0.091100
26.351000 0.097600
26.367500 0.106700
26.383900 0.103800
26.400400 0.084300
26.416900 0.055800
26.433400 0.029900
26.449900 0.013000
26.466400 0.004500
26.482900 0.001300
26.499400 0.000300
26.515900 0.000100
26.532300 0.000000
26.548800 0.000000
26.565300 0.000000
26.581800 0.000000
26.598300 0.000000
26.614800 0.000000
26.631300 0.000000
26.647800 0.000000
26.664300 0.000000
26.680700 0.000000
26.697200 0.000000
26.713700 0.000000
26.730200 0.000000
26.746700 0.000000
26.763200 0.000000
26.779700 0.000000
26.796200 0.000000
26.812700 0.000000
26.829200 0.000000
26.845600 0.000000
26.862100 0.000000
26.878600 0.000000
26.895100 0.000000
26.911600 0.000000
26.928100 0.000000
26.944600 0.000000
26.961100 0.000000
26.977600 0.000000
26.994000 0.000000
27.010500 0.000000
27.027000 0.000000
27.043500 0.000000
27.060000 0.000000
27.076500 0.000000
27.093000 0.000000
27.109500 0.000000
27.126000 0.000000
27.142400 0.000000
27.158900 0.000000
27.175400 0.000000
27.191900 0.000000
27.208400 0.000000
27.224900 0.000000
27.241400 0.000000
27.257900 0.000000
27.274400 0.000000
27.290800 0.000000
27.307300 0.000000
27.323800 0.000000
27.340300 0.000000
27.356800 0.000000
27.373300 0.000000
27.389800 0.000000
27.406300 0.000000
27.422800 0.000000
27.439200 0.000000
27.455700 0.000000
27.472200 0.000000
27.488700 0.000000
27.505200 0.000000
27.521700 0.000000
27.538200 0.000000
27.554700 0.000000
27.571200 0.000000
27.587700 0.000000
27.604100 0.000000
27.620600 0.000000
27.637100 0.000000
27.653600 0.000000
27.670100 0.000000
27.686600 0.000000
27.703100 0.000000
27.719600 0.000000
27.736100 0.000000
27.752500 0.000000
27.769000 0.000000
27.785500 0.000000
27.802000 0.000000
27.818500 0.000000
27.835000 0.000000
27.851500 0.000000
27.868000 0.000000
e
