set title 'mp-1184010 - Density of States'
set xlabel 'Energy (eV)'
set ylabel 'DOS (states/eV)'
set grid
set xrange [-10:10]
set yrange [0:4.883]
set xzeroaxis lt -1
set terminal png size 800,600
set output 'mp-1184010_dos_gnuplot.png'
plot '-' using 1:2 with lines title 'DOS'
-12.670300 0.000000
-12.650500 0.000000
-12.630800 0.000000
-12.611000 0.000000
-12.591300 0.000000
-12.571600 0.000000
-12.551800 0.000000
-12.532100 0.000000
-12.512400 0.000000
-12.492600 0.000000
-12.472900 0.000000
-12.453200 0.000000
-12.433400 0.000000
-12.413700 0.000000
-12.394000 0.000000
-12.374200 0.000000
-12.354500 0.000000
-12.334800 0.000000
-12.315000 0.000000
-12.295300 0.000000
-12.275600 0.000000
-12.255800 0.000000
-12.236100 0.000000
-12.216300 0.000000
-12.196600 0.000000
-12.176900 0.000000
-12.157100 0.000000
-12.137400 0.000000
-12.117700 0.000000
-12.097900 0.000000
-12.078200 0.000000
-12.058500 0.000000
-12.038700 0.000000
-12.019000 0.000000
-11.999300 0.000000
-11.979500 0.000000
-11.959800 0.000000
-11.940100 0.000000
-11.920300 0.000000
-11.900600 0.000000
-11.880900 0.000000
-11.861100 0.000000
-11.841400 0.000000
-11.821600 0.000000
-11.801900 0.000000
-11.782200 0.000000
-11.762400 0.000000
-11.742700 0.000000
-11.723000 0.000000
-11.703200 0.000000
-11.683500 0.000000
-11.663800 0.000000
-11.644000 0.000000
-11.624300 0.000000
-11.604600 0.000000
-11.584800 0.000000
-11.565100 0.000000
-11.545400 0.000000
-11.525600 0.000000
-11.505900 0.000000
-11.486200 0.000000
-11.466400 0.000000
-11.446700 0.000000
-11.426900 0.000000
-11.407200 0.000000
-11.387500 0.000000
-11.367700 0.000000
-11.348000 0.000000
-11.328300 0.000000
-11.308500 0.000000
-11.288800 0.000000
-11.269100 0.000000
-11.249300 0.000000
-11.229600 0.000000
-11.209900 0.000000
-11.190100 0.000000
-11.170400 0.000000
-11.150700 0.000000
-11.130900 0.000000
-11.111200 0.000000
-11.091500 0.000000
-11.071700 0.000000
-11.052000 0.000000
-11.032200 0.000000
-11.012500 0.000300
-10.992800 0.002500
-10.973000 0.018100
-10.953300 0.102600
-10.933600 0.455000
-10.913800 1.617400
-10.894100 4.737100
-10.874400 11.721000
-10.854600 24.891700
-10.834900 45.611300
-10.815200 72.238200
-10.795400 99.666000
-10.775700 121.903000
-10.756000 134.714600
-10.736200 135.233600
-10.716500 121.855200
-10.696800 97.673500
-10.677000 72.405100
-10.657300 57.914800
-10.637500 61.026700
-10.617800 78.790200
-10.598100 98.057200
-10.578300 102.239300
-10.558600 84.412400
-10.538900 53.822200
-10.519100 26.146400
-10.499400 9.598000
-10.479700 2.648100
-10.459900 0.547100
-10.440200 0.084400
-10.420500 0.009700
-10.400700 0.000800
-10.381000 0.000100
-10.361300 0.000000
-10.341500 0.000000
-10.321800 0.000000
-10.302100 0.000000
-10.282300 0.000000
-10.262600 0.000000
-10.242800 0.000000
-10.223100 0.000000
-10.203400 0.000000
-10.183600 0.000000
-10.163900 0.000000
-10.144200 0.000000
-10.124400 0.000000
-10.104700 0.000000
-10.085000 0.000000
-10.065200 0.000000
-10.045500 0.000000
-10.025800 0.000000
-10.006000 0.000000
-9.986300 0.000000
-9.966600 0.000000
-9.946800 0.000000
-9.927100 0.000000
-9.907400 0.000000
-9.887600 0.000000
-9.867900 0.000000
-9.848100 0.000000
-9.828400 0.000000
-9.808700 0.000000
-9.788900 0.000000
-9.769200 0.000000
-9.749500 0.000000
-9.729700 0.000000
-9.710000 0.000000
-9.690300 0.000000
-9.670500 0.000000
-9.650800 0.000000
-9.631100 0.000000
-9.611300 0.000000
-9.591600 0.000000
-9.571900 0.000000
-9.552100 0.000000
-9.532400 0.000000
-9.512700 0.000000
-9.492900 0.000000
-9.473200 0.000000
-9.453400 0.000000
-9.433700 0.000000
-9.414000 0.000000
-9.394200 0.000000
-9.374500 0.000000
-9.354800 0.000000
-9.335000 0.000000
-9.315300 0.000000
-9.295600 0.000000
-9.275800 0.000000
-9.256100 0.000000
-9.236400 0.000000
-9.216600 0.000000
-9.196900 0.000000
-9.177200 0.000000
-9.157400 0.000000
-9.137700 0.000000
-9.118000 0.000000
-9.098200 0.000000
-9.078500 0.000000
-9.058800 0.000000
-9.039000 0.000000
-9.019300 0.000000
-8.999500 0.000000
-8.979800 0.000000
-8.960100 0.000000
-8.940300 0.000000
-8.920600 0.000000
-8.900900 0.000000
-8.881100 0.000000
-8.861400 0.000000
-8.841700 0.000000
-8.821900 0.000000
-8.802200 0.000000
-8.782500 0.000000
-8.762700 0.000000
-8.743000 0.000000
-8.723300 0.000000
-8.703500 0.000000
-8.683800 0.000000
-8.664100 0.000000
-8.644300 0.000000
-8.624600 0.000000
-8.604800 0.000000
-8.585100 0.000000
-8.565400 0.000000
-8.545600 0.000000
-8.525900 0.000000
-8.506200 0.000000
-8.486400 0.000000
-8.466700 0.000000
-8.447000 0.000000
-8.427200 0.000000
-8.407500 0.000000
-8.387800 0.000000
-8.368000 0.000000
-8.348300 0.000000
-8.328600 0.000000
-8.308800 0.000000
-8.289100 0.000000
-8.269400 0.000000
-8.249600 0.000000
-8.229900 0.000000
-8.210100 0.000000
-8.190400 0.000000
-8.170700 0.000000
-8.150900 0.000000
-8.131200 0.000200
-8.111500 0.001200
-8.091700 0.004800
-8.072000 0.014400
-8.052300 0.034300
-8.032500 0.068300
-8.012800 0.121400
-7.993100 0.198500
-7.973300 0.294700
-7.953600 0.384600
-7.933900 0.436200
-7.914100 0.446100
-7.894400 0.452700
-7.874700 0.494500
-7.854900 0.556700
-7.835200 0.594100
-7.815400 0.613000
-7.795700 0.686500
-7.776000 0.856000
-7.756200 1.040100
-7.736500 1.092800
-7.716800 0.978100
-7.697000 0.833100
-7.677300 0.814500
-7.657600 0.932400
-7.637800 1.082300
-7.618100 1.195000
-7.598400 1.306600
-7.578600 1.481100
-7.558900 1.681400
-7.539200 1.774800
-7.519400 1.701100
-7.499700 1.553200
-7.480000 1.451500
-7.460200 1.431600
-7.440500 1.479700
-7.420700 1.570900
-7.401000 1.653500
-7.381300 1.692400
-7.361500 1.747700
-7.341800 1.913400
-7.322100 2.159400
-7.302300 2.329500
-7.282600 2.327500
-7.262900 2.215700
-7.243100 2.131000
-7.223400 2.205900
-7.203700 2.531900
-7.183900 3.059500
-7.164200 3.531600
-7.144500 3.616800
-7.124700 3.185600
-7.105000 2.457900
-7.085300 1.835600
-7.065500 1.598600
-7.045800 1.745700
-7.026000 2.030500
-7.006300 2.152800
-6.986600 1.995100
-6.966800 1.669400
-6.947100 1.358200
-6.927400 1.185300
-6.907600 1.203500
-6.887900 1.386600
-6.868200 1.595200
-6.848400 1.636800
-6.828700 1.443900
-6.809000 1.155100
-6.789200 0.958000
-6.769500 0.919300
-6.749800 1.002200
-6.730000 1.139400
-6.710300 1.231800
-6.690600 1.171900
-6.670800 0.947400
-6.651100 0.664300
-6.631300 0.426400
-6.611600 0.255100
-6.591900 0.134500
-6.572100 0.057700
-6.552400 0.019100
-6.532700 0.004800
-6.512900 0.000900
-6.493200 0.000100
-6.473500 0.000000
-6.453700 0.000000
-6.434000 0.000000
-6.414300 0.000000
-6.394500 0.000000
-6.374800 0.000000
-6.355100 0.000000
-6.335300 0.000000
-6.315600 0.000000
-6.295900 0.000000
-6.276100 0.000000
-6.256400 0.000000
-6.236600 0.000000
-6.216900 0.000000
-6.197200 0.000000
-6.177400 0.000000
-6.157700 0.000000
-6.138000 0.000000
-6.118200 0.000000
-6.098500 0.000000
-6.078800 0.000000
-6.059000 0.000000
-6.039300 0.000000
-6.019600 0.000000
-5.999800 0.000000
-5.980100 0.000000
-5.960400 0.000000
-5.940600 0.000000
-5.920900 0.000000
-5.901200 0.000000
-5.881400 0.000000
-5.861700 0.000000
-5.841900 0.000000
-5.822200 0.000000
-5.802500 0.000000
-5.782700 0.000000
-5.763000 0.000000
-5.743300 0.000000
-5.723500 0.000000
-5.703800 0.000000
-5.684100 0.000000
-5.664300 0.000000
-5.644600 0.000000
-5.624900 0.000000
-5.605100 0.000000
-5.585400 0.000000
-5.565700 0.000000
-5.545900 0.000000
-5.526200 0.000000
-5.506500 0.000000
-5.486700 0.000000
-5.467000 0.000000
-5.447200 0.000000
-5.427500 0.000000
-5.407800 0.000000
-5.388000 0.000000
-5.368300 0.000000
-5.348600 0.000000
-5.328800 0.000000
-5.309100 0.000000
-5.289400 0.000000
-5.269600 0.000000
-5.249900 0.000000
-5.230200 0.000000
-5.210400 0.000000
-5.190700 0.000000
-5.171000 0.000000
-5.151200 0.000000
-5.131500 0.000000
-5.111800 0.000000
-5.092000 0.000000
-5.072300 0.000000
-5.052500 0.000000
-5.032800 0.000000
-5.013100 0.000000
-4.993300 0.000000
-4.973600 0.000000
-4.953900 0.000000
-4.934100 0.000000
-4.914400 0.000000
-4.894700 0.000000
-4.874900 0.000000
-4.855200 0.000000
-4.835500 0.000000
-4.815700 0.000000
-4.796000 0.000000
-4.776300 0.000000
-4.756500 0.000000
-4.736800 0.000000
-4.717100 0.000000
-4.697300 0.000000
-4.677600 0.000000
-4.657900 0.000000
-4.638100 0.000000
-4.618400 0.000000
-4.598600 0.000000
-4.578900 0.000000
-4.559200 0.000000
-4.539400 0.000000
-4.519700 0.000000
-4.500000 0.000000
-4.480200 0.000000
-4.460500 0.000000
-4.440800 0.000000
-4.421000 0.000100
-4.401300 0.000400
-4.381600 0.001800
-4.361800 0.006700
-4.342100 0.018600
-4.322400 0.040600
-4.302600 0.070600
-4.282900 0.100000
-4.263200 0.115800
-4.243400 0.109200
-4.223700 0.087600
-4.203900 0.077800
-4.184200 0.109300
-4.164500 0.188800
-4.144700 0.282800
-4.125000 0.332700
-4.105300 0.303600
-4.085500 0.218800
-4.065800 0.139300
-4.046100 0.112600
-4.026300 0.146100
-4.006600 0.212900
-3.986900 0.275100
-3.967100 0.308700
-3.947400 0.312600
-3.927700 0.301100
-3.907900 0.293400
-3.888200 0.305400
-3.868500 0.342700
-3.848700 0.396500
-3.829000 0.437700
-3.809200 0.438000
-3.789500 0.411800
-3.769800 0.401300
-3.750000 0.411000
-3.730300 0.407900
-3.710600 0.385500
-3.690800 0.374600
-3.671100 0.391900
-3.651400 0.420500
-3.631600 0.450300
-3.611900 0.518000
-3.592200 0.696600
-3.572400 1.029600
-3.552700 1.461000
-3.533000 1.826300
-3.513200 1.969400
-3.493500 1.921400
-3.473800 1.891900
-3.454000 2.002500
-3.434300 2.111300
-3.414500 2.016600
-3.394800 1.765200
-3.375100 1.611000
-3.355300 1.691300
-3.335600 1.884600
-3.315900 2.005900
-3.296100 2.026500
-3.276400 2.046100
-3.256700 2.132400
-3.236900 2.265600
-3.217200 2.368900
-3.197500 2.330700
-3.177700 2.085500
-3.158000 1.731100
-3.138300 1.463400
-3.118500 1.361000
-3.098800 1.337600
-3.079100 1.300100
-3.059300 1.244100
-3.039600 1.215900
-3.019800 1.280600
-3.000100 1.531400
-2.980400 2.034600
-2.960600 2.702500
-2.940900 3.267100
-2.921200 3.452000
-2.901400 3.173800
-2.881700 2.566700
-2.862000 1.856700
-2.842200 1.237900
-2.822500 0.830800
-2.802800 0.673000
-2.783000 0.710600
-2.763300 0.830500
-2.743600 0.935200
-2.723800 1.008500
-2.704100 1.119100
-2.684400 1.319300
-2.664600 1.514200
-2.644900 1.513700
-2.625100 1.274000
-2.605400 0.998900
-2.585700 0.915600
-2.565900 1.015400
-2.546200 1.095800
-2.526500 1.023000
-2.506700 0.874700
-2.487000 0.820300
-2.467300 0.924900
-2.447500 1.106300
-2.427800 1.241700
-2.408100 1.257500
-2.388300 1.133300
-2.368600 0.900500
-2.348900 0.661600
-2.329100 0.540900
-2.309400 0.584800
-2.289700 0.740500
-2.269900 0.911900
-2.250200 1.007200
-2.230400 0.993600
-2.210700 0.937900
-2.191000 0.929000
-2.171200 0.980700
-2.151500 1.082400
-2.131800 1.259000
-2.112000 1.463600
-2.092300 1.511100
-2.072600 1.264800
-2.052800 0.829200
-2.033100 0.444500
-2.013400 0.249000
-1.993600 0.215400
-1.973900 0.263400
-1.954200 0.369800
-1.934400 0.562400
-1.914700 0.826000
-1.895000 1.065200
-1.875200 1.194600
-1.855500 1.225600
-1.835700 1.231500
-1.816000 1.273300
-1.796300 1.375800
-1.776500 1.520300
-1.756800 1.651100
-1.737100 1.730300
-1.717300 1.767100
-1.697600 1.776900
-1.677900 1.769300
-1.658100 1.774500
-1.638400 1.810200
-1.618700 1.844400
-1.598900 1.829000
-1.579200 1.736300
-1.559500 1.581600
-1.539700 1.439800
-1.520000 1.382000
-1.500300 1.389200
-1.480500 1.382500
-1.460800 1.322500
-1.441000 1.239800
-1.421300 1.181900
-1.401600 1.170900
-1.381800 1.222800
-1.362100 1.359000
-1.342400 1.554900
-1.322600 1.710500
-1.302900 1.723000
-1.283200 1.593100
-1.263400 1.432300
-1.243700 1.340100
-1.224000 1.302800
-1.204200 1.260400
-1.184500 1.214200
-1.164800 1.193100
-1.145000 1.168100
-1.125300 1.069800
-1.105600 0.871200
-1.085800 0.629300
-1.066100 0.454000
-1.046300 0.434000
-1.026600 0.573600
-1.006900 0.804800
-0.987100 1.081200
-0.967400 1.428000
-0.947700 1.841900
-0.927900 2.201900
-0.908200 2.361100
-0.888500 2.275900
-0.868700 2.009800
-0.849000 1.682300
-0.829300 1.424700
-0.809500 1.320400
-0.789800 1.349900
-0.770100 1.399200
-0.750300 1.369800
-0.730600 1.295400
-0.710900 1.317200
-0.691100 1.547000
-0.671400 1.970900
-0.651600 2.454300
-0.631900 2.801800
-0.612200 2.873800
-0.592400 2.729300
-0.572700 2.587100
-0.553000 2.561800
-0.533200 2.550600
-0.513500 2.448800
-0.493800 2.305200
-0.474000 2.175700
-0.454300 1.988100
-0.434600 1.672500
-0.414800 1.348800
-0.395100 1.254700
-0.375400 1.481900
-0.355600 1.865100
-0.335900 2.135900
-0.316200 2.127400
-0.296400 1.857700
-0.276700 1.509300
-0.256900 1.318300
-0.237200 1.373600
-0.217500 1.509300
-0.197700 1.478600
-0.178000 1.236700
-0.158300 0.974000
-0.138500 0.892300
-0.118800 1.036600
-0.099100 1.308200
-0.079300 1.544500
-0.059600 1.612200
-0.039900 1.507300
-0.020100 1.369600
-0.000400 1.351300
0.019300 1.466200
0.039100 1.593100
0.058800 1.621600
0.078500 1.564100
0.098300 1.500700
0.118000 1.450900
0.137700 1.368200
0.157500 1.258400
0.177200 1.212500
0.197000 1.298700
0.216700 1.464300
0.236400 1.560500
0.256200 1.473400
0.275900 1.244700
0.295600 1.048000
0.315400 1.026200
0.335100 1.154800
0.354800 1.290500
0.374600 1.356000
0.394300 1.407100
0.414000 1.479800
0.433800 1.477000
0.453500 1.300100
0.473200 1.018100
0.493000 0.796300
0.512700 0.704000
0.532400 0.680700
0.552200 0.663500
0.571900 0.667000
0.591700 0.743000
0.611400 0.909700
0.631100 1.116000
0.650900 1.253500
0.670600 1.234000
0.690300 1.092100
0.710100 0.988700
0.729800 1.074900
0.749500 1.358600
0.769300 1.723600
0.789000 2.057200
0.808700 2.313800
0.828500 2.465500
0.848200 2.475800
0.867900 2.341900
0.887700 2.092900
0.907400 1.764600
0.927100 1.435900
0.946900 1.233100
0.966600 1.243400
0.986400 1.438300
1.006100 1.681400
1.025800 1.806800
1.045600 1.735600
1.065300 1.558200
1.085000 1.474100
1.104800 1.584200
1.124500 1.744500
1.144200 1.716600
1.164000 1.466500
1.183700 1.183400
1.203400 1.015400
1.223200 0.945700
1.242900 0.925300
1.262600 0.983600
1.282400 1.187700
1.302100 1.544800
1.321800 1.947300
1.341600 2.250900
1.361300 2.434200
1.381100 2.580200
1.400800 2.682700
1.420500 2.631700
1.440300 2.410700
1.460000 2.151600
1.479700 1.984100
1.499500 1.965400
1.519200 2.135800
1.538900 2.484100
1.558700 2.841500
1.578400 2.960300
1.598100 2.740700
1.617900 2.317400
1.637600 1.939800
1.657300 1.782500
1.677100 1.803700
1.696800 1.809000
1.716500 1.719200
1.736300 1.708200
1.756000 1.981700
1.775800 2.469900
1.795500 2.838500
1.815200 2.819000
1.835000 2.466500
1.854700 2.082700
1.874400 1.950800
1.894200 2.152100
1.913900 2.563500
1.933600 2.970000
1.953400 3.173100
1.973100 3.051200
1.992800 2.614500
2.012600 2.038500
2.032300 1.579000
2.052000 1.411700
2.071800 1.563500
2.091500 1.942500
2.111200 2.351500
2.131000 2.526200
2.150700 2.298800
2.170500 1.771000
2.190200 1.284700
2.209900 1.187500
2.229700 1.571400
2.249400 2.178400
2.269100 2.582400
2.288900 2.537100
2.308600 2.147900
2.328300 1.708100
2.348100 1.442000
2.367800 1.412500
2.387500 1.591000
2.407300 1.935600
2.427000 2.365600
2.446700 2.731900
2.466500 2.915300
2.486200 2.908100
2.505900 2.740500
2.525700 2.431900
2.545400 2.065800
2.565200 1.800500
2.584900 1.752800
2.604600 1.899900
2.624400 2.076300
2.644100 2.089500
2.663800 1.889500
2.683600 1.608500
2.703300 1.417800
2.723000 1.371800
2.742800 1.395900
2.762500 1.389400
2.782200 1.330600
2.802000 1.305500
2.821700 1.433000
2.841400 1.733100
2.861200 2.083500
2.880900 2.335200
2.900600 2.428600
2.920400 2.372000
2.940100 2.185800
2.959900 1.925300
2.979600 1.687700
2.999300 1.515300
3.019100 1.348800
3.038800 1.133200
3.058500 0.916900
3.078300 0.818800
3.098000 0.946600
3.117700 1.333100
3.137500 1.901000
3.157200 2.477800
3.176900 2.871300
3.196700 2.965000
3.216400 2.782900
3.236100 2.471200
3.255900 2.201000
3.275600 2.067700
3.295300 2.059700
3.315100 2.106600
3.334800 2.161700
3.354600 2.241600
3.374300 2.370800
3.394000 2.507700
3.413800 2.571900
3.433500 2.527600
3.453200 2.408300
3.473000 2.290100
3.492700 2.262500
3.512400 2.388800
3.532200 2.658900
3.551900 2.971100
3.571600 3.173200
3.591400 3.148200
3.611100 2.872900
3.630800 2.435100
3.650600 2.017400
3.670300 1.788800
3.690000 1.760400
3.709800 1.810400
3.729500 1.832200
3.749300 1.776000
3.769000 1.607000
3.788700 1.324400
3.808500 1.003700
3.828200 0.767400
3.847900 0.703200
3.867700 0.810000
3.887400 1.012300
3.907100 1.225700
3.926900 1.419700
3.946600 1.620000
3.966300 1.847400
3.986100 2.061200
4.005800 2.173900
4.025500 2.117800
4.045300 1.891000
4.065000 1.553300
4.084700 1.189400
4.104500 0.868300
4.124200 0.622700
4.144000 0.459500
4.163700 0.380600
4.183400 0.393600
4.203200 0.519100
4.222900 0.778300
4.242600 1.142600
4.262400 1.503300
4.282100 1.752400
4.301800 1.909300
4.321600 2.099000
4.341300 2.363000
4.361000 2.567100
4.380800 2.551800
4.400500 2.312500
4.420200 2.004600
4.440000 1.812100
4.459700 1.787800
4.479400 1.802500
4.499200 1.690500
4.518900 1.438200
4.538600 1.176800
4.558400 1.009100
4.578100 0.917100
4.597900 0.846000
4.617600 0.812700
4.637300 0.877400
4.657100 1.030100
4.676800 1.161200
4.696500 1.174600
4.716300 1.115000
4.736000 1.150400
4.755700 1.404300
4.775500 1.809900
4.795200 2.152800
4.814900 2.265500
4.834700 2.140300
4.854400 1.858500
4.874100 1.497800
4.893900 1.141100
4.913600 0.904600
4.933300 0.897600
4.953100 1.122700
4.972800 1.432900
4.992600 1.665300
5.012300 1.815900
5.032000 1.982900
5.051800 2.159200
5.071500 2.229600
5.091200 2.167800
5.111000 2.110600
5.130700 2.222800
5.150400 2.528000
5.170200 2.859700
5.189900 3.003100
5.209600 2.904200
5.229400 2.663100
5.249100 2.342100
5.268800 1.930900
5.288600 1.498800
5.308300 1.211700
5.328000 1.159200
5.347800 1.276700
5.367500 1.471700
5.387300 1.732500
5.407000 2.071100
5.426700 2.457900
5.446500 2.859500
5.466200 3.220300
5.485900 3.374500
5.505700 3.152400
5.525400 2.622900
5.545100 2.055700
5.564900 1.655900
5.584600 1.481900
5.604300 1.526600
5.624100 1.730200
5.643800 1.971700
5.663500 2.137800
5.683300 2.207700
5.703000 2.252500
5.722700 2.320400
5.742500 2.332500
5.762200 2.164100
5.782000 1.819100
5.801700 1.450700
5.821400 1.238200
5.841200 1.282400
5.860900 1.553700
5.880600 1.899400
5.900400 2.153800
5.920100 2.248300
5.939800 2.212100
5.959600 2.129100
5.979300 2.103500
5.999000 2.224900
6.018800 2.544900
6.038500 3.022300
6.058200 3.448200
6.078000 3.545500
6.097700 3.248800
6.117400 2.810500
6.137200 2.537000
6.156900 2.491100
6.176700 2.532300
6.196400 2.566000
6.216100 2.616700
6.235900 2.688000
6.255600 2.703100
6.275300 2.630500
6.295100 2.595100
6.314800 2.776400
6.334500 3.156000
6.354300 3.446600
6.374000 3.376400
6.393700 2.994400
6.413500 2.597400
6.433200 2.390400
6.452900 2.324500
6.472700 2.263000
6.492400 2.170500
6.512100 2.079200
6.531900 1.993000
6.551600 1.927500
6.571400 1.942800
6.591100 2.024400
6.610800 2.033900
6.630600 1.888500
6.650300 1.670300
6.670000 1.485200
6.689800 1.361400
6.709500 1.336100
6.729200 1.492200
6.749000 1.860700
6.768700 2.357000
6.788400 2.811900
6.808200 3.058800
6.827900 3.038300
6.847600 2.827500
6.867400 2.561700
6.887100 2.339700
6.906800 2.194000
6.926600 2.149200
6.946300 2.280100
6.966100 2.616800
6.985800 3.026800
7.005500 3.341600
7.025300 3.542700
7.045000 3.651100
7.064700 3.569200
7.084500 3.230400
7.104200 2.754500
7.123900 2.310600
7.143700 1.966900
7.163400 1.751000
7.183100 1.741500
7.202900 1.999500
7.222600 2.405400
7.242300 2.677100
7.262100 2.640100
7.281800 2.406400
7.301500 2.239800
7.321300 2.314800
7.341000 2.607100
7.360800 2.962300
7.380500 3.243500
7.400200 3.384600
7.420000 3.339600
7.439700 3.112500
7.459400 2.830800
7.479200 2.630200
7.498900 2.482500
7.518600 2.273700
7.538400 1.998700
7.558100 1.749800
7.577800 1.588600
7.597600 1.528600
7.617300 1.570000
7.637000 1.683300
7.656800 1.828000
7.676500 2.000600
7.696200 2.202400
7.716000 2.395300
7.735700 2.537500
7.755500 2.604600
7.775200 2.561900
7.794900 2.407300
7.814700 2.231000
7.834400 2.127300
7.854100 2.073300
7.873900 2.006900
7.893600 1.996200
7.913300 2.223000
7.933100 2.773300
7.952800 3.477200
7.972500 4.008200
7.992300 4.178300
8.012000 4.077200
8.031700 3.891600
8.051500 3.677300
8.071200 3.366600
8.090900 2.936200
8.110700 2.490800
8.130400 2.172400
8.150200 2.043000
8.169900 2.079000
8.189600 2.231200
8.209400 2.474800
8.229100 2.837400
8.248800 3.355700
8.268600 3.955800
8.288300 4.402500
8.308000 4.439200
8.327800 3.995500
8.347500 3.243600
8.367200 2.474500
8.387000 1.942700
8.406700 1.782500
8.426400 1.999000
8.446200 2.486300
8.465900 3.037900
8.485600 3.378200
8.505400 3.298600
8.525100 2.839700
8.544900 2.268800
8.564600 1.843500
8.584300 1.690100
8.604100 1.877000
8.623800 2.397800
8.643500 3.025300
8.663300 3.367700
8.683000 3.216500
8.702700 2.762000
8.722500 2.379100
8.742200 2.277500
8.761900 2.413500
8.781700 2.625100
8.801400 2.752600
8.821100 2.686200
8.840900 2.415300
8.860600 2.078300
8.880300 1.898300
8.900100 1.979200
8.919800 2.180500
8.939500 2.278600
8.959300 2.222200
8.979000 2.138600
8.998800 2.145400
9.018500 2.253000
9.038200 2.397100
9.058000 2.518900
9.077700 2.645600
9.097400 2.844300
9.117200 3.049300
9.136900 3.046100
9.156600 2.712000
9.176400 2.198900
9.196100 1.831800
9.215800 1.855600
9.235600 2.273300
9.255300 2.872000
9.275000 3.368500
9.294800 3.566900
9.314500 3.452600
9.334200 3.162500
9.354000 2.854100
9.373700 2.622900
9.393500 2.523600
9.413200 2.557500
9.432900 2.616000
9.452700 2.560400
9.472400 2.373900
9.492100 2.139100
9.511900 1.902500
9.531600 1.662000
9.551300 1.446900
9.571100 1.327000
9.590800 1.334900
9.610500 1.404000
9.630300 1.410400
9.650000 1.309500
9.669700 1.216600
9.689500 1.295400
9.709200 1.557800
9.728900 1.818900
9.748700 1.872000
9.768400 1.690000
9.788200 1.430200
9.807900 1.285100
9.827600 1.375000
9.847400 1.707700
9.867100 2.130800
9.886800 2.400400
9.906600 2.419100
9.926300 2.324500
9.946000 2.248900
9.965800 2.131400
9.985500 1.869900
10.005200 1.530100
10.025000 1.309100
10.044700 1.346200
10.064400 1.590400
10.084200 1.843700
10.103900 1.956200
10.123600 1.955700
10.143400 1.966900
10.163100 2.075800
10.182900 2.283000
10.202600 2.493300
10.222300 2.564500
10.242100 2.461900
10.261800 2.316000
10.281500 2.250900
10.301300 2.241300
10.321000 2.214200
10.340700 2.218100
10.360500 2.381300
10.380200 2.688600
10.399900 2.895700
10.419700 2.745500
10.439400 2.236400
10.459100 1.626900
10.478900 1.202800
10.498600 1.073500
10.518300 1.162200
10.538100 1.344700
10.557800 1.574100
10.577600 1.861400
10.597300 2.164800
10.617000 2.381900
10.636800 2.468400
10.656500 2.487700
10.676200 2.507800
10.696000 2.508500
10.715700 2.417600
10.735400 2.209400
10.755200 1.957600
10.774900 1.768700
10.794600 1.662000
10.814400 1.563900
10.834100 1.439200
10.853800 1.387300
10.873600 1.552600
10.893300 1.946700
10.913000 2.412500
10.932800 2.759200
10.952500 2.871100
10.972300 2.712500
10.992000 2.341600
11.011700 1.945100
11.031500 1.734300
11.051200 1.739300
11.070900 1.782300
11.090700 1.693000
11.110400 1.479100
11.130100 1.253100
11.149900 1.064600
11.169600 0.889700
11.189300 0.771900
11.209100 0.861300
11.228800 1.248400
11.248500 1.813600
11.268300 2.328500
11.288000 2.686400
11.307700 2.933200
11.327500 3.096800
11.347200 3.129500
11.367000 3.011400
11.386700 2.802800
11.406400 2.568000
11.426200 2.290300
11.445900 1.925600
11.465600 1.552900
11.485400 1.371400
11.505100 1.500700
11.524800 1.847200
11.544600 2.185300
11.564300 2.337700
11.584000 2.289000
11.603800 2.159300
11.623500 2.084500
11.643200 2.116000
11.663000 2.216100
11.682700 2.347400
11.702400 2.530700
11.722200 2.759500
11.741900 2.903800
11.761700 2.799900
11.781400 2.446900
11.801100 2.030400
11.820900 1.712900
11.840600 1.480400
11.860300 1.258100
11.880100 1.080400
11.899800 1.040700
11.919500 1.136200
11.939300 1.271000
11.959000 1.391800
11.978700 1.542100
11.998500 1.776800
12.018200 2.065400
12.037900 2.301900
12.057700 2.411900
12.077400 2.430900
12.097100 2.455300
12.116900 2.527700
12.136600 2.575000
12.156400 2.449900
12.176100 2.077800
12.195800 1.588600
12.215600 1.238300
12.235300 1.183000
12.255000 1.378600
12.274800 1.658600
12.294500 1.853400
12.314200 1.898700
12.334000 1.878500
12.353700 1.914400
12.373400 2.022000
12.393200 2.132600
12.412900 2.232900
12.432600 2.404500
12.452400 2.709000
12.472100 3.080200
12.491800 3.351000
12.511600 3.363700
12.531300 3.083400
12.551100 2.649800
12.570800 2.302400
12.590500 2.211500
12.610300 2.356800
12.630000 2.561000
12.649700 2.633200
12.669500 2.496600
12.689200 2.227700
12.708900 2.003000
12.728700 1.983100
12.748400 2.189300
12.768100 2.472800
12.787900 2.651100
12.807600 2.701900
12.827300 2.771800
12.847100 2.947000
12.866800 3.079700
12.886500 2.943300
12.906300 2.526100
12.926000 2.068400
12.945800 1.818700
12.965500 1.833600
12.985200 2.004300
13.005000 2.183100
13.024700 2.252500
13.044400 2.157800
13.064200 1.946600
13.083900 1.768800
13.103600 1.808000
13.123400 2.190300
13.143100 2.882300
13.162800 3.607400
13.182600 3.940200
13.202300 3.626400
13.222000 2.818600
13.241800 1.950000
13.261500 1.391500
13.281200 1.225500
13.301000 1.311800
13.320700 1.519600
13.340400 1.823600
13.360200 2.198100
13.379900 2.548200
13.399700 2.781000
13.419400 2.860000
13.439100 2.770000
13.458900 2.509100
13.478600 2.151300
13.498300 1.830400
13.518100 1.635900
13.537800 1.617000
13.557500 1.856900
13.577300 2.377300
13.597000 2.977400
13.616700 3.354000
13.636500 3.378800
13.656200 3.129400
13.675900 2.739400
13.695700 2.347900
13.715400 2.081400
13.735100 1.986500
13.754900 2.042600
13.774600 2.251600
13.794400 2.655200
13.814100 3.241000
13.833800 3.837100
13.853600 4.145200
13.873300 3.970000
13.893000 3.412500
13.912800 2.754100
13.932500 2.198600
13.952200 1.800200
13.972000 1.547000
13.991700 1.413100
14.011400 1.376400
14.031200 1.439300
14.050900 1.611900
14.070600 1.865500
14.090400 2.134700
14.110100 2.393000
14.129800 2.700100
14.149600 3.115300
14.169300 3.536400
14.189100 3.692200
14.208800 3.423300
14.228500 2.940600
14.248300 2.643500
14.268000 2.711000
14.287700 3.018900
14.307500 3.367900
14.327200 3.639400
14.346900 3.789600
14.366700 3.820100
14.386400 3.749600
14.406100 3.579100
14.425900 3.318300
14.445600 3.052800
14.465300 2.896500
14.485100 2.840400
14.504800 2.762400
14.524500 2.649000
14.544300 2.655300
14.564000 2.849100
14.583800 3.055400
14.603500 3.072700
14.623200 2.919600
14.643000 2.764600
14.662700 2.712600
14.682400 2.757000
14.702200 2.870500
14.721900 3.033400
14.741600 3.186500
14.761400 3.250200
14.781100 3.221300
14.800800 3.173100
14.820600 3.117200
14.840300 2.946700
14.860000 2.585600
14.879800 2.145500
14.899500 1.879100
14.919200 1.971700
14.939000 2.382500
14.958700 2.930200
14.978500 3.524200
14.998200 4.191600
15.017900 4.865700
15.037700 5.296300
15.057400 5.241500
15.077100 4.683300
15.096900 3.818100
15.116600 2.916800
15.136300 2.213100
15.156100 1.807400
15.175800 1.637900
15.195500 1.606400
15.215300 1.709500
15.235000 2.012800
15.254700 2.524100
15.274500 3.081600
15.294200 3.402100
15.313900 3.338600
15.333700 3.034300
15.353400 2.732700
15.373200 2.521500
15.392900 2.336400
15.412600 2.137200
15.432400 2.008200
15.452100 2.098600
15.471800 2.478600
15.491600 3.049200
15.511300 3.605900
15.531000 3.978100
15.550800 4.089200
15.570500 3.939500
15.590200 3.604300
15.610000 3.243600
15.629700 3.045700
15.649400 3.089900
15.669200 3.269000
15.688900 3.404400
15.708600 3.436700
15.728400 3.439900
15.748100 3.449800
15.767900 3.400900
15.787600 3.283400
15.807300 3.214300
15.827100 3.248400
15.846800 3.242300
15.866500 3.038700
15.886300 2.717100
15.906000 2.549000
15.925700 2.709700
15.945500 3.084900
15.965200 3.389300
15.984900 3.466700
16.004700 3.393800
16.024400 3.284000
16.044100 3.156500
16.063900 3.038700
16.083600 3.006900
16.103300 3.049600
16.123100 3.005300
16.142800 2.751100
16.162600 2.428800
16.182300 2.346400
16.202000 2.633900
16.221800 3.116400
16.241500 3.534400
16.261200 3.763700
16.281000 3.808600
16.300700 3.715400
16.320400 3.533300
16.340200 3.281700
16.359900 2.952900
16.379600 2.570300
16.399400 2.222500
16.419100 2.016300
16.438800 1.988000
16.458600 2.081500
16.478300 2.231700
16.498000 2.403800
16.517800 2.536300
16.537500 2.535200
16.557300 2.368100
16.577000 2.124000
16.596700 1.940900
16.616500 1.888100
16.636200 1.968700
16.655900 2.217700
16.675700 2.670900
16.695400 3.198900
16.715100 3.500600
16.734900 3.356500
16.754600 2.839700
16.774300 2.237800
16.794100 1.843200
16.813800 1.827100
16.833500 2.174000
16.853300 2.663500
16.873000 2.989000
16.892700 2.987600
16.912500 2.789500
16.932200 2.697900
16.952000 2.857100
16.971700 3.070300
16.991400 3.032400
17.011200 2.695300
17.030900 2.297900
17.050600 2.084900
17.070400 2.102400
17.090100 2.235600
17.109800 2.375200
17.129600 2.521600
17.149300 2.730200
17.169000 3.030100
17.188800 3.439700
17.208500 3.943800
17.228200 4.362600
17.248000 4.388700
17.267700 3.921100
17.287400 3.278600
17.307200 2.910600
17.326900 2.936000
17.346700 3.091500
17.366400 3.085200
17.386100 2.869400
17.405900 2.578800
17.425600 2.366600
17.445300 2.378900
17.465100 2.718900
17.484800 3.272500
17.504500 3.661200
17.524300 3.545700
17.544000 2.972900
17.563700 2.321500
17.583500 1.955600
17.603200 2.009000
17.622900 2.395600
17.642700 2.905300
17.662400 3.324100
17.682100 3.538600
17.701900 3.559700
17.721600 3.459100
17.741400 3.320800
17.761100 3.245400
17.780800 3.309400
17.800600 3.474400
17.820300 3.584300
17.840000 3.509300
17.859800 3.281600
17.879500 3.035900
17.899200 2.819200
17.919000 2.529900
17.938700 2.071300
17.958400 1.518400
17.978200 1.081700
17.997900 0.925900
18.017600 1.061900
18.037400 1.400300
18.057100 1.868600
18.076800 2.444100
18.096600 3.082000
18.116300 3.651400
18.136000 3.965100
18.155800 3.897500
18.175500 3.515800
18.195300 3.066100
18.215000 2.786100
18.234700 2.767600
18.254500 2.987800
18.274200 3.343800
18.293900 3.629100
18.313700 3.641200
18.333400 3.389400
18.353100 3.108400
18.372900 3.052700
18.392600 3.313600
18.412300 3.768100
18.432100 4.180500
18.451800 4.400700
18.471500 4.431500
18.491300 4.304400
18.511000 4.005900
18.530700 3.566000
18.550500 3.117600
18.570200 2.793500
18.590000 2.621000
18.609700 2.559300
18.629400 2.578900
18.649200 2.676100
18.668900 2.867100
18.688600 3.189300
18.708400 3.655000
18.728100 4.167100
18.747800 4.521900
18.767600 4.556600
18.787300 4.315000
18.807000 4.019600
18.826800 3.827000
18.846500 3.672500
18.866200 3.422100
18.886000 3.083300
18.905700 2.777200
18.925400 2.597900
18.945200 2.593800
18.964900 2.784500
18.984700 3.091000
19.004400 3.323500
19.024100 3.357200
19.043900 3.315700
19.063600 3.470800
19.083300 3.907300
19.103100 4.367300
19.122800 4.499300
19.142500 4.199800
19.162300 3.678100
19.182000 3.259800
19.201700 3.122900
19.221500 3.185100
19.241200 3.236400
19.260900 3.141500
19.280700 2.950600
19.300400 2.866900
19.320100 3.032500
19.339900 3.319100
19.359600 3.428500
19.379400 3.225100
19.399100 2.884600
19.418800 2.677800
19.438600 2.676500
19.458300 2.761800
19.478000 2.850300
19.497800 2.922200
19.517500 2.880600
19.537200 2.644900
19.557000 2.364400
19.576700 2.300000
19.596400 2.511100
19.616200 2.851400
19.635900 3.234800
19.655600 3.657900
19.675400 3.952900
19.695100 3.820400
19.714800 3.222600
19.734600 2.532200
19.754300 2.202500
19.774100 2.406800
19.793800 2.979300
19.813500 3.573600
19.833300 3.902300
19.853000 3.940600
19.872700 3.901600
19.892500 3.974400
19.912200 4.114500
19.931900 4.120800
19.951700 3.882000
19.971400 3.498900
19.991100 3.205700
20.010900 3.211100
20.030600 3.556100
20.050300 4.065600
20.070100 4.435200
20.089800 4.426000
20.109500 4.082800
20.129300 3.747100
20.149000 3.725300
20.168800 3.960800
20.188500 4.157000
20.208200 4.195200
20.228000 4.235900
20.247700 4.369400
20.267400 4.394600
20.287200 4.087700
20.306900 3.553700
20.326600 3.148500
20.346400 3.078900
20.366100 3.194200
20.385800 3.191400
20.405600 2.964600
20.425300 2.686100
20.445000 2.566000
20.464800 2.621400
20.484500 2.696800
20.504200 2.660900
20.524000 2.558300
20.543700 2.529000
20.563500 2.593300
20.583200 2.610400
20.602900 2.468500
20.622700 2.229700
20.642400 2.039100
20.662100 1.954200
20.681900 1.969400
20.701600 2.181200
20.721300 2.762600
20.741100 3.715000
20.760800 4.738800
20.780500 5.397700
20.800300 5.390000
20.820000 4.745600
20.839700 3.850700
20.859500 3.196600
20.879200 3.020400
20.898900 3.209600
20.918700 3.514500
20.938400 3.775300
20.958200 3.964700
20.977900 4.098200
20.997600 4.156000
21.017400 4.089500
21.037100 3.883700
21.056800 3.596600
21.076600 3.333900
21.096300 3.187100
21.116000 3.186700
21.135800 3.310100
21.155500 3.523700
21.175200 3.789200
21.195000 4.009500
21.214700 4.009000
21.234400 3.665800
21.254200 3.117300
21.273900 2.748400
21.293600 2.875900
21.313400 3.462000
21.333100 4.164000
21.352900 4.622900
21.372600 4.695900
21.392300 4.506400
21.412100 4.309100
21.431800 4.252100
21.451500 4.302500
21.471300 4.408700
21.491000 4.582600
21.510700 4.796400
21.530500 4.970400
21.550200 5.102200
21.569900 5.272500
21.589700 5.465100
21.609400 5.486400
21.629100 5.138700
21.648900 4.420700
21.668600 3.525700
21.688300 2.693100
21.708100 2.090900
21.727800 1.785700
21.747600 1.739400
21.767300 1.828500
21.787000 1.936200
21.806800 2.049100
21.826500 2.227200
21.846200 2.500400
21.866000 2.846500
21.885700 3.255200
21.905400 3.725700
21.925200 4.161800
21.944900 4.364000
21.964600 4.208500
21.984400 3.787400
22.004100 3.339600
22.023800 3.087400
22.043600 3.091100
22.063300 3.183100
22.083000 3.117100
22.102800 2.834000
22.122500 2.491300
22.142300 2.254500
22.162000 2.177400
22.181700 2.252800
22.201500 2.471700
22.221200 2.806100
22.240900 3.151900
22.260700 3.339300
22.280400 3.273600
22.300100 3.062900
22.319900 2.928400
22.339600 2.993500
22.359300 3.207300
22.379100 3.423100
22.398800 3.486100
22.418500 3.291400
22.438300 2.858100
22.458000 2.388100
22.477700 2.176200
22.497500 2.341200
22.517200 2.653700
22.536900 2.741600
22.556700 2.482900
22.576400 2.122600
22.596200 2.012600
22.615900 2.291100
22.635600 2.791700
22.655400 3.211200
22.675100 3.353100
22.694800 3.249600
22.714600 3.083300
22.734300 2.988200
22.754000 2.931300
22.773800 2.790500
22.793500 2.502400
22.813200 2.103700
22.833000 1.665100
22.852700 1.242700
22.872400 0.893200
22.892200 0.679500
22.911900 0.640400
22.931600 0.779300
22.951400 1.071300
22.971100 1.439300
22.990900 1.750800
23.010600 1.914300
23.030300 1.969700
23.050100 2.005900
23.069800 2.024900
23.089500 1.980100
23.109300 1.897800
23.129000 1.860500
23.148700 1.893000
23.168500 1.926900
23.188200 1.885900
23.207900 1.763500
23.227700 1.593100
23.247400 1.391300
23.267100 1.176000
23.286900 0.990900
23.306600 0.872300
23.326300 0.829800
23.346100 0.857500
23.365800 0.909700
23.385600 0.903100
23.405300 0.817700
23.425000 0.751700
23.444800 0.803700
23.464500 0.941100
23.484200 1.052200
23.504000 1.085700
23.523700 1.074000
23.543400 1.050100
23.563200 1.010600
23.582900 0.950900
23.602600 0.882800
23.622400 0.808500
23.642100 0.713900
23.661800 0.610800
23.681600 0.553800
23.701300 0.569600
23.721000 0.594500
23.740800 0.551500
23.760500 0.462800
23.780300 0.422800
23.800000 0.479600
23.819700 0.582900
23.839500 0.628500
23.859200 0.551500
23.878900 0.396400
23.898700 0.279900
23.918400 0.277700
23.938100 0.358500
23.957900 0.421800
23.977600 0.393300
23.997300 0.287000
24.017100 0.178800
24.036800 0.137900
24.056500 0.186100
24.076300 0.294200
24.096000 0.406000
24.115700 0.493100
24.135500 0.583300
24.155200 0.705300
24.175000 0.816400
24.194700 0.827800
24.214400 0.705500
24.234200 0.512900
24.253900 0.340900
24.273600 0.226100
24.293400 0.150500
24.313100 0.091900
24.332800 0.048100
24.352600 0.026600
24.372300 0.033900
24.392000 0.074000
24.411800 0.138900
24.431500 0.198000
24.451200 0.213000
24.471000 0.175600
24.490700 0.120200
24.510400 0.094300
24.530200 0.123200
24.549900 0.192700
24.569700 0.252300
24.589400 0.252300
24.609100 0.189400
24.628900 0.106300
24.648600 0.044600
24.668300 0.014600
24.688100 0.006300
24.707800 0.010100
24.727500 0.021700
24.747300 0.036300
24.767000 0.046000
24.786700 0.047100
24.806500 0.048200
24.826200 0.063600
24.845900 0.096300
24.865700 0.132000
24.885400 0.150700
24.905100 0.141300
24.924900 0.108900
24.944600 0.071100
24.964400 0.046600
24.984100 0.041300
25.003800 0.045200
25.023600 0.044000
25.043300 0.033100
25.063000 0.018500
25.082800 0.007600
25.102500 0.002300
25.122200 0.000500
25.142000 0.000100
25.161700 0.000000
25.181400 0.000000
25.201200 0.000000
25.220900 0.000000
25.240600 0.000000
25.260400 0.000000
25.280100 0.000000
25.299800 0.000000
25.319600 0.000000
25.339300 0.000000
25.359100 0.000000
25.378800 0.000000
25.398500 0.000000
25.418300 0.000000
25.438000 0.000000
25.457700 0.000000
25.477500 0.000000
25.497200 0.000000
25.516900 0.000000
25.536700 0.000000
25.556400 0.000000
25.576100 0.000000
25.595900 0.000000
25.615600 0.000000
25.635300 0.000000
25.655100 0.000000
25.674800 0.000000
25.694500 0.000000
25.714300 0.000000
25.734000 0.000000
25.753800 0.000000
25.773500 0.000000
25.793200 0.000000
25.813000 0.000000
25.832700 0.000000
25.852400 0.000000
25.872200 0.000000
25.891900 0.000000
25.911600 0.000000
25.931400 0.000000
25.951100 0.000000
25.970800 0.000000
25.990600 0.000000
26.010300 0.000000
26.030000 0.000000
26.049800 0.000000
26.069500 0.000000
26.089200 0.000000
26.109000 0.000000
26.128700 0.000000
26.148500 0.000000
26.168200 0.000000
26.187900 0.000000
26.207700 0.000000
26.227400 0.000000
26.247100 0.000000
26.266900 0.000000
26.286600 0.000000
26.306300 0.000000
26.326100 0.000000
26.345800 0.000000
26.365500 0.000000
26.385300 0.000000
26.405000 0.000000
26.424700 0.000000
26.444500 0.000000
26.464200 0.000000
26.483900 0.000000
26.503700 0.000000
26.523400 0.000000
26.543200 0.000000
26.562900 0.000000
26.582600 0.000000
26.602400 0.000000
26.622100 0.000000
26.641800 0.000000
26.661600 0.000000
26.681300 0.000000
26.701000 0.000000
26.720800 0.000000
26.740500 0.000000
26.760200 0.000000
26.780000 0.000000
26.799700 0.000000
e
