set title 'mp-1206431 - Density of States'
set xlabel 'Energy (eV)'
set ylabel 'DOS (states/eV)'
set grid
set xrange [-10:10]
set yrange [0:270.604]
set xzeroaxis lt -1
set terminal png size 800,600
set output 'mp-1206431_dos_gnuplot.png'
plot '-' using 1:2 with lines title 'DOS'
-11.051000 0.000000
-11.029200 0.000000
-11.007400 0.000000
-10.985600 0.000000
-10.963800 0.000000
-10.942000 0.000000
-10.920200 0.000000
-10.898400 0.000000
-10.876600 0.000000
-10.854800 0.000000
-10.833000 0.000000
-10.811200 0.000000
-10.789400 0.000000
-10.767600 0.000000
-10.745800 0.000000
-10.724000 0.000000
-10.702200 0.000000
-10.680400 0.000000
-10.658600 0.000000
-10.636800 0.000000
-10.615000 0.000000
-10.593200 0.000000
-10.571400 0.000000
-10.549600 0.000000
-10.527800 0.000000
-10.506000 0.000000
-10.484200 0.000000
-10.462400 0.000000
-10.440600 0.000000
-10.418800 0.000000
-10.397000 0.000000
-10.375200 0.000000
-10.353400 0.000000
-10.331600 0.000000
-10.309800 0.000000
-10.288000 0.000000
-10.266200 0.000000
-10.244400 0.000000
-10.222600 0.000000
-10.200800 0.000000
-10.179000 0.000000
-10.157100 0.000000
-10.135300 0.000000
-10.113500 0.000000
-10.091700 0.000000
-10.069900 0.000000
-10.048100 0.000000
-10.026300 0.000000
-10.004500 0.000000
-9.982700 0.000000
-9.960900 0.000000
-9.939100 0.000000
-9.917300 0.000000
-9.895500 0.000000
-9.873700 0.000000
-9.851900 0.000000
-9.830100 0.000000
-9.808300 0.000000
-9.786500 0.000000
-9.764700 0.000000
-9.742900 0.000000
-9.721100 0.000000
-9.699300 0.000000
-9.677500 0.000000
-9.655700 0.000000
-9.633900 0.000000
-9.612100 0.000000
-9.590300 0.000000
-9.568500 0.000000
-9.546700 0.000000
-9.524900 0.000000
-9.503100 0.000000
-9.481300 0.000000
-9.459500 0.000000
-9.437700 0.000000
-9.415900 0.000000
-9.394100 0.000000
-9.372300 0.000000
-9.350500 0.000000
-9.328700 0.000000
-9.306900 0.000000
-9.285100 0.000000
-9.263300 0.000000
-9.241500 0.000000
-9.219700 0.000000
-9.197900 0.000000
-9.176100 0.000000
-9.154300 0.000000
-9.132500 0.000000
-9.110700 0.000000
-9.088900 0.000000
-9.067100 5.989200
-9.045300 80.164900
-9.023400 55.425700
-9.001600 182.762900
-8.979800 102.475300
-8.958000 114.115600
-8.936200 90.888900
-8.914400 246.003800
-8.892600 11.135200
-8.870800 28.818300
-8.849000 19.206000
-8.827200 15.283300
-8.805400 122.029900
-8.783600 0.000000
-8.761800 0.000000
-8.740000 0.000000
-8.718200 0.000000
-8.696400 0.000000
-8.674600 0.000000
-8.652800 0.000000
-8.631000 0.000000
-8.609200 0.000000
-8.587400 0.000000
-8.565600 0.000000
-8.543800 0.000000
-8.522000 0.000000
-8.500200 0.000000
-8.478400 0.000000
-8.456600 0.000000
-8.434800 0.000000
-8.413000 0.000000
-8.391200 0.000000
-8.369400 0.000000
-8.347600 0.000000
-8.325800 0.000000
-8.304000 0.000000
-8.282200 0.000000
-8.260400 0.000000
-8.238600 0.000000
-8.216800 0.000000
-8.195000 0.000000
-8.173200 0.000000
-8.151400 0.000000
-8.129600 0.000000
-8.107800 0.000000
-8.086000 0.000000
-8.064200 0.000000
-8.042400 0.000000
-8.020600 0.000000
-7.998800 0.000000
-7.977000 0.000000
-7.955200 0.000000
-7.933400 0.000000
-7.911500 0.000000
-7.889700 0.000000
-7.867900 0.000000
-7.846100 0.000000
-7.824300 0.000000
-7.802500 0.000000
-7.780700 0.000000
-7.758900 0.000000
-7.737100 0.000000
-7.715300 0.000000
-7.693500 0.000000
-7.671700 0.000000
-7.649900 0.000000
-7.628100 0.000000
-7.606300 0.000000
-7.584500 0.000000
-7.562700 0.000000
-7.540900 0.000000
-7.519100 0.000000
-7.497300 0.000000
-7.475500 0.000000
-7.453700 0.000000
-7.431900 0.000000
-7.410100 0.000000
-7.388300 0.000000
-7.366500 0.000000
-7.344700 0.000000
-7.322900 0.000000
-7.301100 0.000000
-7.279300 0.000000
-7.257500 0.000000
-7.235700 0.000000
-7.213900 0.000000
-7.192100 0.000000
-7.170300 0.000000
-7.148500 0.000000
-7.126700 0.000000
-7.104900 0.000000
-7.083100 0.000000
-7.061300 0.000000
-7.039500 0.000000
-7.017700 0.000000
-6.995900 0.000000
-6.974100 0.000000
-6.952300 0.000000
-6.930500 0.000000
-6.908700 0.000000
-6.886900 0.000000
-6.865100 0.000000
-6.843300 0.000000
-6.821500 0.000000
-6.799600 0.000000
-6.777800 0.000000
-6.756000 0.000000
-6.734200 0.000000
-6.712400 0.000000
-6.690600 0.000000
-6.668800 0.000000
-6.647000 0.000000
-6.625200 0.000000
-6.603400 0.000000
-6.581600 0.000000
-6.559800 0.000000
-6.538000 0.000000
-6.516200 0.000000
-6.494400 0.000000
-6.472600 0.000000
-6.450800 0.000000
-6.429000 0.000000
-6.407200 0.000000
-6.385400 0.000000
-6.363600 0.000000
-6.341800 0.000000
-6.320000 0.000000
-6.298200 0.000000
-6.276400 0.000000
-6.254600 0.000000
-6.232800 0.000000
-6.211000 0.000000
-6.189200 0.000000
-6.167400 0.000000
-6.145600 0.000000
-6.123800 0.000000
-6.102000 0.000000
-6.080200 0.000000
-6.058400 0.000000
-6.036600 0.000000
-6.014800 0.000000
-5.993000 0.000000
-5.971200 0.000000
-5.949400 0.000000
-5.927600 0.000000
-5.905800 0.000000
-5.884000 0.000000
-5.862200 0.000000
-5.840400 0.000000
-5.818600 0.000000
-5.796800 0.000000
-5.775000 0.000000
-5.753200 0.000000
-5.731400 0.000000
-5.709600 0.000000
-5.687800 0.000000
-5.665900 0.000000
-5.644100 0.000000
-5.622300 0.000000
-5.600500 0.000000
-5.578700 0.000000
-5.556900 0.000000
-5.535100 0.000000
-5.513300 0.000000
-5.491500 0.000000
-5.469700 0.000000
-5.447900 0.000000
-5.426100 0.000000
-5.404300 0.000000
-5.382500 0.000000
-5.360700 0.000000
-5.338900 0.000000
-5.317100 0.000000
-5.295300 0.000000
-5.273500 0.000000
-5.251700 0.000000
-5.229900 0.000000
-5.208100 0.000000
-5.186300 0.000000
-5.164500 0.000000
-5.142700 0.000000
-5.120900 0.000000
-5.099100 0.000000
-5.077300 0.000000
-5.055500 0.000000
-5.033700 0.000000
-5.011900 0.000000
-4.990100 0.000000
-4.968300 0.000000
-4.946500 0.000000
-4.924700 0.000000
-4.902900 0.000000
-4.881100 0.000000
-4.859300 0.000000
-4.837500 0.000000
-4.815700 0.000000
-4.793900 0.000000
-4.772100 0.000000
-4.750300 0.000000
-4.728500 0.000000
-4.706700 0.000000
-4.684900 0.000000
-4.663100 0.000000
-4.641300 0.000000
-4.619500 0.000000
-4.597700 0.000000
-4.575900 0.000000
-4.554000 0.000000
-4.532200 0.000000
-4.510400 0.000000
-4.488600 0.000000
-4.466800 0.000000
-4.445000 0.000000
-4.423200 0.000000
-4.401400 0.000000
-4.379600 0.000000
-4.357800 0.000000
-4.336000 0.000000
-4.314200 0.000000
-4.292400 0.000000
-4.270600 0.000000
-4.248800 0.000000
-4.227000 0.000000
-4.205200 0.000000
-4.183400 0.000000
-4.161600 0.000000
-4.139800 0.000000
-4.118000 0.000000
-4.096200 0.000000
-4.074400 0.000000
-4.052600 0.000000
-4.030800 0.000000
-4.009000 0.000000
-3.987200 0.000000
-3.965400 0.000000
-3.943600 0.000000
-3.921800 0.000000
-3.900000 0.000000
-3.878200 0.000000
-3.856400 0.000000
-3.834600 0.000000
-3.812800 0.000000
-3.791000 0.010300
-3.769200 0.044900
-3.747400 0.103900
-3.725600 0.180600
-3.703800 0.209400
-3.682000 0.222600
-3.660200 0.222000
-3.638400 0.245700
-3.616600 0.270400
-3.594800 0.295800
-3.573000 0.322000
-3.551200 0.348700
-3.529400 0.371300
-3.507600 0.387800
-3.485800 0.398300
-3.464000 0.407700
-3.442200 0.420200
-3.420300 0.434800
-3.398500 0.451400
-3.376700 0.468600
-3.354900 0.485900
-3.333100 0.503200
-3.311300 0.520700
-3.289500 0.539900
-3.267700 0.564300
-3.245900 0.593900
-3.224100 0.628800
-3.202300 0.654600
-3.180500 0.679000
-3.158700 0.703200
-3.136900 0.723800
-3.115100 0.733900
-3.093300 0.733200
-3.071500 0.725200
-3.049700 0.731000
-3.027900 0.736000
-3.006100 0.740100
-2.984300 0.743200
-2.962500 0.745300
-2.940700 0.746700
-2.918900 0.747600
-2.897100 0.748100
-2.875300 0.749700
-2.853500 0.752700
-2.831700 0.757100
-2.809900 0.762500
-2.788100 0.767100
-2.766300 0.770800
-2.744500 0.773700
-2.722700 0.776300
-2.700900 0.778600
-2.679100 0.781100
-2.657300 0.783400
-2.635500 0.785500
-2.613700 0.787300
-2.591900 0.788900
-2.570100 0.791200
-2.548300 0.794600
-2.526500 0.798200
-2.504700 0.802100
-2.482900 0.806300
-2.461100 0.810800
-2.439300 0.815600
-2.417500 0.820700
-2.395700 0.825700
-2.373900 0.830800
-2.352100 0.835900
-2.330300 0.841000
-2.308400 0.846000
-2.286600 0.852000
-2.264800 0.858300
-2.243000 0.864800
-2.221200 0.871100
-2.199400 0.877500
-2.177600 0.884200
-2.155800 0.891800
-2.134000 0.900800
-2.112200 0.911000
-2.090400 0.921800
-2.068600 0.932900
-2.046800 0.944400
-2.025000 0.956300
-2.003200 0.968600
-1.981400 0.981300
-1.959600 0.994500
-1.937800 1.017500
-1.916000 1.068900
-1.894200 1.108400
-1.872400 1.124800
-1.850600 1.128300
-1.828800 1.128900
-1.807000 1.129300
-1.785200 1.137100
-1.763400 1.265100
-1.741600 1.369100
-1.719800 1.364600
-1.698000 1.246100
-1.676200 1.174900
-1.654400 1.166400
-1.632600 1.177100
-1.610800 1.179200
-1.589000 1.181500
-1.567200 1.182500
-1.545400 1.176600
-1.523600 1.169900
-1.501800 1.172000
-1.480000 1.179600
-1.458200 1.247900
-1.436400 1.295700
-1.414600 1.341600
-1.392800 1.459600
-1.371000 1.584000
-1.349200 1.657900
-1.327400 1.701800
-1.305600 1.940700
-1.283800 2.263700
-1.262000 2.553500
-1.240200 2.584700
-1.218400 2.624800
-1.196600 2.625900
-1.174700 2.711100
-1.152900 2.840600
-1.131100 3.075900
-1.109300 3.344600
-1.087500 3.666300
-1.065700 4.124800
-1.043900 4.201100
-1.022100 4.300800
-1.000300 4.403300
-0.978500 4.595600
-0.956700 4.504600
-0.934900 4.657600
-0.913100 4.781300
-0.891300 4.474800
-0.869500 2.866700
-0.847700 2.446000
-0.825900 2.261600
-0.804100 1.916400
-0.782300 1.605300
-0.760500 1.365400
-0.738700 1.168700
-0.716900 1.015800
-0.695100 0.935700
-0.673300 0.827200
-0.651500 0.727100
-0.629700 0.644800
-0.607900 0.618600
-0.586100 0.592000
-0.564300 0.508200
-0.542500 0.528800
-0.520700 0.459800
-0.498900 0.409300
-0.477100 0.378000
-0.455300 0.350700
-0.433500 0.358400
-0.411700 0.413800
-0.389900 0.483500
-0.368100 0.561300
-0.346300 0.644300
-0.324500 0.664600
-0.302700 0.698600
-0.280900 0.756000
-0.259100 0.823200
-0.237300 0.895600
-0.215500 0.971200
-0.193700 1.049800
-0.171900 1.134000
-0.150100 1.246600
-0.128300 1.391100
-0.106500 1.562200
-0.084700 1.770400
-0.062800 2.113600
-0.041000 2.355900
-0.019200 2.515500
0.002600 2.709300
0.024400 2.847000
0.046200 2.795700
0.068000 2.758400
0.089800 2.834300
0.111600 2.910200
0.133400 2.980500
0.155200 3.126300
0.177000 3.242400
0.198800 3.418700
0.220600 3.372500
0.242400 3.283000
0.264200 3.420900
0.286000 4.059600
0.307800 4.629600
0.329600 4.793700
0.351400 4.911400
0.373200 5.281700
0.395000 6.055200
0.416800 6.617000
0.438600 7.085300
0.460400 7.259600
0.482200 7.528900
0.504000 7.389900
0.525800 7.468600
0.547600 7.484500
0.569400 7.545700
0.591200 7.743900
0.613000 8.090700
0.634800 8.079600
0.656600 8.048300
0.678400 8.527300
0.700200 9.206200
0.722000 13.565500
0.743800 13.084700
0.765600 15.770100
0.787400 21.434700
0.809200 14.854100
0.831000 13.132600
0.852800 12.783900
0.874600 13.589000
0.896400 14.858100
0.918200 16.798200
0.940000 17.981600
0.961800 13.171500
0.983600 11.304600
1.005400 10.246600
1.027200 9.576700
1.049000 9.070800
1.070900 8.625300
1.092700 10.600400
1.114500 17.612900
1.136300 12.965400
1.158100 17.563600
1.179900 12.764300
1.201700 11.973200
1.223500 11.562600
1.245300 13.751900
1.267100 16.135700
1.288900 17.583300
1.310700 17.770200
1.332500 17.088700
1.354300 17.212400
1.376100 15.656400
1.397900 12.322300
1.419700 11.615800
1.441500 12.686400
1.463300 14.207000
1.485100 12.387100
1.506900 11.249600
1.528700 10.744000
1.550500 13.072200
1.572300 13.009100
1.594100 12.239800
1.615900 11.790300
1.637700 12.708700
1.659500 17.874500
1.681300 17.409100
1.703100 18.089700
1.724900 16.934100
1.746700 17.165300
1.768500 17.155200
1.790300 17.637900
1.812100 18.595100
1.833900 21.708100
1.855700 19.268400
1.877500 15.479000
1.899300 15.134600
1.921100 16.157000
1.942900 14.453800
1.964700 14.630400
1.986500 18.466400
2.008300 16.261100
2.030100 21.203500
2.051900 18.117100
2.073700 19.390900
2.095500 17.525900
2.117300 14.943200
2.139100 14.747800
2.160900 12.420100
2.182800 11.829600
2.204600 12.716100
2.226400 10.500000
2.248200 8.358900
2.270000 6.006900
2.291800 6.164200
2.313600 6.427600
2.335400 6.532900
2.357200 6.622800
2.379000 6.679900
2.400800 6.573200
2.422600 6.174200
2.444400 5.892000
2.466200 5.689500
2.488000 5.509200
2.509800 5.394400
2.531600 5.274700
2.553400 5.174200
2.575200 5.075000
2.597000 4.959100
2.618800 4.698300
2.640600 4.483100
2.662400 4.496900
2.684200 4.378000
2.706000 3.932500
2.727800 3.330700
2.749600 2.251200
2.771400 1.977000
2.793200 1.931200
2.815000 1.872700
2.836800 1.773100
2.858600 1.635200
2.880400 1.496600
2.902200 1.451000
2.924000 1.421100
2.945800 1.396000
2.967600 1.372400
2.989400 1.345400
3.011200 1.334600
3.033000 1.351600
3.054800 1.372000
3.076600 1.396300
3.098400 1.422300
3.120200 1.445200
3.142000 1.464300
3.163800 1.479100
3.185600 1.489100
3.207400 1.494400
3.229200 1.504800
3.251000 1.521000
3.272800 1.539800
3.294600 1.561200
3.316500 1.586100
3.338300 1.616800
3.360100 1.653800
3.381900 1.702800
3.403700 1.761100
3.425500 1.864200
3.447300 1.956900
3.469100 2.056900
3.490900 2.008700
3.512700 2.038700
3.534500 1.949700
3.556300 1.946300
3.578100 2.013500
3.599900 2.119500
3.621700 2.402100
3.643500 2.273000
3.665300 2.319600
3.687100 2.364900
3.708900 2.410500
3.730700 2.423800
3.752500 2.465400
3.774300 2.447300
3.796100 2.435100
3.817900 2.431900
3.839700 2.365600
3.861500 2.286200
3.883300 2.181600
3.905100 2.118400
3.926900 2.074400
3.948700 2.039400
3.970500 2.014700
3.992300 1.979200
4.014100 1.935200
4.035900 1.921100
4.057700 1.911000
4.079500 1.900200
4.101300 1.897500
4.123100 1.897800
4.144900 1.891800
4.166700 1.887100
4.188500 1.883500
4.210300 1.886500
4.232100 1.910400
4.253900 1.954000
4.275700 2.005500
4.297500 2.062100
4.319300 2.105800
4.341100 2.107700
4.362900 2.096300
4.384700 2.077800
4.406500 2.054600
4.428400 2.025800
4.450200 1.993200
4.472000 1.961100
4.493800 1.931400
4.515600 1.903600
4.537400 1.879800
4.559200 1.857000
4.581000 1.834600
4.602800 1.816000
4.624600 1.801900
4.646400 1.790200
4.668200 1.750400
4.690000 1.727800
4.711800 1.710100
4.733600 1.703300
4.755400 1.701900
4.777200 1.706100
4.799000 1.714000
4.820800 1.749500
4.842600 1.799400
4.864400 1.847700
4.886200 1.906900
4.908000 1.951000
4.929800 1.978000
4.951600 1.983500
4.973400 1.998000
4.995200 2.024100
5.017000 2.025500
5.038800 2.022000
5.060600 2.018000
5.082400 2.026100
5.104200 2.031500
5.126000 2.030100
5.147800 2.026100
5.169600 2.020200
5.191400 2.012600
5.213200 2.005100
5.235000 1.997700
5.256800 2.001700
5.278600 1.986100
5.300400 1.932400
5.322200 1.890300
5.344000 1.851300
5.365800 1.806800
5.387600 1.764900
5.409400 1.724700
5.431200 1.686200
5.453000 1.649000
5.474800 1.615500
5.496600 1.579400
5.518400 1.542100
5.540300 1.505300
5.562100 1.468900
5.583900 1.432800
5.605700 1.396900
5.627500 1.364700
5.649300 1.336200
5.671100 1.322600
5.692900 1.312000
5.714700 1.304400
5.736500 1.295900
5.758300 1.289600
5.780100 1.289300
5.801900 1.295400
5.823700 1.303000
5.845500 1.304000
5.867300 1.304700
5.889100 1.306500
5.910900 1.310300
5.932700 1.316300
5.954500 1.324400
5.976300 1.334200
5.998100 1.345500
6.019900 1.361800
6.041700 1.398900
6.063500 1.455200
6.085300 1.446300
6.107100 1.463600
6.128900 1.488700
6.150700 1.522600
6.172500 1.600100
6.194300 1.668600
6.216100 1.742600
6.237900 1.811900
6.259700 1.873600
6.281500 1.929600
6.303300 1.989300
6.325100 2.023400
6.346900 2.041400
6.368700 2.048100
6.390500 2.057100
6.412300 2.066700
6.434100 2.079900
6.455900 2.093900
6.477700 2.084900
6.499500 2.089100
6.521300 2.107900
6.543100 2.125100
6.564900 2.142000
6.586700 2.150600
6.608500 2.143400
6.630300 2.126300
6.652100 2.101600
6.674000 2.074600
6.695800 2.044400
6.717600 2.015400
6.739400 1.989000
6.761200 1.970900
6.783000 1.974000
6.804800 2.094900
6.826600 2.103900
6.848400 2.082700
6.870200 2.058700
6.892000 2.043700
6.913800 2.031700
6.935600 2.017400
6.957400 1.999900
6.979200 1.978900
7.001000 1.952800
7.022800 1.919700
7.044600 1.881200
7.066400 1.839600
7.088200 1.794800
7.110000 1.747000
7.131800 1.684900
7.153600 1.606800
7.175400 1.544300
7.197200 1.489600
7.219000 1.443200
7.240800 1.404400
7.262600 1.369100
7.284400 1.343100
7.306200 1.349700
7.328000 1.365800
7.349800 1.383300
7.371600 1.437600
7.393400 1.472000
7.415200 1.512100
7.437000 1.555700
7.458800 1.597500
7.480600 1.639000
7.502400 1.645600
7.524200 1.668100
7.546000 1.687500
7.567800 1.704400
7.589600 1.723200
7.611400 1.744600
7.633200 1.768700
7.655000 1.794300
7.676800 1.831700
7.698600 1.886700
7.720400 1.937500
7.742200 1.980400
7.764000 2.021900
7.785900 2.045400
7.807700 2.066200
7.829500 2.110200
7.851300 2.165000
7.873100 2.224000
7.894900 2.286900
7.916700 2.342200
7.938500 2.355700
7.960300 2.495100
7.982100 2.667500
8.003900 2.571800
8.025700 2.378000
8.047500 2.282800
8.069300 2.252200
8.091100 2.238200
8.112900 2.239000
8.134700 2.254700
8.156500 2.325000
8.178300 2.362400
8.200100 2.254200
8.221900 2.167700
8.243700 2.089100
8.265500 2.024400
8.287300 1.971500
8.309100 1.920400
8.330900 1.901100
8.352700 1.897500
8.374500 1.898100
8.396300 1.902400
8.418100 1.916100
8.439900 1.948100
8.461700 1.877700
8.483500 1.530200
8.505300 1.516000
8.527100 1.505600
8.548900 1.498000
8.570700 1.492800
8.592500 1.490800
8.614300 1.491600
8.636100 1.495600
8.657900 1.507700
8.679700 1.538000
8.701500 1.592900
8.723300 1.671600
8.745100 1.754100
8.766900 1.807100
8.788700 1.852600
8.810500 1.904000
8.832300 1.937200
8.854100 1.975400
8.875900 2.027600
8.897700 2.071700
8.919600 2.105200
8.941400 2.128300
8.963200 2.148900
8.985000 2.160000
9.006800 2.156200
9.028600 2.138600
9.050400 2.122200
9.072200 2.111000
9.094000 2.048300
9.115800 2.032500
9.137600 2.018400
9.159400 2.000200
9.181200 1.963200
9.203000 1.956700
9.224800 1.954100
9.246600 1.974300
9.268400 2.022800
9.290200 2.050900
9.312000 2.053900
9.333800 2.053500
9.355600 2.050400
9.377400 2.043600
9.399200 2.085300
9.421000 2.034900
9.442800 1.986600
9.464600 1.967500
9.486400 1.946600
9.508200 1.924000
9.530000 1.904100
9.551800 1.895200
9.573600 1.898400
9.595400 1.910300
9.617200 1.921800
9.639000 1.941800
9.660800 1.948200
9.682600 1.909000
9.704400 1.900600
9.726200 1.899200
9.748000 1.898600
9.769800 1.897900
9.791600 1.899800
9.813400 1.908400
9.835200 1.923600
9.857000 1.945100
9.878800 1.968000
9.900600 1.984900
9.922400 1.993000
9.944200 1.993800
9.966000 1.993100
9.987800 1.999600
10.009600 2.012000
10.031500 2.020300
10.053300 2.036000
10.075100 2.058300
10.096900 2.086300
10.118700 2.118700
10.140500 2.155400
10.162300 2.196400
10.184100 2.224600
10.205900 2.229600
10.227700 2.224300
10.249500 2.198800
10.271300 2.177200
10.293100 2.193900
10.314900 2.223200
10.336700 2.266400
10.358500 2.328000
10.380300 2.392500
10.402100 2.435500
10.423900 2.476900
10.445700 2.520000
10.467500 2.539000
10.489300 2.550500
10.511100 2.548400
10.532900 2.535400
10.554700 2.537900
10.576500 2.556300
10.598300 2.596400
10.620100 2.659600
10.641900 2.691100
10.663700 2.745600
10.685500 2.794500
10.707300 2.914200
10.729100 3.224600
10.750900 3.253000
10.772700 3.217800
10.794500 3.161300
10.816300 3.060100
10.838100 2.931200
10.859900 2.792900
10.881700 2.664000
10.903500 2.526600
10.925300 2.414700
10.947100 2.238800
10.968900 2.239200
10.990700 2.163100
11.012500 2.091900
11.034300 2.023500
11.056100 1.958900
11.077900 1.783700
11.099700 1.642900
11.121500 1.561100
11.143300 1.521500
11.165200 1.500600
11.187000 1.496500
11.208800 1.504800
11.230600 1.516100
11.252400 1.538000
11.274200 1.574700
11.296000 1.652100
11.317800 1.625500
11.339600 1.534600
11.361400 1.521400
11.383200 1.507300
11.405000 1.486400
11.426800 1.491200
11.448600 1.488200
11.470400 1.462900
11.492200 1.473200
11.514000 1.481000
11.535800 1.478300
11.557600 1.499300
11.579400 1.525900
11.601200 1.556000
11.623000 1.614700
11.644800 1.682200
11.666600 1.725900
11.688400 1.742100
11.710200 1.760300
11.732000 1.803900
11.753800 1.876900
11.775600 1.929800
11.797400 1.973400
11.819200 2.017700
11.841000 2.093600
11.862800 2.307800
11.884600 2.413000
11.906400 2.537500
11.928200 2.598900
11.950000 2.590400
11.971800 2.566100
11.993600 2.619500
12.015400 2.387000
12.037200 2.249500
12.059000 2.192300
12.080800 2.175800
12.102600 2.174000
12.124400 2.189400
12.146200 2.210800
12.168000 2.234100
12.189800 2.296600
12.211600 2.350000
12.233400 2.412000
12.255200 2.465300
12.277100 2.480000
12.298900 2.433700
12.320700 2.460100
12.342500 2.537200
12.364300 2.621500
12.386100 2.715200
12.407900 2.711400
12.429700 2.809200
12.451500 2.915300
12.473300 2.948000
12.495100 2.844500
12.516900 2.762900
12.538700 2.719200
12.560500 2.678900
12.582300 2.643000
12.604100 2.619200
12.625900 2.575200
12.647700 2.479000
12.669500 2.409400
12.691300 2.367000
12.713100 2.395700
12.734900 2.295600
12.756700 2.247100
12.778500 2.259000
12.800300 2.307700
12.822100 2.377000
12.843900 2.381500
12.865700 2.391400
12.887500 2.375100
12.909300 2.366600
12.931100 2.344700
12.952900 2.324800
12.974700 2.309200
12.996500 2.293900
13.018300 2.282600
13.040100 2.399100
13.061900 2.429300
13.083700 2.398200
13.105500 2.432500
13.127300 2.450400
13.149100 2.482300
13.170900 2.565900
13.192700 2.681100
13.214500 2.823800
13.236300 3.030600
13.258100 3.127000
13.279900 3.176700
13.301700 3.193700
13.323500 3.296400
13.345300 3.261700
13.367100 3.243200
13.388900 3.211500
13.410800 3.120700
13.432600 3.083800
13.454400 3.117000
13.476200 3.054600
13.498000 2.969400
13.519800 2.865300
13.541600 2.792700
13.563400 2.714800
13.585200 2.630000
13.607000 2.507900
13.628800 2.405800
13.650600 2.354200
13.672400 2.313000
13.694200 2.317600
13.716000 2.341500
13.737800 2.340100
13.759600 2.352200
13.781400 2.375900
13.803200 2.409800
13.825000 2.437200
13.846800 2.455300
13.868600 2.472500
13.890400 2.516800
13.912200 2.484000
13.934000 2.493400
13.955800 2.532000
13.977600 2.564600
13.999400 2.579200
14.021200 2.585300
14.043000 2.580800
14.064800 2.585100
14.086600 2.604000
14.108400 2.600500
14.130200 2.563700
14.152000 2.544800
14.173800 2.520900
14.195600 2.489200
14.217400 2.459300
14.239200 2.429400
14.261000 2.522100
14.282800 2.516800
14.304600 2.524600
14.326400 2.545600
14.348200 2.576300
14.370000 2.611400
14.391800 2.648900
14.413600 2.689500
14.435400 2.711300
14.457200 2.743000
14.479000 2.756200
14.500800 2.742300
14.522700 2.743000
14.544500 2.716200
14.566300 2.686000
14.588100 2.655100
14.609900 2.607500
14.631700 2.543600
14.653500 2.462700
14.675300 2.401500
14.697100 2.375900
14.718900 2.388800
14.740700 2.505500
14.762500 2.431100
14.784300 2.434900
14.806100 2.442400
14.827900 2.482400
14.849700 2.528000
14.871500 2.592000
14.893300 2.678700
14.915100 2.775200
14.936900 2.849300
14.958700 2.923400
14.980500 2.967100
15.002300 2.954500
15.024100 2.917300
15.045900 2.870500
15.067700 2.816000
15.089500 2.785100
15.111300 2.762600
15.133100 2.745600
15.154900 2.740000
15.176700 2.738400
15.198500 2.748100
15.220300 2.741300
15.242100 2.739600
15.263900 2.750700
15.285700 2.766400
15.307500 2.784000
15.329300 2.804800
15.351100 2.837500
15.372900 2.895900
15.394700 2.968300
15.416500 2.989500
15.438300 2.976700
15.460100 2.985100
15.481900 2.991700
15.503700 2.995500
15.525500 2.993300
15.547300 2.976500
15.569100 2.962900
15.590900 2.959300
15.612700 2.968500
15.634600 3.023000
15.656400 3.045200
15.678200 3.062400
15.700000 3.076000
15.721800 3.072300
15.743600 3.029900
15.765400 3.012100
15.787200 2.951400
15.809000 2.938800
15.830800 2.948900
15.852600 2.963000
15.874400 2.995000
15.896200 3.033200
15.918000 3.052800
15.939800 3.081700
15.961600 3.120300
15.983400 3.156500
16.005200 3.125300
16.027000 3.028600
16.048800 2.945100
16.070600 2.843100
16.092400 2.776800
16.114200 2.745700
16.136000 2.746300
16.157800 2.774100
16.179600 2.841400
16.201400 2.953400
16.223200 3.053900
16.245000 3.124200
16.266800 3.164900
16.288600 3.201500
16.310400 3.260200
16.332200 3.325100
16.354000 3.378600
16.375800 3.426100
16.397600 3.464700
16.419400 3.472500
16.441200 3.469500
16.463000 3.464300
16.484800 3.466500
16.506600 3.492800
16.528400 3.564200
16.550200 3.635200
16.572000 3.701800
16.593800 3.782400
16.615600 3.742100
16.637400 3.720000
16.659200 3.694900
16.681000 3.673100
16.702800 3.700400
16.724600 3.712000
16.746400 3.717500
16.768300 3.741800
16.790100 3.796200
16.811900 3.873600
16.833700 3.934300
16.855500 3.974700
16.877300 4.007200
16.899100 3.963100
16.920900 3.797900
16.942700 3.660900
16.964500 3.503000
16.986300 3.399800
17.008100 3.356600
17.029900 3.267400
17.051700 3.192500
17.073500 3.143200
17.095300 3.118000
17.117100 3.107900
17.138900 3.131500
17.160700 3.177300
17.182500 3.231400
17.204300 3.344000
17.226100 3.480600
17.247900 3.407400
17.269700 3.367600
17.291500 3.334100
17.313300 3.314400
17.335100 3.275100
17.356900 3.279300
17.378700 3.158800
17.400500 2.936100
17.422300 2.771600
17.444100 2.763700
17.465900 2.913800
17.487700 3.195100
17.509500 3.280800
17.531300 3.302500
17.553100 3.288700
17.574900 3.288100
17.596700 3.333800
17.618500 3.339700
17.640300 3.340300
17.662100 3.346100
17.683900 3.350500
17.705700 3.342400
17.727500 3.308000
17.749300 3.233900
17.771100 3.185400
17.792900 3.178000
17.814700 3.198500
17.836500 3.254100
17.858300 3.455900
17.880200 3.618100
17.902000 3.742600
17.923800 3.813000
17.945600 3.886300
17.967400 4.110500
17.989200 4.197600
18.011000 4.338900
18.032800 4.538100
18.054600 4.511100
18.076400 4.594900
18.098200 4.760300
18.120000 4.725300
18.141800 4.637700
18.163600 4.610400
18.185400 4.526800
18.207200 4.398400
18.229000 4.708000
18.250800 4.141200
18.272600 4.030000
18.294400 3.908300
18.316200 3.758200
18.338000 3.543300
18.359800 3.362300
18.381600 3.287000
18.403400 3.288500
18.425200 3.277200
18.447000 3.236300
18.468800 3.235000
18.490600 3.268600
18.512400 3.268100
18.534200 3.247600
18.556000 3.180900
18.577800 2.969000
18.599600 2.850200
18.621400 2.924400
18.643200 3.027100
18.665000 3.083800
18.686800 3.143600
18.708600 3.174300
18.730400 3.284600
18.752200 3.375100
18.774000 3.460700
18.795800 3.564200
18.817600 3.658700
18.839400 3.758200
18.861200 3.692800
18.883000 3.674500
18.904800 3.680800
18.926600 3.692800
18.948400 3.628700
18.970200 3.564500
18.992000 3.497500
19.013900 3.424300
19.035700 3.323200
19.057500 3.237400
19.079300 3.217500
19.101100 3.025900
19.122900 2.654200
19.144700 2.402800
19.166500 2.201800
19.188300 2.012200
19.210100 1.922700
19.231900 1.942000
19.253700 2.009300
19.275500 2.243600
19.297300 2.554500
19.319100 2.801300
19.340900 3.225200
19.362700 3.542700
19.384500 3.608100
19.406300 3.537200
19.428100 3.444200
19.449900 3.418700
19.471700 3.238800
19.493500 3.001800
19.515300 2.750900
19.537100 2.505000
19.558900 2.371400
19.580700 2.265000
19.602500 2.189000
19.624300 2.138000
19.646100 2.113000
19.667900 2.121400
19.689700 2.170500
19.711500 2.231500
19.733300 2.302700
19.755100 2.378400
19.776900 2.467900
19.798700 2.602400
19.820500 2.806700
19.842300 3.015200
19.864100 3.226000
19.885900 3.407300
19.907700 3.462200
19.929500 3.483700
19.951300 3.455300
19.973100 3.460800
19.994900 3.417700
20.016700 3.323400
20.038500 3.262100
20.060300 3.155800
20.082100 2.804800
20.103900 2.578700
20.125800 2.433900
20.147600 2.353900
20.169400 2.366000
20.191200 2.428000
20.213000 2.483700
20.234800 2.446300
20.256600 2.450100
20.278400 2.441200
20.300200 2.399100
20.322000 2.346700
20.343800 2.316200
20.365600 2.305600
20.387400 2.294600
20.409200 2.273500
20.431000 2.245500
20.452800 2.202600
20.474600 2.136000
20.496400 2.103200
20.518200 2.202400
20.540000 2.142400
20.561800 2.040400
20.583600 2.027600
20.605400 2.044900
20.627200 2.073200
20.649000 2.126500
20.670800 2.203400
20.692600 2.306100
20.714400 2.500400
20.736200 2.647100
20.758000 2.661800
20.779800 2.808500
20.801600 2.788800
20.823400 2.760400
20.845200 2.739700
20.867000 2.722400
20.888800 2.713300
20.910600 2.715900
20.932400 2.720000
20.954200 2.687800
20.976000 2.595700
20.997800 2.385500
21.019600 2.311000
21.041400 2.332100
21.063200 2.391700
21.085000 2.479400
21.106800 2.584200
21.128600 2.703500
21.150400 2.799600
21.172200 2.856900
21.194000 2.788600
21.215800 2.676700
21.237600 2.605700
21.259500 2.538200
21.281300 2.487100
21.303100 2.455100
21.324900 2.445600
21.346700 2.473300
21.368500 2.525900
21.390300 2.595700
21.412100 2.686100
21.433900 2.798300
21.455700 2.945200
21.477500 3.134100
21.499300 3.524700
21.521100 4.042000
21.542900 4.377700
21.564700 4.439700
21.586500 4.570000
21.608300 4.537900
21.630100 4.527100
21.651900 4.507600
21.673700 4.453100
21.695500 4.346000
21.717300 4.150100
21.739100 3.972500
21.760900 3.887000
21.782700 4.024800
21.804500 4.261700
21.826300 4.396700
21.848100 4.503600
21.869900 4.681900
21.891700 4.804400
21.913500 4.369000
21.935300 3.907800
21.957100 3.562900
21.978900 3.293700
22.000700 3.076700
22.022500 2.894600
22.044300 2.778200
22.066100 2.719500
22.087900 2.665600
22.109700 2.638700
22.131500 2.597900
22.153300 2.543200
22.175100 2.536000
22.196900 2.543400
22.218700 2.562900
22.240500 2.434600
22.262300 2.314000
22.284100 2.233300
22.305900 2.145900
22.327700 2.107100
22.349500 2.192200
22.371400 2.377900
22.393200 2.342300
22.415000 2.443400
22.436800 2.673000
22.458600 2.706000
22.480400 2.880800
22.502200 3.061700
22.524000 3.244900
22.545800 3.421500
22.567600 3.582900
22.589400 3.687900
22.611200 3.800000
22.633000 3.839200
22.654800 3.866500
22.676600 3.866100
22.698400 3.843800
22.720200 3.811300
22.742000 3.774200
22.763800 3.741900
22.785600 3.740300
22.807400 3.777200
22.829200 3.815600
22.851000 3.827600
22.872800 3.988400
22.894600 3.662300
22.916400 3.490400
22.938200 3.415900
22.960000 3.351500
22.981800 3.325100
23.003600 3.283700
23.025400 3.229900
23.047200 3.179300
23.069000 3.135900
23.090800 3.133600
23.112600 3.177700
23.134400 3.297700
23.156200 3.420200
23.178000 3.467600
23.199800 3.633100
23.221600 3.817400
23.243400 3.906600
23.265200 3.782000
23.287000 3.760000
23.308800 3.819500
23.330600 3.859300
23.352400 3.784200
23.374200 3.608600
23.396000 3.393700
23.417800 3.279900
23.439600 3.221400
23.461400 3.214900
23.483200 3.292100
23.505100 3.419200
23.526900 3.495400
23.548700 3.486500
23.570500 3.565600
23.592300 3.689000
23.614100 3.849000
23.635900 4.131900
23.657700 4.282900
23.679500 4.474200
23.701300 4.649600
23.723100 4.661400
23.744900 4.684600
23.766700 4.729300
23.788500 4.753700
23.810300 4.866700
23.832100 5.068300
23.853900 5.534700
23.875700 5.030300
23.897500 4.945800
23.919300 4.985300
23.941100 5.054700
23.962900 4.851400
23.984700 4.819500
24.006500 4.878000
24.028300 5.026600
24.050100 5.193000
24.071900 5.265000
24.093700 5.381100
24.115500 5.502200
24.137300 5.439300
24.159100 5.405000
24.180900 5.079200
24.202700 5.041300
24.224500 5.013300
24.246300 4.933500
24.268100 4.812700
24.289900 4.743900
24.311700 4.640000
24.333500 4.475900
24.355300 4.305900
24.377100 4.184600
24.398900 4.149700
24.420700 4.105200
24.442500 4.083100
24.464300 4.094000
24.486100 4.167100
24.507900 4.678700
24.529700 5.507000
24.551500 5.883200
24.573300 5.405300
24.595100 5.120000
24.617000 4.959400
24.638800 4.872000
24.660600 4.816100
24.682400 4.826600
24.704200 4.737000
24.726000 4.589100
24.747800 4.396000
24.769600 4.282600
24.791400 4.041400
24.813200 3.916700
24.835000 3.802500
24.856800 3.729400
24.878600 3.682900
24.900400 3.670100
24.922200 3.673600
24.944000 3.745200
24.965800 3.852700
24.987600 3.964500
25.009400 4.111500
25.031200 4.179600
25.053000 4.243600
25.074800 4.316600
25.096600 4.402700
25.118400 4.489900
25.140200 4.646900
25.162000 4.724800
25.183800 4.777800
25.205600 4.845800
25.227400 4.931300
25.249200 5.222900
25.271000 5.531800
25.292800 5.652800
25.314600 5.612200
25.336400 5.558600
25.358200 5.540600
25.380000 5.552300
25.401800 5.475000
25.423600 5.262600
25.445400 5.050000
25.467200 4.691300
25.489000 4.579200
25.510800 4.540700
25.532600 4.513300
25.554400 4.432800
25.576200 4.437400
25.598000 4.482400
25.619800 4.509100
25.641600 4.525200
25.663400 4.575500
25.685200 4.640000
25.707000 4.690600
25.728800 4.718800
25.750700 4.704300
25.772500 4.687100
25.794300 4.659500
25.816100 4.621800
25.837900 4.573900
25.859700 4.503200
25.881500 4.463500
25.903300 4.425400
25.925100 4.384700
25.946900 4.328600
25.968700 4.301800
25.990500 4.270200
26.012300 4.210800
26.034100 4.221300
26.055900 4.206300
26.077700 4.174700
26.099500 4.132000
26.121300 4.106900
26.143100 4.112700
26.164900 4.171000
26.186700 4.295400
26.208500 4.445100
26.230300 3.941100
26.252100 3.850700
26.273900 3.875700
26.295700 3.887300
26.317500 3.913400
26.339300 3.906200
26.361100 3.910200
26.382900 3.951500
26.404700 3.998800
26.426500 4.018200
26.448300 4.044500
26.470100 4.087900
26.491900 4.081100
26.513700 3.993500
26.535500 3.893600
26.557300 3.847900
26.579100 3.828900
26.600900 3.795000
26.622700 3.781200
26.644500 3.832700
26.666300 3.829000
26.688100 3.819400
26.709900 3.806000
26.731700 3.852500
26.753500 3.867200
26.775300 3.876600
26.797100 3.899100
26.818900 3.900100
26.840700 3.889300
26.862600 3.866500
26.884400 3.831500
26.906200 3.776900
26.928000 3.662800
26.949800 3.579100
26.971600 3.697800
26.993400 4.055000
27.015200 4.068500
27.037000 3.942400
27.058800 3.879000
27.080600 3.797200
27.102400 3.693100
27.124200 3.772900
27.146000 3.812000
27.167800 3.847000
27.189600 3.878900
27.211400 3.900800
27.233200 3.854100
27.255000 3.744500
27.276800 3.641100
27.298600 3.571500
27.320400 3.465800
27.342200 3.410200
27.364000 3.408500
27.385800 3.426100
27.407600 3.435000
27.429400 3.433300
27.451200 3.427100
27.473000 3.373600
27.494800 3.330800
27.516600 3.307500
27.538400 3.320300
27.560200 3.370100
27.582000 3.427900
27.603800 3.480400
27.625600 3.568000
27.647400 3.544600
27.669200 3.544100
27.691000 3.559400
27.712800 3.578200
27.734600 3.590300
27.756400 3.586500
27.778200 3.571400
27.800000 3.572800
27.821800 3.555800
27.843600 3.459800
27.865400 3.361000
27.887200 3.249000
27.909000 3.138400
27.930800 3.048200
27.952600 2.975600
27.974500 2.954300
27.996300 2.956600
28.018100 2.996000
28.039900 3.033800
28.061700 3.040800
28.083500 3.015200
28.105300 2.975900
28.127100 2.921700
28.148900 2.864200
28.170700 2.840500
28.192500 2.826000
28.214300 2.823500
28.236100 2.829500
28.257900 2.828400
28.279700 2.821900
28.301500 2.807200
28.323300 2.673000
28.345100 2.608600
28.366900 2.548400
28.388700 2.485800
28.410500 2.387100
28.432300 2.294100
28.454100 2.225700
28.475900 2.206200
28.497700 2.252400
28.519500 2.196400
28.541300 2.108400
28.563100 2.066800
28.584900 2.042300
28.606700 2.008200
28.628500 1.987200
28.650300 2.106800
28.672100 2.098200
28.693900 2.057600
28.715700 1.989000
28.737500 1.911300
28.759300 1.798300
28.781100 1.694100
28.802900 1.629700
28.824700 1.586200
28.846500 1.560100
28.868300 1.550600
28.890100 1.550200
28.911900 1.559400
28.933700 1.608500
28.955500 1.629000
28.977300 1.627800
28.999100 1.624900
29.020900 1.579000
29.042700 1.509900
29.064500 1.442300
29.086300 1.358500
29.108200 1.225200
29.130000 1.120100
29.151800 1.051600
29.173600 0.997900
29.195400 0.950900
29.217200 0.910200
29.239000 0.876000
29.260800 0.847300
29.282600 0.821000
29.304400 0.795500
29.326200 0.771400
29.348000 0.862000
29.369800 1.053800
29.391600 0.799800
29.413400 0.679200
29.435200 0.662800
29.457000 0.647400
29.478800 0.631700
29.500600 0.615800
29.522400 0.600000
29.544200 0.584400
29.566000 0.569100
29.587800 0.554000
29.609600 0.580400
29.631400 0.564200
29.653200 0.450600
29.675000 0.358400
29.696800 0.346500
29.718600 0.334600
29.740400 0.323000
29.762200 0.311900
29.784000 0.301300
29.805800 0.291200
29.827600 0.281400
29.849400 0.271100
29.871200 0.260300
29.893000 0.249000
29.914800 0.237100
29.936600 0.224900
29.958400 0.212600
29.980200 0.199900
30.002000 0.186900
30.023800 0.173600
30.045600 0.159900
30.067400 0.145900
30.089200 0.131800
30.111000 0.126500
30.132800 0.121200
30.154600 0.115900
30.176400 0.111200
30.198200 0.106300
30.220100 0.101000
30.241900 0.095300
30.263700 0.089300
30.285500 0.082700
30.307300 0.075700
30.329100 0.068300
30.350900 0.060300
30.372700 0.052000
30.394500 0.043100
30.416300 0.033800
30.438100 0.024900
30.459900 0.017400
30.481700 0.011200
30.503500 0.006400
30.525300 0.002900
30.547100 0.000800
30.568900 0.000000
30.590700 0.000000
30.612500 0.000000
30.634300 0.000000
30.656100 0.000000
30.677900 0.000000
30.699700 0.000000
30.721500 0.000000
30.743300 0.000000
30.765100 0.000000
30.786900 0.000000
30.808700 0.000000
30.830500 0.000000
30.852300 0.000000
30.874100 0.000000
30.895900 0.000000
30.917700 0.000000
30.939500 0.000000
30.961300 0.000000
30.983100 0.000000
31.004900 0.000000
31.026700 0.000000
31.048500 0.000000
31.070300 0.000000
31.092100 0.000000
31.113900 0.000000
31.135700 0.000000
31.157500 0.000000
31.179300 0.000000
31.201100 0.000000
31.222900 0.000000
31.244700 0.000000
31.266500 0.000000
31.288300 0.000000
31.310100 0.000000
31.331900 0.000000
31.353800 0.000000
31.375600 0.000000
31.397400 0.000000
31.419200 0.000000
31.441000 0.000000
31.462800 0.000000
31.484600 0.000000
31.506400 0.000000
31.528200 0.000000
31.550000 0.000000
31.571800 0.000000
31.593600 0.000000
31.615400 0.000000
31.637200 0.000000
31.659000 0.000000
31.680800 0.000000
31.702600 0.000000
31.724400 0.000000
31.746200 0.000000
31.768000 0.000000
31.789800 0.000000
31.811600 0.000000
31.833400 0.000000
31.855200 0.000000
31.877000 0.000000
31.898800 0.000000
31.920600 0.000000
31.942400 0.000000
31.964200 0.000000
31.986000 0.000000
32.007800 0.000000
32.029600 0.000000
32.051400 0.000000
32.073200 0.000000
32.095000 0.000000
32.116800 0.000000
32.138600 0.000000
32.160400 0.000000
32.182200 0.000000
32.204000 0.000000
32.225800 0.000000
32.247600 0.000000
32.269400 0.000000
32.291200 0.000000
32.313000 0.000000
32.334800 0.000000
32.356600 0.000000
32.378400 0.000000
32.400200 0.000000
32.422000 0.000000
32.443800 0.000000
32.465700 0.000000
32.487500 0.000000
32.509300 0.000000
32.531100 0.000000
32.552900 0.000000
e
