set title 'mp-1187503 - Density of States'
set xlabel 'Energy (eV)'
set ylabel 'DOS (states/eV)'
set grid
set xrange [-10:10]
set yrange [0:146.319]
set xzeroaxis lt -1
set terminal png size 800,600
set output 'mp-1187503_dos_gnuplot.png'
plot '-' using 1:2 with lines title 'DOS'
-9.415100 0.000000
-9.396800 0.000000
-9.378500 0.000000
-9.360100 0.000000
-9.341800 0.000000
-9.323500 0.000000
-9.305200 0.000000
-9.286900 0.000000
-9.268500 0.000000
-9.250200 0.000000
-9.231900 0.000000
-9.213600 0.000000
-9.195200 0.000000
-9.176900 0.000000
-9.158600 0.000000
-9.140300 0.000000
-9.122000 0.000000
-9.103600 0.000000
-9.085300 0.000000
-9.067000 0.000000
-9.048700 0.000000
-9.030300 0.000000
-9.012000 0.000000
-8.993700 0.000000
-8.975400 0.000000
-8.957100 0.000000
-8.938700 0.000000
-8.920400 0.000000
-8.902100 0.000000
-8.883800 0.000000
-8.865400 0.000000
-8.847100 0.000000
-8.828800 0.000000
-8.810500 0.000000
-8.792200 0.000000
-8.773800 0.000000
-8.755500 0.000000
-8.737200 0.000000
-8.718900 0.000000
-8.700500 0.000000
-8.682200 0.000000
-8.663900 0.000000
-8.645600 0.000000
-8.627300 0.000000
-8.608900 0.000000
-8.590600 0.000000
-8.572300 0.000000
-8.554000 0.000000
-8.535600 0.000000
-8.517300 0.000000
-8.499000 0.000000
-8.480700 0.000000
-8.462400 0.000000
-8.444000 0.000000
-8.425700 0.000000
-8.407400 0.000000
-8.389100 0.000000
-8.370800 0.000000
-8.352400 0.000000
-8.334100 0.000000
-8.315800 0.000000
-8.297500 0.000000
-8.279100 0.000000
-8.260800 0.000000
-8.242500 0.000000
-8.224200 0.000000
-8.205900 0.000000
-8.187500 0.000000
-8.169200 0.000000
-8.150900 0.000000
-8.132600 0.000000
-8.114200 0.000000
-8.095900 0.000000
-8.077600 0.000000
-8.059300 0.000000
-8.041000 0.000000
-8.022600 0.000000
-8.004300 0.000000
-7.986000 0.000000
-7.967700 0.000000
-7.949300 0.000000
-7.931000 0.000000
-7.912700 0.000000
-7.894400 0.000000
-7.876100 0.000000
-7.857700 0.000000
-7.839400 0.000000
-7.821100 0.000000
-7.802800 0.000000
-7.784400 0.000000
-7.766100 0.000000
-7.747800 3.081400
-7.729500 43.563600
-7.711200 54.034700
-7.692800 31.469500
-7.674500 19.257800
-7.656200 12.845600
-7.637900 9.764900
-7.619500 6.018100
-7.601200 5.173200
-7.582900 4.403200
-7.564600 3.818500
-7.546300 2.507900
-7.527900 2.046100
-7.509600 1.602500
-7.491300 1.141800
-7.473000 0.898200
-7.454700 0.703200
-7.436300 0.529700
-7.418000 0.404900
-7.399700 0.271000
-7.381400 0.127500
-7.363000 0.083300
-7.344700 0.048600
-7.326400 0.023200
-7.308100 0.007100
-7.289800 0.000300
-7.271400 0.000000
-7.253100 0.000000
-7.234800 0.000000
-7.216500 0.000000
-7.198100 0.006300
-7.179800 15.489100
-7.161500 33.311900
-7.143200 83.964600
-7.124900 87.287600
-7.106500 68.987800
-7.088200 60.261700
-7.069900 59.281000
-7.051600 12.903400
-7.033200 0.215800
-7.014900 24.545200
-6.996600 82.786700
-6.978300 91.677800
-6.960000 133.017600
-6.941600 69.369900
-6.923300 38.838200
-6.905000 0.267000
-6.886700 0.283100
-6.868300 0.300700
-6.850000 0.319700
-6.831700 0.340200
-6.813400 0.361700
-6.795100 0.379000
-6.776700 0.390000
-6.758400 0.394600
-6.740100 0.396900
-6.721800 0.403600
-6.703400 0.415500
-6.685100 0.429600
-6.666800 0.445300
-6.648500 0.461200
-6.630200 0.477100
-6.611800 0.493000
-6.593500 0.508900
-6.575200 0.524800
-6.556900 0.541100
-6.538500 0.558400
-6.520200 0.576600
-6.501900 0.594500
-6.483600 0.643000
-6.465300 0.696700
-6.446900 0.745400
-6.428600 0.789100
-6.410300 0.721300
-6.392000 0.730400
-6.373700 0.739000
-6.355300 0.747100
-6.337000 0.754900
-6.318700 0.762300
-6.300400 0.769200
-6.282000 0.774200
-6.263700 0.775100
-6.245400 0.776400
-6.227100 0.778100
-6.208800 0.785500
-6.190400 0.792800
-6.172100 0.800100
-6.153800 0.806800
-6.135500 0.812800
-6.117100 0.818200
-6.098800 0.882100
-6.080500 0.951500
-6.062200 1.026100
-6.043900 0.975100
-6.025500 0.988600
-6.007200 1.009200
-5.988900 1.030400
-5.970600 1.052200
-5.952200 1.074600
-5.933900 1.097600
-5.915600 1.111100
-5.897300 1.124700
-5.879000 1.138200
-5.860600 1.156900
-5.842300 1.177600
-5.824000 1.198500
-5.805700 1.219700
-5.787300 1.241100
-5.769000 1.262800
-5.750700 1.285300
-5.732400 1.307900
-5.714100 1.331100
-5.695700 1.347200
-5.677400 1.371400
-5.659100 1.397300
-5.640800 1.424400
-5.622400 1.452000
-5.604100 1.480500
-5.585800 1.510200
-5.567500 1.541100
-5.549200 1.572600
-5.530800 1.605000
-5.512500 1.638100
-5.494200 1.671700
-5.475900 1.707300
-5.457600 1.745800
-5.439200 1.786400
-5.420900 1.828000
-5.402600 1.871100
-5.384300 1.916100
-5.365900 1.967400
-5.347600 2.019600
-5.329300 2.083600
-5.311000 2.173000
-5.292700 2.286400
-5.274300 2.636500
-5.256000 2.866700
-5.237700 2.683000
-5.219400 2.651400
-5.201000 2.687400
-5.182700 2.716400
-5.164400 2.722500
-5.146100 2.677300
-5.127800 2.632300
-5.109400 2.611100
-5.091100 2.597000
-5.072800 2.586100
-5.054500 2.589400
-5.036100 2.607000
-5.017800 2.657200
-4.999500 3.474900
-4.981200 2.543200
-4.962900 2.444300
-4.944500 2.391900
-4.926200 2.354500
-4.907900 2.323400
-4.889600 2.296200
-4.871200 2.288800
-4.852900 2.293100
-4.834600 2.322700
-4.816300 2.490400
-4.798000 2.569400
-4.779600 2.566900
-4.761300 2.513900
-4.743000 2.474100
-4.724700 2.424500
-4.706300 2.375100
-4.688000 2.379300
-4.669700 2.402200
-4.651400 3.285600
-4.633100 2.776400
-4.614700 2.694100
-4.596400 2.781600
-4.578100 2.825300
-4.559800 2.841300
-4.541400 2.835900
-4.523100 2.824700
-4.504800 2.918900
-4.486500 3.397500
-4.468200 4.585400
-4.449800 3.706200
-4.431500 1.963200
-4.413200 0.946800
-4.394900 0.342100
-4.376600 0.036700
-4.358200 0.000000
-4.339900 0.000000
-4.321600 0.000000
-4.303300 0.000000
-4.284900 0.000000
-4.266600 0.000000
-4.248300 0.000000
-4.230000 0.000000
-4.211700 0.000000
-4.193300 0.000000
-4.175000 0.000000
-4.156700 0.000000
-4.138400 0.000000
-4.120000 0.000000
-4.101700 0.000000
-4.083400 0.000000
-4.065100 0.000000
-4.046800 0.000000
-4.028400 0.000000
-4.010100 0.000000
-3.991800 0.000000
-3.973500 0.000000
-3.955100 0.000000
-3.936800 0.000000
-3.918500 0.000000
-3.900200 0.000000
-3.881900 0.000000
-3.863500 0.000000
-3.845200 0.000000
-3.826900 0.000000
-3.808600 0.000000
-3.790200 0.000000
-3.771900 0.000000
-3.753600 0.000000
-3.735300 0.000000
-3.717000 0.000000
-3.698600 0.000000
-3.680300 0.000000
-3.662000 0.000000
-3.643700 0.000000
-3.625300 0.000000
-3.607000 0.000000
-3.588700 0.000000
-3.570400 0.000000
-3.552100 0.000000
-3.533700 0.000000
-3.515400 0.000000
-3.497100 0.000000
-3.478800 0.000000
-3.460400 0.000000
-3.442100 0.000000
-3.423800 0.000000
-3.405500 0.000000
-3.387200 0.000000
-3.368800 0.000000
-3.350500 0.000000
-3.332200 0.000000
-3.313900 0.000000
-3.295600 0.000000
-3.277200 0.000000
-3.258900 0.000000
-3.240600 0.000000
-3.222300 0.000000
-3.203900 0.000000
-3.185600 0.000000
-3.167300 0.000000
-3.149000 0.000000
-3.130700 0.000000
-3.112300 0.000000
-3.094000 0.000000
-3.075700 0.000000
-3.057400 0.000000
-3.039000 0.000000
-3.020700 0.000000
-3.002400 0.000000
-2.984100 0.000000
-2.965800 0.000000
-2.947400 0.000000
-2.929100 0.000000
-2.910800 0.000000
-2.892500 0.000000
-2.874100 0.000000
-2.855800 0.000000
-2.837500 0.000000
-2.819200 0.000000
-2.800900 0.000000
-2.782500 0.000000
-2.764200 0.000000
-2.745900 0.000000
-2.727600 0.000000
-2.709200 0.000000
-2.690900 0.000000
-2.672600 0.000000
-2.654300 0.000000
-2.636000 0.000000
-2.617600 0.000000
-2.599300 0.000000
-2.581000 0.000000
-2.562700 0.000000
-2.544300 0.000000
-2.526000 0.000000
-2.507700 0.000000
-2.489400 0.000000
-2.471100 0.000000
-2.452700 0.000000
-2.434400 0.000000
-2.416100 0.000000
-2.397800 0.000000
-2.379500 0.000000
-2.361100 0.000000
-2.342800 0.000000
-2.324500 1.308300
-2.306200 2.001900
-2.287800 2.432300
-2.269500 3.071900
-2.251200 3.541300
-2.232900 3.597000
-2.214600 3.847800
-2.196200 4.160000
-2.177900 4.232100
-2.159600 3.765500
-2.141300 3.198300
-2.122900 2.948900
-2.104600 2.938000
-2.086300 2.935900
-2.068000 2.385200
-2.049700 2.273200
-2.031300 2.179800
-2.013000 2.095500
-1.994700 2.205900
-1.976400 2.045000
-1.958000 1.899200
-1.939700 1.880100
-1.921400 1.886100
-1.903100 1.932400
-1.884800 2.096600
-1.866400 2.322600
-1.848100 2.654900
-1.829800 2.347800
-1.811500 2.314400
-1.793100 2.278200
-1.774800 2.242500
-1.756500 2.203700
-1.738200 2.159500
-1.719900 2.111900
-1.701500 2.061200
-1.683200 2.009800
-1.664900 1.958200
-1.646600 1.911600
-1.628200 1.823500
-1.609900 1.771000
-1.591600 1.765000
-1.573300 1.779200
-1.555000 1.783300
-1.536600 1.789000
-1.518300 1.790900
-1.500000 1.782000
-1.481700 1.744200
-1.463300 1.715600
-1.445000 1.696200
-1.426700 1.686000
-1.408400 1.684400
-1.390100 1.683700
-1.371700 1.690200
-1.353400 1.709700
-1.335100 1.741800
-1.316800 1.756200
-1.298500 1.742300
-1.280100 1.714900
-1.261800 1.657000
-1.243500 1.568100
-1.225200 1.456500
-1.206800 1.413400
-1.188500 1.366700
-1.170200 1.327700
-1.151900 1.290600
-1.133600 1.255500
-1.115200 1.222400
-1.096900 1.191400
-1.078600 1.162300
-1.060300 1.135000
-1.041900 1.110100
-1.023600 1.086800
-1.005300 1.065400
-0.987000 1.048500
-0.968700 1.032400
-0.950300 1.016800
-0.932000 1.001600
-0.913700 0.986600
-0.895400 0.971800
-0.877000 0.957100
-0.858700 0.942700
-0.840400 0.928500
-0.822100 0.914900
-0.803800 0.901600
-0.785400 0.888500
-0.767100 0.875500
-0.748800 0.862800
-0.730500 0.850300
-0.712100 0.837700
-0.693800 0.825100
-0.675500 0.812900
-0.657200 0.809600
-0.638900 0.796600
-0.620500 0.783700
-0.602200 0.771100
-0.583900 0.759200
-0.565600 0.747500
-0.547200 0.735800
-0.528900 0.723700
-0.510600 0.711900
-0.492300 0.700500
-0.474000 0.689400
-0.455600 0.678600
-0.437300 0.668100
-0.419000 0.664100
-0.400700 0.665100
-0.382400 0.665700
-0.364000 0.666000
-0.345700 0.658300
-0.327400 0.645200
-0.309100 0.632400
-0.290700 0.619900
-0.272400 0.607500
-0.254100 0.595300
-0.235800 0.728000
-0.217500 0.621300
-0.199100 0.519000
-0.180800 0.459400
-0.162500 0.456000
-0.144200 0.452600
-0.125800 0.449200
-0.107500 0.445900
-0.089200 0.442500
-0.070900 0.441900
-0.052600 0.439000
-0.034200 0.436200
-0.015900 0.433400
0.002400 0.430500
0.020700 0.427700
0.039100 0.424800
0.057400 0.421800
0.075700 0.418700
0.094000 0.415500
0.112300 0.412300
0.130700 0.408900
0.149000 0.405400
0.167300 0.401900
0.185600 0.398400
0.204000 0.395100
0.222300 0.392000
0.240600 0.389000
0.258900 0.386200
0.277200 0.383500
0.295600 0.382900
0.313900 0.383000
0.332200 0.383200
0.350500 0.383400
0.368900 0.383600
0.387200 0.383800
0.405500 0.383500
0.423800 0.380400
0.442100 0.377100
0.460500 0.373700
0.478800 0.371200
0.497100 0.368900
0.515400 0.366400
0.533800 0.363900
0.552100 0.361300
0.570400 0.358600
0.588700 0.355800
0.607000 0.352900
0.625400 0.415100
0.643700 0.393100
0.662000 0.370200
0.680300 0.346300
0.698600 0.325000
0.717000 0.318000
0.735300 0.341600
0.753600 0.386400
0.771900 0.436600
0.790300 0.491500
0.808600 0.550900
0.826900 0.598900
0.845200 0.627600
0.863500 0.651300
0.881900 0.671400
0.900200 0.702400
0.918500 0.735700
0.936800 0.772100
0.955200 1.048200
0.973500 1.384600
0.991800 1.844000
1.010100 2.043900
1.028400 2.149700
1.046800 2.255800
1.065100 2.372600
1.083400 2.505300
1.101700 2.608600
1.120100 2.450500
1.138400 2.197100
1.156700 2.075200
1.175000 2.037100
1.193300 1.989400
1.211700 1.945900
1.230000 1.900800
1.248300 1.845200
1.266600 1.799100
1.285000 1.768300
1.303300 1.752600
1.321600 1.670200
1.339900 1.664800
1.358200 1.666400
1.376600 1.674600
1.394900 1.689500
1.413200 1.710300
1.431500 1.735800
1.449900 1.766000
1.468200 1.803800
1.486500 1.854200
1.504800 1.906500
1.523100 1.959600
1.541500 2.021500
1.559800 2.104900
1.578100 2.211500
1.596400 2.371700
1.614700 2.455300
1.633100 2.392800
1.651400 2.405700
1.669700 2.430700
1.688000 2.456500
1.706400 2.479000
1.724700 2.497300
1.743000 2.498200
1.761300 2.590000
1.779600 2.660300
1.798000 2.714600
1.816300 2.763600
1.834600 2.809600
1.852900 2.912200
1.871300 3.016800
1.889600 3.092300
1.907900 3.086900
1.926200 2.972500
1.944500 2.965600
1.962900 2.912900
1.981200 2.872400
1.999500 2.928400
2.017800 3.053300
2.036200 3.147400
2.054500 4.081900
2.072800 3.576600
2.091100 3.145500
2.109400 2.884400
2.127800 2.725900
2.146100 2.758500
2.164400 3.011800
2.182700 2.942200
2.201100 2.922900
2.219400 2.916000
2.237700 2.929000
2.256000 2.852800
2.274300 2.880400
2.292700 2.913000
2.311000 2.941900
2.329300 3.122800
2.347600 3.231200
2.366000 3.342100
2.384300 3.647900
2.402600 3.789600
2.420900 3.922500
2.439200 3.887100
2.457600 4.490900
2.475900 4.266500
2.494200 4.044200
2.512500 4.003500
2.530900 3.930000
2.549200 3.932800
2.567500 3.926400
2.585800 3.925700
2.604100 3.955100
2.622500 3.980000
2.640800 4.041900
2.659100 4.088000
2.677400 3.932700
2.695700 3.711300
2.714100 3.712300
2.732400 3.789400
2.750700 3.903400
2.769000 4.095400
2.787400 4.551100
2.805700 5.273400
2.824000 7.667900
2.842300 8.759700
2.860600 5.589900
2.879000 4.859900
2.897300 4.358800
2.915600 4.153000
2.933900 4.016500
2.952300 3.893300
2.970600 3.777600
2.988900 3.687300
3.007200 3.603700
3.025500 3.527100
3.043900 3.452900
3.062200 3.383200
3.080500 3.337600
3.098800 3.302400
3.117200 3.232700
3.135500 3.152800
3.153800 3.096700
3.172100 3.039300
3.190400 2.960700
3.208800 2.853700
3.227100 2.735700
3.245400 2.610200
3.263700 2.498000
3.282100 2.412800
3.300400 2.337500
3.318700 2.270500
3.337000 2.199500
3.355300 2.130900
3.373700 2.067500
3.392000 2.005800
3.410300 1.932300
3.428600 1.875200
3.447000 1.797000
3.465300 1.728400
3.483600 1.667000
3.501900 1.601400
3.520200 1.551900
3.538600 1.496300
3.556900 1.443200
3.575200 1.392600
3.593500 1.345700
3.611800 1.313900
3.630200 1.283900
3.648500 1.258200
3.666800 1.230900
3.685100 1.200000
3.703500 1.169200
3.721800 1.196500
3.740100 1.148600
3.758400 1.097100
3.776700 1.041200
3.795100 0.980500
3.813400 0.927200
3.831700 0.889200
3.850000 0.851900
3.868400 0.815000
3.886700 0.777700
3.905000 0.741700
3.923300 0.714500
3.941600 0.691000
3.960000 0.667300
3.978300 0.639100
3.996600 0.596900
4.014900 0.549000
4.033300 0.499200
4.051600 0.450500
4.069900 0.402900
4.088200 0.355200
4.106500 0.318100
4.124900 0.288700
4.143200 0.247200
4.161500 0.195700
4.179800 0.110900
4.198200 0.050000
4.216500 0.013100
4.234800 0.000000
4.253100 0.000100
4.271400 0.000500
4.289800 0.001200
4.308100 0.002100
4.326400 0.003300
4.344700 0.004800
4.363100 0.006600
4.381400 0.008600
4.399700 0.010900
4.418000 0.013500
4.436300 0.016600
4.454700 0.020300
4.473000 0.024500
4.491300 0.029200
4.509600 0.034400
4.528000 0.040100
4.546300 0.046200
4.564600 0.052700
4.582900 0.059400
4.601200 0.066600
4.619600 0.074100
4.637900 0.081800
4.656200 0.089700
4.674500 0.097700
4.692800 0.106000
4.711200 0.114500
4.729500 0.123200
4.747800 0.132100
4.766100 0.141200
4.784500 0.150500
4.802800 0.160300
4.821100 0.170900
4.839400 0.181600
4.857700 0.193100
4.876100 0.205700
4.894400 0.218600
4.912700 0.231800
4.931000 0.245600
4.949400 0.261200
4.967700 0.278200
4.986000 0.296900
5.004300 0.316100
5.022600 0.335100
5.041000 0.354300
5.059300 0.373800
5.077600 0.393500
5.095900 0.413800
5.114300 0.433600
5.132600 0.452900
5.150900 0.472800
5.169200 0.493600
5.187500 0.516400
5.205900 0.691900
5.224200 0.855500
5.242500 1.015500
5.260800 1.170700
5.279200 1.287000
5.297500 1.402300
5.315800 1.526900
5.334100 1.660800
5.352400 1.806000
5.370800 1.969800
5.389100 2.153800
5.407400 2.300300
5.425700 2.366000
5.444100 2.432500
5.462400 2.486200
5.480700 2.520900
5.499000 2.539700
5.517300 2.544300
5.535700 2.581900
5.554000 2.645600
5.572300 2.718600
5.590600 2.795700
5.609000 2.863200
5.627300 2.910100
5.645600 2.951500
5.663900 2.980200
5.682200 2.997400
5.700600 3.004700
5.718900 3.025500
5.737200 3.171300
5.755500 3.436300
5.773800 3.601800
5.792200 3.710100
5.810500 3.800900
5.828800 3.886800
5.847100 3.954200
5.865500 4.041300
5.883800 4.120900
5.902100 4.731300
5.920400 4.123400
5.938700 4.059100
5.957100 4.023600
5.975400 3.913100
5.993700 3.782500
6.012000 3.632600
6.030400 3.450000
6.048700 3.373200
6.067000 3.292400
6.085300 3.291900
6.103600 3.241800
6.122000 3.079000
6.140300 3.016000
6.158600 2.658500
6.176900 2.523000
6.195300 2.412700
6.213600 2.331900
6.231900 2.263500
6.250200 2.194100
6.268500 2.123200
6.286900 2.332500
6.305200 2.082800
6.323500 1.946000
6.341800 1.793100
6.360200 1.664000
6.378500 1.601200
6.396800 1.541100
6.415100 1.483600
6.433400 1.429700
6.451800 1.380600
6.470100 1.338800
6.488400 1.313900
6.506700 1.290300
6.525100 1.268000
6.543400 1.247100
6.561700 1.227600
6.580000 1.209300
6.598300 1.192300
6.616700 1.166400
6.635000 1.130700
6.653300 1.107800
6.671600 1.011300
6.689900 0.939800
6.708300 0.882100
6.726600 0.835800
6.744900 0.791400
6.763200 0.747900
6.781600 0.705400
6.799900 0.663900
6.818200 0.623400
6.836500 0.583800
6.854800 0.545500
6.873200 0.508500
6.891500 0.472700
6.909800 0.438200
6.928100 0.404900
6.946500 0.374200
6.964800 0.376500
6.983100 0.499000
7.001400 0.462500
7.019700 0.413600
7.038100 0.372500
7.056400 0.324800
7.074700 0.263300
7.093000 0.188100
7.111400 0.013200
7.129700 0.000000
7.148000 0.000000
7.166300 0.000000
7.184600 0.000100
7.203000 0.003500
7.221300 0.011600
7.239600 0.024500
7.257900 0.042200
7.276300 0.064700
7.294600 0.092000
7.312900 0.124100
7.331200 0.147200
7.349500 0.168400
7.367900 0.190300
7.386200 0.210700
7.404500 0.229000
7.422800 0.245300
7.441200 0.259600
7.459500 0.271800
7.477800 0.282000
7.496100 0.290200
7.514400 0.328700
7.532800 0.511000
7.551100 0.602200
7.569400 0.677600
7.587700 0.759200
7.606100 0.869900
7.624400 0.997400
7.642700 1.061100
7.661000 1.178800
7.679300 1.317500
7.697700 1.714400
7.716000 2.652500
7.734300 5.088800
7.752600 4.929500
7.770900 6.978700
7.789300 5.441400
7.807600 4.205900
7.825900 4.117700
7.844200 4.066300
7.862600 4.030100
7.880900 4.040200
7.899200 4.288100
7.917500 4.572600
7.935800 4.828400
7.954200 5.051700
7.972500 5.278900
7.990800 5.499200
8.009100 5.667200
8.027500 6.769700
8.045800 5.475900
8.064100 5.184600
8.082400 4.748900
8.100700 3.519200
8.119100 2.921500
8.137400 2.495700
8.155700 2.390100
8.174000 2.391400
8.192400 2.362800
8.210700 2.404700
8.229000 2.465100
8.247300 2.545900
8.265600 2.741900
8.284000 2.981800
8.302300 3.441000
8.320600 3.671700
8.338900 3.826000
8.357300 3.756200
8.375600 3.667100
8.393900 3.654800
8.412200 3.662600
8.430500 3.677700
8.448900 3.773000
8.467200 3.909500
8.485500 4.108900
8.503800 4.347700
8.522200 4.057400
8.540500 1.996400
8.558800 1.656000
8.577100 1.603200
8.595400 1.637600
8.613800 1.670900
8.632100 1.713400
8.650400 1.747100
8.668700 1.771300
8.687000 1.736800
8.705400 1.736600
8.723700 1.734200
8.742000 1.709400
8.760300 1.692800
8.778700 1.727700
8.797000 1.821900
8.815300 1.918000
8.833600 1.941100
8.851900 1.941700
8.870300 2.270800
8.888600 2.374400
8.906900 2.487500
8.925200 2.604800
8.943600 2.765800
8.961900 2.920700
8.980200 3.111300
8.998500 3.382200
9.016800 3.744800
9.035200 4.590600
9.053500 5.481000
9.071800 5.686800
9.090100 5.974200
9.108500 5.449900
9.126800 5.154300
9.145100 4.759900
9.163400 4.243500
9.181700 3.835500
9.200100 3.606100
9.218400 3.474200
9.236700 3.392500
9.255000 3.214200
9.273400 3.194600
9.291700 3.179600
9.310000 3.125500
9.328300 3.064500
9.346600 2.906300
9.365000 2.857300
9.383300 2.793300
9.401600 2.714200
9.419900 2.633500
9.438300 2.558900
9.456600 2.533300
9.474900 2.469600
9.493200 2.500500
9.511500 2.500400
9.529900 2.478000
9.548200 2.464000
9.566500 2.447800
9.584800 2.398800
9.603200 2.703300
9.621500 2.287100
9.639800 2.253500
9.658100 2.226900
9.676400 2.196800
9.694800 2.161100
9.713100 2.138100
9.731400 2.110600
9.749700 2.083600
9.768000 2.083800
9.786400 2.081700
9.804700 2.077200
9.823000 2.092700
9.841300 2.091800
9.859700 2.095300
9.878000 2.100100
9.896300 2.106300
9.914600 2.113700
9.932900 2.122500
9.951300 2.131500
9.969600 2.145600
9.987900 2.171800
10.006200 2.207600
10.024600 2.258600
10.042900 2.369300
10.061200 2.566700
10.079500 2.791400
10.097800 2.975900
10.116200 3.096400
10.134500 3.209300
10.152800 3.216900
10.171100 3.246700
10.189500 3.333300
10.207800 3.396700
10.226100 3.457000
10.244400 3.504900
10.262700 3.541100
10.281100 3.604400
10.299400 3.608700
10.317700 3.452000
10.336000 3.374100
10.354400 3.386900
10.372700 3.426400
10.391000 3.492100
10.409300 3.542300
10.427600 3.274900
10.446000 3.036400
10.464300 3.041700
10.482600 3.314900
10.500900 3.225500
10.519300 2.942900
10.537600 2.737900
10.555900 2.624000
10.574200 2.703100
10.592500 2.758100
10.610900 2.897300
10.629200 3.079300
10.647500 3.249900
10.665800 3.408900
10.684100 3.622000
10.702500 3.608700
10.720800 3.379900
10.739100 3.266100
10.757400 3.247200
10.775800 3.299900
10.794100 3.283800
10.812400 3.423200
10.830700 3.517200
10.849000 3.777000
10.867400 3.873000
10.885700 3.839300
10.904000 3.863900
10.922300 3.730700
10.940700 3.652800
10.959000 3.565900
10.977300 3.198100
10.995600 2.968300
11.013900 2.753400
11.032300 2.658100
11.050600 2.630900
11.068900 2.688700
11.087200 2.695200
11.105600 2.691900
11.123900 2.689300
11.142200 2.692100
11.160500 2.702700
11.178800 2.708500
11.197200 2.738400
11.215500 2.773300
11.233800 2.776700
11.252100 2.665500
11.270500 2.609400
11.288800 2.494300
11.307100 2.426400
11.325400 2.519000
11.343700 2.340600
11.362100 2.175300
11.380400 2.024100
11.398700 1.882200
11.417000 1.504100
11.435400 1.339500
11.453700 1.232400
11.472000 1.185600
11.490300 1.175400
11.508600 1.172100
11.527000 1.176500
11.545300 1.189100
11.563600 1.210100
11.581900 1.230200
11.600300 1.240400
11.618600 1.242900
11.636900 1.244300
11.655200 1.247900
11.673500 1.253100
11.691900 1.259800
11.710200 1.233500
11.728500 1.203100
11.746800 1.172800
11.765100 1.155500
11.783500 1.164800
11.801800 1.175800
11.820100 1.186200
11.838400 1.197800
11.856800 1.210300
11.875100 1.224100
11.893400 1.239500
11.911700 1.263300
11.930000 1.416500
11.948400 1.575800
11.966700 1.741200
11.985000 1.914100
12.003300 1.964800
12.021700 2.018000
12.040000 2.051200
12.058300 2.087300
12.076600 2.036600
12.094900 2.059800
12.113300 2.253200
12.131600 2.454100
12.149900 2.688600
12.168200 3.092200
12.186600 3.304900
12.204900 3.521400
12.223200 3.484600
12.241500 3.691500
12.259800 3.887400
12.278200 4.065900
12.296500 4.226900
12.314800 4.381000
12.333100 3.867000
12.351500 3.629400
12.369800 3.509200
12.388100 3.532800
12.406400 3.540100
12.424700 3.338900
12.443100 3.144900
12.461400 2.960400
12.479700 2.833900
12.498000 2.755300
12.516400 2.738700
12.534700 2.763600
12.553000 2.843000
12.571300 2.977600
12.589600 3.133200
12.608000 3.261100
12.626300 3.274100
12.644600 3.353000
12.662900 3.372100
12.681200 3.416900
12.699600 3.519200
12.717900 3.671700
12.736200 3.733200
12.754500 3.456400
12.772900 3.222100
12.791200 2.986100
12.809500 2.994500
12.827800 2.857500
12.846100 2.770900
12.864500 2.801200
12.882800 2.788800
12.901100 2.763600
12.919400 2.651600
12.937800 2.433400
12.956100 2.321100
12.974400 2.231900
12.992700 2.156100
13.011000 2.144600
13.029400 2.138800
13.047700 2.219500
13.066000 2.366400
13.084300 2.681800
13.102700 2.911600
13.121000 2.999600
13.139300 3.055800
13.157600 3.000300
13.175900 2.707500
13.194300 2.654200
13.212600 2.584200
13.230900 2.487800
13.249200 2.340300
13.267600 2.164100
13.285900 2.071400
13.304200 2.084500
13.322500 2.068100
13.340800 2.056000
13.359200 2.123400
13.377500 2.210300
13.395800 2.275700
13.414100 2.311500
13.432500 2.220800
13.450800 2.248400
13.469100 2.272100
13.487400 2.296400
13.505700 2.325900
13.524100 2.360300
13.542400 2.368400
13.560700 2.638900
13.579000 2.805500
13.597400 2.941300
13.615700 3.068200
13.634000 3.178300
13.652300 3.278600
13.670600 3.357000
13.689000 3.310800
13.707300 3.237200
13.725600 3.150100
13.743900 3.036000
13.762200 2.931200
13.780600 2.889500
13.798900 2.851300
13.817200 2.801000
13.835500 2.764200
13.853900 2.811200
13.872200 3.115000
13.890500 3.355400
13.908800 3.596300
13.927100 3.500400
13.945500 3.627700
13.963800 3.651700
13.982100 3.672700
14.000400 3.694300
14.018800 3.711200
14.037100 3.633900
14.055400 3.750100
14.073700 3.895300
14.092000 3.921400
14.110400 3.981200
14.128700 4.044400
14.147000 4.106400
14.165300 4.081300
14.183700 4.030600
14.202000 3.913300
14.220300 3.763700
14.238600 3.666700
14.256900 3.600600
14.275300 3.574500
14.293600 3.577000
14.311900 3.669400
14.330200 3.593700
14.348600 3.453300
14.366900 3.487900
14.385200 3.883500
14.403500 3.862900
14.421800 3.973700
14.440200 4.118400
14.458500 4.132300
14.476800 4.142300
14.495100 4.268600
14.513500 4.517500
14.531800 4.733600
14.550100 5.172200
14.568400 4.873400
14.586700 4.876000
14.605100 4.465800
14.623400 4.346600
14.641700 4.358100
14.660000 4.309600
14.678400 4.187400
14.696700 4.002800
14.715000 3.907700
14.733300 3.710200
14.751600 3.956200
14.770000 3.529100
14.788300 3.396300
14.806600 3.283700
14.824900 3.189100
14.843200 3.124300
14.861600 3.599800
14.879900 3.285500
14.898200 2.916800
14.916500 2.864400
14.934900 2.800600
14.953200 2.744600
14.971500 2.698600
14.989800 2.672000
15.008100 2.693000
15.026500 2.749700
15.044800 2.791700
15.063100 2.824500
15.081400 2.854100
15.099800 2.877400
15.118100 2.889800
15.136400 2.878200
15.154700 2.923100
15.173000 2.980300
15.191400 3.123100
15.209700 3.075100
15.228000 3.054300
15.246300 3.127900
15.264700 3.232900
15.283000 3.401000
15.301300 3.534900
15.319600 3.728100
15.337900 4.205900
15.356300 4.306000
15.374600 4.434600
15.392900 4.367400
15.411200 4.409800
15.429600 4.434800
15.447900 4.455700
15.466200 4.416100
15.484500 4.296000
15.502800 4.177300
15.521200 4.061000
15.539500 4.032400
15.557800 3.956800
15.576100 3.728900
15.594500 3.550200
15.612800 3.418200
15.631100 3.329000
15.649400 3.253300
15.667700 3.165500
15.686100 3.524300
15.704400 3.152200
15.722700 2.814900
15.741000 2.365200
15.759300 2.296600
15.777700 2.347200
15.796000 2.407700
15.814300 2.470500
15.832600 2.536200
15.851000 2.595300
15.869300 2.724500
15.887600 2.996000
15.905900 3.435900
15.924200 3.480100
15.942600 3.528900
15.960900 3.582400
15.979200 3.643700
15.997500 3.698800
16.015900 3.749300
16.034200 3.866500
16.052500 3.709700
16.070800 3.607600
16.089100 3.485600
16.107500 3.393500
16.125800 3.358400
16.144100 3.452600
16.162400 3.792500
16.180800 3.858300
16.199100 3.949000
16.217400 4.045700
16.235700 4.137800
16.254000 4.344700
16.272400 4.269600
16.290700 4.189500
16.309000 4.154700
16.327300 4.190400
16.345700 4.230600
16.364000 4.221600
16.382300 4.152700
16.400600 4.072100
16.418900 4.008300
16.437300 3.942400
16.455600 3.873800
16.473900 3.924700
16.492200 3.851400
16.510600 3.776400
16.528900 3.699800
16.547200 3.717300
16.565500 3.783000
16.583800 3.883000
16.602200 3.729500
16.620500 3.639200
16.638800 3.588200
16.657100 3.597600
16.675500 4.022600
16.693800 3.960600
16.712100 4.266700
16.730400 3.790900
16.748700 2.969900
16.767100 2.824000
16.785400 2.841200
16.803700 2.937400
16.822000 3.035600
16.840300 3.114600
16.858700 3.166900
16.877000 3.212100
16.895300 3.252000
16.913600 3.237300
16.932000 3.203700
16.950300 3.176600
16.968600 3.161600
16.986900 3.192900
17.005200 3.235000
17.023600 3.275800
17.041900 3.310300
17.060200 3.340000
17.078500 3.372000
17.096900 3.460400
17.115200 3.509200
17.133500 3.575900
17.151800 3.686300
17.170100 3.782300
17.188500 3.865300
17.206800 3.919000
17.225100 3.943300
17.243400 3.950400
17.261800 3.954000
17.280100 3.964700
17.298400 4.005000
17.316700 4.103800
17.335000 4.253900
17.353400 4.260300
17.371700 4.239900
17.390000 4.203100
17.408300 4.194300
17.426700 4.615900
17.445000 4.109500
17.463300 3.880000
17.481600 3.633100
17.499900 3.542700
17.518300 3.234800
17.536600 3.063300
17.554900 2.930200
17.573200 3.187800
17.591600 3.495600
17.609900 3.151600
17.628200 2.855500
17.646500 2.729100
17.664800 2.635100
17.683200 2.554300
17.701500 2.487200
17.719800 2.436600
17.738100 2.593100
17.756400 2.641700
17.774800 3.112400
17.793100 3.234400
17.811400 3.018500
17.829700 2.837200
17.848100 2.686500
17.866400 2.694300
17.884700 2.925800
17.903000 2.717000
17.921300 2.547500
17.939700 2.490800
17.958000 2.752200
17.976300 3.455500
17.994600 3.540400
18.013000 3.715800
18.031300 3.582400
18.049600 3.521700
18.067900 3.515500
18.086200 3.548100
18.104600 3.529700
18.122900 3.544600
18.141200 3.581900
18.159500 3.641700
18.177900 3.978100
18.196200 4.216500
18.214500 4.321000
18.232800 4.413100
18.251100 4.458000
18.269500 3.971800
18.287800 3.949000
18.306100 4.214300
18.324400 4.368800
18.342800 4.488100
18.361100 4.223900
18.379400 4.193500
18.397700 4.151300
18.416000 3.836700
18.434400 3.882800
18.452700 3.983500
18.471000 4.107700
18.489300 4.277900
18.507700 4.460100
18.526000 4.613700
18.544300 4.800000
18.562600 4.927000
18.580900 5.169100
18.599300 6.008900
18.617600 5.538100
18.635900 4.385500
18.654200 3.337800
18.672600 3.322600
18.690900 3.253600
18.709200 3.375700
18.727500 3.408300
18.745800 3.503400
18.764200 3.585500
18.782500 3.650700
18.800800 3.697300
18.819100 3.730100
18.837400 3.799500
18.855800 3.992100
18.874100 4.174100
18.892400 4.175300
18.910700 4.124200
18.929100 4.025700
18.947400 3.908000
18.965700 4.002100
18.984000 3.913500
19.002300 3.822500
19.020700 3.734300
19.039000 3.572400
19.057300 3.396200
19.075600 3.220500
19.094000 3.081100
19.112300 2.985400
19.130600 2.864600
19.148900 2.756700
19.167200 2.673300
19.185600 6.057200
19.203900 3.211100
19.222200 2.754200
19.240500 2.380600
19.258900 2.339700
19.277200 2.346800
19.295500 2.363400
19.313800 2.387700
19.332100 2.443100
19.350500 2.502900
19.368800 2.567400
19.387100 2.633300
19.405400 2.700700
19.423800 2.768400
19.442100 2.836100
19.460400 2.908300
19.478700 3.008400
19.497000 3.100300
19.515400 3.152200
19.533700 3.203800
19.552000 3.294800
19.570300 3.375800
19.588700 3.431600
19.607000 3.487500
19.625300 3.538900
19.643600 3.654700
19.661900 3.666700
19.680300 3.707800
19.698600 4.033500
19.716900 3.687000
19.735200 3.671800
19.753500 3.618300
19.771900 3.578900
19.790200 3.713800
19.808500 3.669000
19.826800 3.691200
19.845200 3.705800
19.863500 3.723300
19.881800 3.753100
19.900100 3.730300
19.918400 3.707500
19.936800 3.756800
19.955100 3.816500
19.973400 3.864800
19.991700 3.802600
20.010100 3.815200
20.028400 3.910500
20.046700 4.060000
20.065000 4.236700
20.083300 4.326200
20.101700 4.161100
20.120000 3.933800
20.138300 3.975700
20.156600 4.407800
20.175000 4.060200
20.193300 3.926200
20.211600 3.877800
20.229900 3.881200
20.248200 3.903200
20.266600 3.932800
20.284900 3.969500
20.303200 4.023800
20.321500 4.102800
20.339900 3.949000
20.358200 3.874200
20.376500 3.772000
20.394800 3.667400
20.413100 3.554000
20.431500 3.532300
20.449800 3.529600
20.468100 3.339400
20.486400 3.172900
20.504800 3.166300
20.523100 3.344900
20.541400 3.405300
20.559700 3.439100
20.578000 3.557900
20.596400 3.619500
20.614700 3.659900
20.633000 3.674800
20.651300 3.672800
20.669700 3.667100
20.688000 3.659300
20.706300 3.629900
20.724600 3.626400
20.742900 3.621000
20.761300 3.599000
20.779600 3.484800
20.797900 3.556200
20.816200 3.671800
20.834500 4.027500
20.852900 3.898700
20.871200 3.783400
20.889500 3.878400
20.907800 4.114300
20.926200 4.039400
20.944500 4.079900
20.962800 4.436200
20.981100 3.723700
20.999400 3.317500
21.017800 3.235000
21.036100 3.174600
21.054400 2.865300
21.072700 2.823400
21.091100 2.817300
21.109400 2.836900
21.127700 2.859600
21.146000 2.890800
21.164300 2.934800
21.182700 2.988200
21.201000 3.059700
21.219300 3.160300
21.237600 3.178700
21.256000 3.261100
21.274300 3.377600
21.292600 3.511500
21.310900 3.668000
21.329200 3.851800
21.347600 4.032000
21.365900 4.205900
21.384200 4.353100
21.402500 4.499400
21.420900 4.701400
21.439200 4.867400
21.457500 4.736000
21.475800 4.556200
21.494100 4.708400
21.512500 4.831000
21.530800 4.756900
21.549100 4.617800
21.567400 4.296200
21.585800 3.996700
21.604100 4.210700
21.622400 4.145300
21.640700 3.791300
21.659000 3.512300
21.677400 3.304900
21.695700 3.161400
21.714000 3.049000
21.732300 3.000700
21.750600 2.972200
21.769000 3.033900
21.787300 3.147500
21.805600 3.318600
21.823900 2.961100
21.842300 2.953100
21.860600 2.799700
21.878900 2.763700
21.897200 2.733900
21.915500 2.723700
21.933900 2.724300
21.952200 2.810600
21.970500 2.841800
21.988800 2.852800
22.007200 2.849600
22.025500 2.756300
22.043800 2.660400
22.062100 2.618400
22.080400 2.594200
22.098800 2.543100
22.117100 2.563300
22.135400 2.571500
22.153700 2.584900
22.172100 3.291200
22.190400 3.356900
22.208700 3.073100
22.227000 3.097100
22.245300 3.086600
22.263700 3.020700
22.282000 2.933200
22.300300 2.846300
22.318600 2.814100
22.337000 2.832800
22.355300 2.961700
22.373600 3.129200
22.391900 3.332200
22.410200 3.623600
22.428600 3.970000
22.446900 4.338900
22.465200 4.765200
22.483500 5.474000
22.501900 6.065700
22.520200 5.706000
22.538500 5.480600
22.556800 5.484500
22.575100 5.469800
22.593500 5.454600
22.611800 5.400300
22.630100 5.234600
22.648400 5.079100
22.666800 5.020700
22.685100 4.754600
22.703400 4.550900
22.721700 4.627800
22.740000 4.753700
22.758400 4.881800
22.776700 5.015500
22.795000 5.040400
22.813300 5.043300
22.831600 5.243700
22.850000 5.611200
22.868300 5.332000
22.886600 5.313500
22.904900 5.334200
22.923300 5.361100
22.941600 5.356100
22.959900 5.138800
22.978200 5.100100
22.996500 5.002400
23.014900 4.915100
23.033200 4.829500
23.051500 5.472300
23.069800 5.593200
23.088200 5.605200
23.106500 5.325900
23.124800 5.244700
23.143100 5.070500
23.161400 4.827000
23.179800 4.655500
23.198100 4.745900
23.216400 5.320200
23.234700 4.700200
23.253100 4.809300
23.271400 4.893600
23.289700 4.843000
23.308000 4.736900
23.326300 4.613200
23.344700 4.400100
23.363000 4.148700
23.381300 4.008800
23.399600 3.780500
23.418000 3.606100
23.436300 3.506400
23.454600 3.442100
23.472900 3.392500
23.491200 3.363200
23.509600 3.354700
23.527900 3.359200
23.546200 3.577200
23.564500 3.336600
23.582900 3.232500
23.601200 3.157500
23.619500 3.089400
23.637800 3.035200
23.656100 2.986600
23.674500 2.939800
23.692800 2.894700
23.711100 3.006800
23.729400 3.042700
23.747700 2.971400
23.766100 2.858700
23.784400 2.794600
23.802700 2.827800
23.821000 2.887500
23.839400 2.954800
23.857700 3.020100
23.876000 3.106600
23.894300 3.157200
23.912600 2.999600
23.931000 2.973300
23.949300 2.939900
23.967600 2.894400
23.985900 2.836700
24.004300 2.766600
24.022600 2.688400
24.040900 2.629800
24.059200 2.580400
24.077500 2.509200
24.095900 2.405900
24.114200 2.202900
24.132500 2.028500
24.150800 1.883800
24.169200 1.754000
24.187500 1.643900
24.205800 1.549100
24.224100 1.455200
24.242400 1.361300
24.260800 1.217600
24.279100 1.054900
24.297400 0.899700
24.315700 0.779900
24.334100 0.683900
24.352400 0.621200
24.370700 0.583300
24.389000 0.563300
24.407300 0.545200
24.425700 0.528400
24.444000 0.512400
24.462300 0.497100
24.480600 0.482600
24.499000 0.468200
24.517300 0.454500
24.535600 0.441600
24.553900 0.430400
24.572200 0.422600
24.590600 0.414600
24.608900 0.406300
24.627200 0.397600
24.645500 0.388600
24.663900 0.379400
24.682200 0.369800
24.700500 0.359800
24.718800 0.349600
24.737100 0.339100
24.755500 0.328100
24.773800 0.316600
24.792100 0.304900
24.810400 0.292900
24.828700 0.280700
24.847100 0.268300
24.865400 0.255600
24.883700 0.242600
24.902000 0.229800
24.920400 0.217200
24.938700 0.210900
24.957000 0.221300
24.975300 0.206200
24.993600 0.202400
25.012000 0.179500
25.030300 0.157900
25.048600 0.137400
25.066900 0.117900
25.085300 0.099600
25.103600 0.082300
25.121900 0.066100
25.140200 0.050900
25.158500 0.036800
25.176900 0.025700
25.195200 0.023600
25.213500 0.021500
25.231800 0.019600
25.250200 0.017700
25.268500 0.015900
25.286800 0.014200
25.305100 0.012500
25.323400 0.011000
25.341800 0.009500
25.360100 0.008100
25.378400 0.006800
25.396700 0.005600
25.415100 0.004400
25.433400 0.003400
25.451700 0.002500
25.470000 0.001700
25.488300 0.001100
25.506700 0.000600
25.525000 0.000300
25.543300 0.000100
25.561600 0.000000
25.580000 0.000000
25.598300 0.000000
25.616600 0.000000
25.634900 0.000000
25.653200 0.000000
25.671600 0.000000
25.689900 0.000000
25.708200 0.000000
25.726500 0.000000
25.744900 0.000000
25.763200 0.000000
25.781500 0.000000
25.799800 0.000000
25.818100 0.000000
25.836500 0.000000
25.854800 0.000000
25.873100 0.000000
25.891400 0.000000
25.909700 0.000000
25.928100 0.000000
25.946400 0.000000
25.964700 0.000000
25.983000 0.000000
26.001400 0.000000
26.019700 0.000000
26.038000 0.000000
26.056300 0.000000
26.074600 0.000000
26.093000 0.000000
26.111300 0.000000
26.129600 0.000000
26.147900 0.000000
26.166300 0.000000
26.184600 0.000000
26.202900 0.000000
26.221200 0.000000
26.239500 0.000000
26.257900 0.000000
26.276200 0.000000
26.294500 0.000000
26.312800 0.000000
26.331200 0.000000
26.349500 0.000000
26.367800 0.000000
26.386100 0.000000
26.404400 0.000000
26.422800 0.000000
26.441100 0.000000
26.459400 0.000000
26.477700 0.000000
26.496100 0.000000
26.514400 0.000000
26.532700 0.000000
26.551000 0.000000
26.569300 0.000000
26.587700 0.000000
26.606000 0.000000
26.624300 0.000000
26.642600 0.000000
26.661000 0.000000
26.679300 0.000000
26.697600 0.000000
26.715900 0.000000
26.734200 0.000000
26.752600 0.000000
26.770900 0.000000
26.789200 0.000000
26.807500 0.000000
26.825800 0.000000
26.844200 0.000000
26.862500 0.000000
26.880800 0.000000
26.899100 0.000000
26.917500 0.000000
26.935800 0.000000
26.954100 0.000000
26.972400 0.000000
26.990700 0.000000
27.009100 0.000000
27.027400 0.000000
27.045700 0.000000
27.064000 0.000000
27.082400 0.000000
27.100700 0.000000
27.119000 0.000000
27.137300 0.000000
27.155600 0.000000
27.174000 0.000000
27.192300 0.000000
27.210600 0.000000
27.228900 0.000000
e
