set title 'mp-998864 - Density of States'
set xlabel 'Energy (eV)'
set ylabel 'DOS (states/eV)'
set grid
set xrange [-10:10]
set yrange [0:2.699]
set xzeroaxis lt -1
set terminal png size 800,600
set output 'mp-998864_dos_gnuplot.png'
plot '-' using 1:2 with lines title 'DOS'
-20.567500 0.000000
-20.524000 0.000000
-20.480500 0.000000
-20.437000 0.000000
-20.393400 0.000000
-20.349900 0.000000
-20.306400 0.000000
-20.262900 0.000000
-20.219300 0.000000
-20.175800 0.000000
-20.132300 0.000000
-20.088800 0.000000
-20.045200 0.000000
-20.001700 0.000000
-19.958200 0.000000
-19.914700 0.000000
-19.871100 0.000000
-19.827600 0.000000
-19.784100 0.000000
-19.740600 0.000000
-19.697000 0.000000
-19.653500 0.000000
-19.610000 0.000000
-19.566500 0.000000
-19.523000 0.000000
-19.479400 0.000000
-19.435900 0.000000
-19.392400 0.000000
-19.348900 0.000000
-19.305300 0.000000
-19.261800 0.000000
-19.218300 0.000000
-19.174800 0.000000
-19.131200 0.000000
-19.087700 0.000000
-19.044200 0.000000
-19.000700 0.000000
-18.957100 0.000000
-18.913600 0.000000
-18.870100 0.000000
-18.826600 0.000000
-18.783000 0.000000
-18.739500 0.000000
-18.696000 0.000000
-18.652500 0.000000
-18.608900 0.000000
-18.565400 0.000000
-18.521900 0.000000
-18.478400 0.000000
-18.434800 0.000000
-18.391300 0.000000
-18.347800 0.000000
-18.304300 0.000000
-18.260700 0.000000
-18.217200 0.000000
-18.173700 0.000000
-18.130200 0.000000
-18.086600 0.000000
-18.043100 0.000000
-17.999600 0.000000
-17.956100 0.000000
-17.912500 0.000000
-17.869000 0.000000
-17.825500 0.000000
-17.782000 0.000000
-17.738400 0.000000
-17.694900 0.000000
-17.651400 0.000000
-17.607900 0.000000
-17.564300 0.000000
-17.520800 0.000000
-17.477300 0.000000
-17.433800 0.000000
-17.390200 0.000000
-17.346700 0.000000
-17.303200 0.000000
-17.259700 0.000000
-17.216100 0.000000
-17.172600 0.000000
-17.129100 0.000000
-17.085600 0.000000
-17.042000 0.000000
-16.998500 0.000000
-16.955000 0.000000
-16.911500 0.000000
-16.867900 0.000000
-16.824400 0.000000
-16.780900 0.000000
-16.737400 0.000000
-16.693800 0.000000
-16.650300 0.000000
-16.606800 0.026600
-16.563300 0.477600
-16.519700 1.205600
-16.476200 1.653500
-16.432700 2.307500
-16.389200 1.819100
-16.345700 1.181100
-16.302100 1.010100
-16.258600 1.010100
-16.215100 0.992200
-16.171600 0.927400
-16.128000 0.826300
-16.084500 0.734200
-16.041000 0.626000
-15.997500 0.626000
-15.953900 0.626000
-15.910400 0.626000
-15.866900 0.626000
-15.823400 0.626000
-15.779800 0.626000
-15.736300 0.608000
-15.692800 0.573600
-15.649300 0.537100
-15.605700 0.483800
-15.562200 0.477300
-15.518700 0.477300
-15.475200 0.477300
-15.431600 0.477300
-15.388100 0.477300
-15.344600 0.477300
-15.301100 0.477300
-15.257500 0.477300
-15.214000 0.477300
-15.170500 0.477300
-15.127000 0.469000
-15.083400 0.455300
-15.039900 0.443000
-14.996400 0.425600
-14.952900 0.425600
-14.909300 0.425600
-14.865800 0.425600
-14.822300 0.425600
-14.778800 0.425600
-14.735200 0.425600
-14.691700 0.425600
-14.648200 0.425600
-14.604700 0.425600
-14.561100 0.425600
-14.517600 0.425600
-14.474100 0.428800
-14.430600 0.441900
-14.387000 0.457000
-14.343500 0.474600
-14.300000 0.481700
-14.256500 0.481700
-14.212900 0.481700
-14.169400 0.481700
-14.125900 0.481700
-14.082400 0.481700
-14.038800 0.481700
-13.995300 0.481700
-13.951800 0.481700
-13.908300 0.481700
-13.864700 0.542100
-13.821200 0.749000
-13.777700 0.908400
-13.734200 1.124400
-13.690600 1.124500
-13.647100 1.124500
-13.603600 0.944300
-13.560100 0.604700
-13.516500 0.322800
-13.473000 0.000000
-13.429500 0.000000
-13.386000 0.000000
-13.342500 0.000000
-13.298900 0.000000
-13.255400 0.000000
-13.211900 0.000000
-13.168400 0.000000
-13.124800 0.000000
-13.081300 0.000000
-13.037800 0.000000
-12.994300 0.000000
-12.950700 0.000000
-12.907200 0.000000
-12.863700 0.000000
-12.820200 0.000000
-12.776600 0.000000
-12.733100 0.000000
-12.689600 0.000000
-12.646100 0.000000
-12.602500 0.000000
-12.559000 0.000000
-12.515500 0.000000
-12.472000 0.000000
-12.428400 0.000000
-12.384900 0.000000
-12.341400 0.000000
-12.297900 0.000000
-12.254300 0.000000
-12.210800 0.000000
-12.167300 0.000000
-12.123800 0.000000
-12.080200 0.000000
-12.036700 0.000000
-11.993200 0.000000
-11.949700 0.000000
-11.906100 0.000000
-11.862600 0.000000
-11.819100 0.000000
-11.775600 0.000000
-11.732000 0.000000
-11.688500 0.000000
-11.645000 0.000000
-11.601500 0.000000
-11.557900 0.000000
-11.514400 0.000000
-11.470900 0.000000
-11.427400 0.000000
-11.383800 0.000000
-11.340300 0.000000
-11.296800 0.000000
-11.253300 0.000000
-11.209700 0.000000
-11.166200 0.000000
-11.122700 0.000000
-11.079200 0.000000
-11.035600 0.000000
-10.992100 0.000000
-10.948600 0.000000
-10.905100 0.000000
-10.861500 0.000000
-10.818000 0.000000
-10.774500 0.000000
-10.731000 0.000000
-10.687400 0.000000
-10.643900 0.000000
-10.600400 0.000000
-10.556900 0.000000
-10.513300 0.000000
-10.469800 0.000000
-10.426300 0.000000
-10.382800 0.000000
-10.339300 0.000000
-10.295700 0.000000
-10.252200 0.000000
-10.208700 0.000000
-10.165200 0.000000
-10.121600 0.000000
-10.078100 0.000000
-10.034600 0.000000
-9.991100 0.000000
-9.947500 0.000000
-9.904000 0.000000
-9.860500 0.000000
-9.817000 0.000000
-9.773400 0.000000
-9.729900 0.000000
-9.686400 0.000000
-9.642900 0.000000
-9.599300 0.000000
-9.555800 0.000000
-9.512300 0.000000
-9.468800 0.000000
-9.425200 0.000000
-9.381700 0.000000
-9.338200 0.000000
-9.294700 0.000000
-9.251100 0.000000
-9.207600 0.000000
-9.164100 0.000000
-9.120600 0.000000
-9.077000 0.000000
-9.033500 0.000000
-8.990000 0.000000
-8.946500 0.000000
-8.902900 0.000000
-8.859400 0.000000
-8.815900 0.000000
-8.772400 0.000000
-8.728800 0.000000
-8.685300 0.000000
-8.641800 0.000000
-8.598300 0.000000
-8.554700 0.000000
-8.511200 0.000000
-8.467700 0.000000
-8.424200 0.000000
-8.380600 0.000000
-8.337100 0.000000
-8.293600 0.000000
-8.250100 0.000000
-8.206500 0.000000
-8.163000 0.000000
-8.119500 0.000000
-8.076000 0.000000
-8.032400 0.000000
-7.988900 0.000000
-7.945400 0.000000
-7.901900 0.000000
-7.858300 0.000000
-7.814800 0.000000
-7.771300 0.000000
-7.727800 0.000000
-7.684200 0.000000
-7.640700 0.000000
-7.597200 0.000000
-7.553700 0.000000
-7.510100 0.000000
-7.466600 0.000000
-7.423100 0.000000
-7.379600 0.000000
-7.336000 0.000000
-7.292500 0.000000
-7.249000 0.000000
-7.205500 0.000000
-7.162000 0.000000
-7.118400 0.000000
-7.074900 0.000000
-7.031400 0.000000
-6.987900 0.147900
-6.944300 0.287800
-6.900800 0.412800
-6.857300 0.615100
-6.813800 0.615100
-6.770200 0.615100
-6.726700 0.615100
-6.683200 0.615100
-6.639700 0.615100
-6.596100 0.615100
-6.552600 0.606100
-6.509100 0.494800
-6.465600 0.413300
-6.422000 0.327900
-6.378500 0.234600
-6.335000 0.234600
-6.291500 0.234600
-6.247900 0.234600
-6.204400 0.234600
-6.160900 0.234600
-6.117400 0.234600
-6.073800 0.234600
-6.030300 0.234600
-5.986800 0.234600
-5.943300 0.234600
-5.899700 0.234600
-5.856200 0.234600
-5.812700 0.234600
-5.769200 0.234600
-5.725600 0.234600
-5.682100 0.234600
-5.638600 0.234600
-5.595100 0.234600
-5.551500 0.234600
-5.508000 0.234600
-5.464500 0.234600
-5.421000 0.234600
-5.377400 0.234600
-5.333900 0.231300
-5.290400 0.215400
-5.246900 0.199800
-5.203300 0.184200
-5.159800 0.169100
-5.116300 0.169100
-5.072800 0.169100
-5.029200 0.169100
-4.985700 0.169100
-4.942200 0.169100
-4.898700 0.169100
-4.855100 0.169100
-4.811600 0.169100
-4.768100 0.169100
-4.724600 0.169100
-4.681000 0.169100
-4.637500 0.169100
-4.594000 0.169100
-4.550500 0.169100
-4.506900 0.226600
-4.463400 0.430400
-4.419900 0.632500
-4.376400 0.638300
-4.332800 0.608200
-4.289300 0.663100
-4.245800 0.757700
-4.202300 0.831600
-4.158800 0.884400
-4.115200 0.945200
-4.071700 1.041900
-4.028200 1.032200
-3.984700 0.970800
-3.941100 0.959600
-3.897600 0.983700
-3.854100 1.016700
-3.810600 1.042700
-3.767000 1.080200
-3.723500 1.118200
-3.680000 1.219800
-3.636500 1.482900
-3.592900 1.796600
-3.549400 2.228900
-3.505900 2.453900
-3.462400 1.958500
-3.418800 1.907500
-3.375300 1.779900
-3.331800 1.692800
-3.288300 1.619400
-3.244700 1.562800
-3.201200 1.424700
-3.157700 1.314100
-3.114200 1.414300
-3.070600 1.605400
-3.027100 1.655100
-2.983600 1.684800
-2.940100 1.594300
-2.896500 1.493200
-2.853000 1.466200
-2.809500 1.448900
-2.766000 1.361900
-2.722400 1.202100
-2.678900 1.092900
-2.635400 1.027000
-2.591900 0.914200
-2.548300 0.868600
-2.504800 0.859800
-2.461300 0.859100
-2.417800 0.849100
-2.374200 0.839400
-2.330700 0.850000
-2.287200 0.889600
-2.243700 0.968000
-2.200100 1.045600
-2.156600 1.114000
-2.113100 1.185100
-2.069600 1.236900
-2.026000 1.334800
-1.982500 1.471000
-1.939000 1.567000
-1.895500 1.698500
-1.851900 1.834400
-1.808400 1.858700
-1.764900 1.817200
-1.721400 1.806500
-1.677800 1.785400
-1.634300 1.658100
-1.590800 1.504100
-1.547300 1.429400
-1.503700 1.375200
-1.460200 1.392200
-1.416700 1.453900
-1.373200 1.590500
-1.329600 1.968500
-1.286100 1.815000
-1.242600 1.739300
-1.199100 1.197700
-1.155600 0.548700
-1.112000 0.522100
-1.068500 0.509600
-1.025000 0.497200
-0.981500 0.500500
-0.937900 0.528200
-0.894400 0.498200
-0.850900 0.429800
-0.807400 0.289000
-0.763800 0.138400
-0.720300 0.138400
-0.676800 0.138400
-0.633300 0.138400
-0.589700 0.138400
-0.546200 0.138400
-0.502700 0.138400
-0.459200 0.138400
-0.415600 0.138400
-0.372100 0.138400
-0.328600 0.138400
-0.285100 0.138400
-0.241500 0.138400
-0.198000 0.138400
-0.154500 0.138400
-0.111000 0.138400
-0.067400 0.138400
-0.023900 0.138400
0.019600 0.138400
0.063100 0.138400
0.106700 0.138400
0.150200 0.138400
0.193700 0.138400
0.237200 0.138400
0.280800 0.138400
0.324300 0.138400
0.367800 0.138400
0.411300 0.139800
0.454900 0.144800
0.498400 0.150100
0.541900 0.155800
0.585400 0.155800
0.629000 0.155800
0.672500 0.155800
0.716000 0.155800
0.759500 0.155800
0.803100 0.155800
0.846600 0.155800
0.890100 0.155800
0.933600 0.155800
0.977200 0.155800
1.020700 0.155800
1.064200 0.155800
1.107700 0.155800
1.151300 0.155800
1.194800 0.155800
1.238300 0.155800
1.281800 0.155800
1.325400 0.155800
1.368900 0.155800
1.412400 0.155800
1.455900 0.155800
1.499500 0.155800
1.543000 0.155800
1.586500 0.155800
1.630000 0.155800
1.673600 0.155800
1.717100 0.155800
1.760600 0.155800
1.804100 0.155800
1.847700 0.155800
1.891200 0.155800
1.934700 0.155800
1.978200 0.155800
2.021700 0.155800
2.065300 0.155800
2.108800 0.155800
2.152300 0.155800
2.195800 0.155800
2.239400 0.155800
2.282900 0.203800
2.326400 0.279900
2.369900 0.341000
2.413500 0.341000
2.457000 0.341000
2.500500 0.341000
2.544000 0.341000
2.587600 0.341000
2.631100 0.341000
2.674600 0.341000
2.718100 0.341000
2.761700 0.341000
2.805200 0.341000
2.848700 0.341000
2.892200 0.341000
2.935800 0.341000
2.979300 0.341100
3.022800 0.341100
3.066300 0.341100
3.109900 0.298300
3.153400 0.138200
3.196900 0.000000
3.240400 0.000000
3.284000 0.000000
3.327500 0.000000
3.371000 0.000000
3.414500 0.000000
3.458100 0.000000
3.501600 0.000000
3.545100 0.000000
3.588600 0.000000
3.632200 0.000000
3.675700 0.000000
3.719200 0.000000
3.762700 0.000000
3.806300 0.000000
3.849800 0.000000
3.893300 0.000000
3.936800 0.000000
3.980400 0.008500
4.023900 0.019200
4.067400 0.030600
4.110900 0.041400
4.154500 0.049100
4.198000 0.047900
4.241500 0.053100
4.285000 0.058800
4.328600 0.064800
4.372100 0.071200
4.415600 0.077500
4.459100 0.081900
4.502700 0.085400
4.546200 0.089000
4.589700 0.092900
4.633200 0.096800
4.676800 0.101100
4.720300 0.105700
4.763800 0.110500
4.807300 0.115500
4.850900 0.120700
4.894400 0.126100
4.937900 0.131800
4.981400 0.136800
5.024900 0.141600
5.068500 0.146400
5.112000 0.151800
5.155500 0.157700
5.199000 0.163700
5.242600 0.170100
5.286100 0.177000
5.329600 0.184300
5.373100 0.192400
5.416700 0.201200
5.460200 0.210500
5.503700 0.239100
5.547200 0.313800
5.590800 0.396300
5.634300 0.459700
5.677800 0.477400
5.721300 0.482400
5.764900 0.484100
5.808400 0.499100
5.851900 0.512200
5.895400 0.532500
5.939000 0.542800
5.982500 0.541500
6.026000 0.534400
6.069500 0.524500
6.113100 0.523000
6.156600 0.521400
6.200100 0.539100
6.243600 0.573800
6.287200 0.614000
6.330700 0.646100
6.374200 0.668800
6.417700 0.693100
6.461300 0.717600
6.504800 0.741000
6.548300 0.750900
6.591800 0.748800
6.635400 0.751900
6.678900 0.726000
6.722400 0.718800
6.765900 0.711600
6.809500 0.709600
6.853000 0.737000
6.896500 0.782800
6.940000 0.842200
6.983600 0.916300
7.027100 1.002200
7.070600 1.112900
7.114100 1.171400
7.157700 1.207200
7.201200 1.258700
7.244700 1.323200
7.288200 1.342900
7.331800 1.367500
7.375300 1.337600
7.418800 1.418400
7.462300 1.478400
7.505900 1.533400
7.549400 1.514500
7.592900 1.521000
7.636400 1.512800
7.680000 1.504800
7.723500 1.498200
7.767000 1.503600
7.810500 1.499900
7.854100 1.468800
7.897600 1.424300
7.941100 1.391500
7.984600 1.373200
8.028100 1.349800
8.071700 1.341800
8.115200 1.319500
8.158700 1.328900
8.202200 1.270800
8.245800 1.252200
8.289300 1.224800
8.332800 1.207100
8.376300 1.205500
8.419900 1.209400
8.463400 1.215300
8.506900 1.245600
8.550400 1.313000
8.594000 1.416200
8.637500 1.471300
8.681000 1.554300
8.724500 1.485600
8.768100 1.382900
8.811600 1.324600
8.855100 1.259500
8.898600 1.139800
8.942200 1.001600
8.985700 0.936500
9.029200 0.897200
9.072700 0.747900
9.116300 0.678700
9.159800 0.631600
9.203300 0.603900
9.246800 0.588500
9.290400 0.569800
9.333900 0.545100
9.377400 0.530600
9.420900 0.515200
9.464500 0.489600
9.508000 0.486900
9.551500 0.452800
9.595000 0.377000
9.638600 0.429900
9.682100 0.495500
9.725600 0.542200
9.769100 0.592900
9.812700 0.596700
9.856200 0.610900
9.899700 0.624600
9.943200 0.636900
9.986800 0.646000
10.030300 0.657200
10.073800 0.670200
10.117300 0.693200
10.160900 0.731000
10.204400 0.762200
10.247900 0.789400
10.291400 0.864100
10.335000 0.846500
10.378500 0.850700
10.422000 0.857700
10.465500 0.823100
10.509100 0.793900
10.552600 0.790400
10.596100 0.800800
10.639600 0.819000
10.683200 0.803100
10.726700 0.845900
10.770200 0.883000
10.813700 0.894200
10.857300 0.910800
10.900800 0.931100
10.944300 0.954600
10.987800 0.989900
11.031400 1.007400
11.074900 1.022500
11.118400 1.038700
11.161900 1.057100
11.205400 1.080900
11.249000 1.131600
11.292500 1.101000
11.336000 1.070400
11.379500 1.053100
11.423100 1.052800
11.466600 1.061600
11.510100 1.061400
11.553600 1.080100
11.597200 1.108600
11.640700 1.160000
11.684200 1.223700
11.727700 1.236900
11.771300 1.249300
11.814800 1.225600
11.858300 1.198100
11.901800 1.192200
11.945400 1.199000
11.988900 1.228900
12.032400 1.266500
12.075900 1.338200
12.119500 1.419200
12.163000 1.450000
12.206500 1.456900
12.250000 1.414000
12.293600 1.378100
12.337100 1.316700
12.380600 1.253800
12.424100 1.226000
12.467700 1.237100
12.511200 1.283400
12.554700 1.284800
12.598200 1.246400
12.641800 1.214400
12.685300 1.184600
12.728800 1.169800
12.772300 1.171300
12.815900 1.177400
12.859400 1.186400
12.902900 1.219400
12.946400 1.295900
12.990000 1.435300
13.033500 1.465600
13.077000 1.491700
13.120500 1.471600
13.164100 1.422800
13.207600 1.435800
13.251100 1.511300
13.294600 1.573800
13.338200 1.602400
13.381700 1.613300
13.425200 1.612000
13.468700 1.607500
13.512300 1.586000
13.555800 1.542200
13.599300 1.470400
13.642800 1.416300
13.686400 1.388000
13.729900 1.380500
13.773400 1.375100
13.816900 1.338800
13.860500 1.270200
13.904000 1.233700
13.947500 1.264900
13.991000 1.293600
14.034600 1.265900
14.078100 1.256000
14.121600 1.214700
14.165100 1.186700
14.208600 1.157200
14.252200 1.145500
14.295700 1.124800
14.339200 1.156700
14.382700 1.167400
14.426300 1.170800
14.469800 1.177500
14.513300 1.185800
14.556800 1.201900
14.600400 1.223900
14.643900 1.267500
14.687400 1.262100
14.730900 1.246000
14.774500 1.245300
14.818000 1.234500
14.861500 1.220800
14.905000 1.217800
14.948600 1.190900
14.992100 1.107700
15.035600 1.016000
15.079100 0.942400
15.122700 0.901300
15.166200 0.932700
15.209700 0.965000
15.253200 1.001000
15.296800 1.018900
15.340300 1.088700
15.383800 1.149700
15.427300 1.102400
15.470900 1.109700
15.514400 1.132500
15.557900 1.149500
15.601400 1.177400
15.645000 1.211100
15.688500 1.249500
15.732000 1.272000
15.775500 1.326500
15.819100 1.396000
15.862600 1.524800
15.906100 1.631600
15.949600 1.639900
15.993200 1.573800
16.036700 1.509700
16.080200 1.450000
16.123700 1.376900
16.167300 1.303400
16.210800 1.242500
16.254300 1.189000
16.297800 1.143300
16.341400 1.144800
16.384900 1.150600
16.428400 1.094300
16.471900 1.058000
16.515500 1.036700
16.559000 1.026900
16.602500 1.023600
16.646000 1.029900
16.689600 1.044200
16.733100 1.045600
16.776600 1.056300
16.820100 1.105800
16.863700 1.126900
16.907200 1.132500
16.950700 1.190500
16.994200 1.218900
17.037800 1.224600
17.081300 1.285000
17.124800 1.267500
17.168300 1.233800
17.211800 1.185300
17.255400 1.190200
17.298900 1.182900
17.342400 1.173500
17.385900 1.186900
17.429500 1.215000
17.473000 1.238900
17.516500 1.268500
17.560000 1.318500
17.603600 1.369400
17.647100 1.417600
17.690600 1.456600
17.734100 1.476900
17.777700 1.495800
17.821200 1.524600
17.864700 1.541200
17.908200 1.560300
17.951800 1.562700
17.995300 1.554800
18.038800 1.565400
18.082300 1.584500
18.125900 1.603800
18.169400 1.605800
18.212900 1.611500
18.256400 1.576700
18.300000 1.535200
18.343500 1.499900
18.387000 1.458700
18.430500 1.436600
18.474100 1.388200
18.517600 1.372800
18.561100 1.379200
18.604600 1.375100
18.648200 1.355300
18.691700 1.336200
18.735200 1.328100
18.778700 1.341100
18.822300 1.349700
18.865800 1.355600
18.909300 1.338300
18.952800 1.305200
18.996400 1.276800
19.039900 1.230800
19.083400 1.218200
19.126900 1.146500
19.170500 1.120500
19.214000 1.093500
19.257500 1.063000
19.301000 1.043200
19.344600 1.029400
19.388100 1.013500
19.431600 1.008400
19.475100 1.011600
19.518700 1.020400
19.562200 1.037300
19.605700 1.058000
19.649200 1.069100
19.692800 1.056500
19.736300 1.057500
19.779800 1.065200
19.823300 1.068900
19.866900 1.075500
19.910400 1.121100
19.953900 1.149500
19.997400 1.193900
20.041000 1.189500
20.084500 1.221000
20.128000 1.254500
20.171500 1.271800
20.215100 1.304200
20.258600 1.426700
20.302100 1.526700
20.345600 1.597300
20.389100 1.645300
20.432700 1.676900
20.476200 1.694400
20.519700 1.707200
20.563200 1.655800
20.606800 1.633800
20.650300 1.584900
20.693800 1.535300
20.737300 1.492300
20.780900 1.499600
20.824400 1.427100
20.867900 1.366400
20.911400 1.285000
20.955000 1.210000
20.998500 1.173800
21.042000 1.163400
21.085500 1.150100
21.129100 1.133400
21.172600 1.128600
21.216100 1.147600
21.259600 1.167600
21.303200 1.152400
21.346700 1.144900
21.390200 1.167600
21.433700 1.185200
21.477300 1.199000
21.520800 1.205800
21.564300 1.210000
21.607800 1.207600
21.651400 1.223500
21.694900 1.235900
21.738400 1.251300
21.781900 1.275100
21.825500 1.288600
21.869000 1.249800
21.912500 1.229100
21.956000 1.231100
21.999600 1.243300
22.043100 1.270100
22.086600 1.295600
22.130100 1.323100
22.173700 1.342600
22.217200 1.338400
22.260700 1.327300
22.304200 1.310100
22.347800 1.299900
22.391300 1.294500
22.434800 1.314900
22.478300 1.336800
22.521900 1.355200
22.565400 1.360100
22.608900 1.376400
22.652400 1.386100
22.696000 1.411100
22.739500 1.421700
22.783000 1.423700
22.826500 1.443500
22.870100 1.451200
22.913600 1.430900
22.957100 1.417600
23.000600 1.445200
23.044200 1.489600
23.087700 1.519000
23.131200 1.516400
23.174700 1.503800
23.218300 1.498200
23.261800 1.472900
23.305300 1.448100
23.348800 1.419700
23.392300 1.399100
23.435900 1.379500
23.479400 1.374100
23.522900 1.377600
23.566400 1.364800
23.610000 1.364300
23.653500 1.388100
23.697000 1.388900
23.740500 1.391100
23.784100 1.386300
23.827600 1.424400
23.871100 1.435100
23.914600 1.469300
23.958200 1.477900
24.001700 1.502100
24.045200 1.570500
24.088700 1.547100
24.132300 1.584700
24.175800 1.532000
24.219300 1.508100
24.262800 1.474000
24.306400 1.461400
24.349900 1.426300
24.393400 1.398700
24.436900 1.392500
24.480500 1.395700
24.524000 1.420300
24.567500 1.437900
24.611000 1.453800
24.654600 1.457900
24.698100 1.455000
24.741600 1.464200
24.785100 1.457800
24.828700 1.456600
24.872200 1.461600
24.915700 1.463800
24.959200 1.492100
25.002800 1.491300
25.046300 1.544600
25.089800 1.594900
25.133300 1.610500
25.176900 1.580600
25.220400 1.582200
25.263900 1.606800
25.307400 1.585400
25.351000 1.565900
25.394500 1.571400
25.438000 1.587300
25.481500 1.575300
25.525100 1.595200
25.568600 1.635200
25.612100 1.676800
25.655600 1.677000
25.699200 1.702300
25.742700 1.727900
25.786200 1.738000
25.829700 1.758200
25.873300 1.746300
25.916800 1.692400
25.960300 1.634900
26.003800 1.535900
26.047400 1.513700
26.090900 1.523700
26.134400 1.537800
26.177900 1.483900
26.221500 1.485900
26.265000 1.490100
26.308500 1.512500
26.352000 1.564100
26.395500 1.599700
26.439100 1.566500
26.482600 1.525900
26.526100 1.497000
26.569600 1.476400
26.613200 1.443700
26.656700 1.380100
26.700200 1.332600
26.743700 1.313500
26.787300 1.307900
26.830800 1.313200
26.874300 1.309300
26.917800 1.305200
26.961400 1.374900
27.004900 1.312000
27.048400 1.326000
27.091900 1.312800
27.135500 1.316000
27.179000 1.335400
27.222500 1.355300
27.266000 1.375600
27.309600 1.400800
27.353100 1.421900
27.396600 1.438900
27.440100 1.480500
27.483700 1.522600
27.527200 1.560200
27.570700 1.593200
27.614200 1.596100
27.657800 1.589000
27.701300 1.580500
27.744800 1.561700
27.788300 1.547000
27.831900 1.531800
27.875400 1.524400
27.918900 1.511400
27.962400 1.488600
28.006000 1.481600
28.049500 1.515900
28.093000 1.535800
28.136500 1.534500
28.180100 1.542800
28.223600 1.538600
28.267100 1.543700
28.310600 1.553600
28.354200 1.567200
28.397700 1.585800
28.441200 1.589700
28.484700 1.667900
28.528300 1.745700
28.571800 1.752600
28.615300 1.743800
28.658800 1.714100
28.702400 1.685100
28.745900 1.661100
28.789400 1.625600
28.832900 1.592200
28.876500 1.573400
28.920000 1.565600
28.963500 1.622100
29.007000 1.642500
29.050600 1.626300
29.094100 1.616600
29.137600 1.629400
29.181100 1.625600
29.224700 1.563300
29.268200 1.536300
29.311700 1.518500
29.355200 1.517900
29.398800 1.508000
29.442300 1.489700
29.485800 1.489200
29.529300 1.473500
29.572800 1.487700
29.616400 1.499300
29.659900 1.493700
29.703400 1.496400
29.746900 1.506500
29.790500 1.513700
29.834000 1.522900
29.877500 1.529200
29.921000 1.534200
29.964600 1.530900
30.008100 1.532200
30.051600 1.533300
30.095100 1.541100
30.138700 1.558400
30.182200 1.585500
30.225700 1.615500
30.269200 1.646800
30.312800 1.650100
30.356300 1.575000
30.399800 1.546800
30.443300 1.529200
30.486900 1.518800
30.530400 1.503400
30.573900 1.496600
30.617400 1.496900
30.661000 1.501100
30.704500 1.515000
30.748000 1.561500
30.791500 1.603500
30.835100 1.632400
30.878600 1.666000
30.922100 1.686700
30.965600 1.732800
31.009200 1.746100
31.052700 1.758600
31.096200 1.742900
31.139700 1.713400
31.183300 1.690100
31.226800 1.601100
31.270300 1.540700
31.313800 1.522200
31.357400 1.525800
31.400900 1.559200
31.444400 1.604500
31.487900 1.607400
31.531500 1.539400
31.575000 1.554400
31.618500 1.593700
31.662000 1.641300
31.705600 1.669700
31.749100 1.689300
31.792600 1.694600
31.836100 1.650400
31.879700 1.634400
31.923200 1.646700
31.966700 1.645700
32.010200 1.659900
32.053800 1.698000
32.097300 1.730100
32.140800 1.743300
32.184300 1.755600
32.227900 1.762100
32.271400 1.767700
32.314900 1.780300
32.358400 1.780100
32.402000 1.761300
32.445500 1.743900
32.489000 1.727700
32.532500 1.724300
32.576000 1.746600
32.619600 1.736300
32.663100 1.725400
32.706600 1.695600
32.750100 1.677300
32.793700 1.657700
32.837200 1.635000
32.880700 1.611500
32.924200 1.592700
32.967800 1.594000
33.011300 1.590300
33.054800 1.591400
33.098300 1.600800
33.141900 1.626100
33.185400 1.661200
33.228900 1.713400
33.272400 1.757700
33.316000 1.763700
33.359500 1.769000
33.403000 1.752600
33.446500 1.724600
33.490100 1.688500
33.533600 1.648900
33.577100 1.623400
33.620600 1.588900
33.664200 1.556200
33.707700 1.520500
33.751200 1.493000
33.794700 1.496000
33.838300 1.520000
33.881800 1.543500
33.925300 1.569500
33.968800 1.582700
34.012400 1.576500
34.055900 1.588100
34.099400 1.595200
34.142900 1.603200
34.186500 1.597800
34.230000 1.589900
34.273500 1.586800
34.317000 1.589600
34.360600 1.595400
34.404100 1.597300
34.447600 1.595900
34.491100 1.584600
34.534700 1.592100
34.578200 1.617000
34.621700 1.632000
34.665200 1.669100
34.708800 1.674800
34.752300 1.683100
34.795800 1.696700
34.839300 1.684300
34.882900 1.671700
34.926400 1.668400
34.969900 1.677400
35.013400 1.670800
35.057000 1.680400
35.100500 1.699100
35.144000 1.713800
35.187500 1.733500
35.231100 1.761200
35.274600 1.786400
35.318100 1.824900
35.361600 1.871600
35.405200 1.876700
35.448700 1.893200
35.492200 1.931800
35.535700 1.999500
35.579200 2.102900
35.622800 2.184600
35.666300 2.220500
35.709800 2.209400
35.753300 2.099700
35.796900 1.965200
35.840400 1.890600
35.883900 1.841100
35.927400 1.789800
35.971000 1.751600
36.014500 1.729400
36.058000 1.716900
36.101500 1.682900
36.145100 1.655600
36.188600 1.646200
36.232100 1.636600
36.275600 1.622500
36.319200 1.635400
36.362700 1.623600
36.406200 1.636800
36.449700 1.682800
36.493300 1.709100
36.536800 1.746300
36.580300 1.801200
36.623800 1.837500
36.667400 1.882500
36.710900 1.869400
36.754400 1.874200
36.797900 1.880600
36.841500 1.862900
36.885000 1.823000
36.928500 1.768300
36.972000 1.721300
37.015600 1.691000
37.059100 1.649000
37.102600 1.628800
37.146100 1.617900
37.189700 1.609600
37.233200 1.590900
37.276700 1.568500
37.320200 1.565500
37.363800 1.553300
37.407300 1.581400
37.450800 1.624500
37.494300 1.642700
37.537900 1.660000
37.581400 1.681200
37.624900 1.724900
37.668400 1.765800
37.712000 1.802800
37.755500 1.789100
37.799000 1.735400
37.842500 1.724400
37.886100 1.756600
37.929600 1.762600
37.973100 1.764400
38.016600 1.747800
38.060200 1.735000
38.103700 1.720700
38.147200 1.690900
38.190700 1.669400
38.234300 1.660700
38.277800 1.667000
38.321300 1.685400
38.364800 1.720700
38.408400 1.781000
38.451900 1.821600
38.495400 1.854800
38.538900 1.868400
38.582400 1.856800
38.626000 1.855100
38.669500 1.859600
38.713000 1.852000
38.756500 1.825100
38.800100 1.824300
38.843600 1.838100
38.887100 1.852700
38.930600 1.863300
38.974200 1.849900
39.017700 1.827100
39.061200 1.820700
39.104700 1.832500
39.148300 1.880000
39.191800 1.902300
39.235300 1.903900
39.278800 1.924400
39.322400 1.964200
39.365900 2.007400
39.409400 1.989300
39.452900 1.988100
39.496500 1.954600
39.540000 1.913100
39.583500 1.870000
39.627000 1.828900
39.670600 1.800800
39.714100 1.809500
39.757600 1.831800
39.801100 1.854300
39.844700 1.869300
39.888200 1.891000
39.931700 1.891600
39.975200 1.879700
40.018800 1.861100
40.062300 1.829900
40.105800 1.811700
40.149300 1.822400
40.192900 1.832800
40.236400 1.843500
40.279900 1.877000
40.323400 1.888600
40.367000 1.935900
40.410500 1.929000
40.454000 1.921400
40.497500 1.922500
40.541100 1.908600
40.584600 1.889200
40.628100 1.848000
40.671600 1.781300
40.715200 1.767500
40.758700 1.754100
40.802200 1.725000
40.845700 1.701000
40.889300 1.682900
40.932800 1.691100
40.976300 1.693800
41.019800 1.707100
41.063400 1.722100
41.106900 1.743200
41.150400 1.755800
41.193900 1.761100
41.237500 1.773800
41.281000 1.791700
41.324500 1.762000
41.368000 1.771900
41.411600 1.806100
41.455100 1.837600
41.498600 1.883900
41.542100 1.925000
41.585700 1.868300
41.629200 1.867300
41.672700 1.871100
41.716200 1.861800
41.759700 1.848900
41.803300 1.818800
41.846800 1.798200
41.890300 1.758100
41.933800 1.742300
41.977400 1.740400
42.020900 1.722400
42.064400 1.712900
42.107900 1.693900
42.151500 1.680100
42.195000 1.673200
42.238500 1.676400
42.282000 1.687100
42.325600 1.707000
42.369100 1.721100
42.412600 1.720500
42.456100 1.736500
42.499700 1.755800
42.543200 1.771400
42.586700 1.776900
42.630200 1.778800
42.673800 1.792500
42.717300 1.819000
42.760800 1.861900
42.804300 1.926400
42.847900 1.943900
42.891400 1.927500
42.934900 1.886100
42.978400 1.868300
43.022000 1.859700
43.065500 1.859300
43.109000 1.871100
43.152500 1.882100
43.196100 1.887700
43.239600 1.907100
43.283100 1.915700
43.326600 1.915500
43.370200 1.930900
43.413700 1.944000
43.457200 1.946200
43.500700 1.948600
43.544300 1.965000
43.587800 1.977200
43.631300 1.974300
43.674800 1.964300
43.718400 1.957500
43.761900 2.001700
43.805400 1.946600
43.848900 1.864800
43.892500 1.771700
43.936000 1.730800
43.979500 1.710700
44.023000 1.710700
44.066600 1.724200
44.110100 1.768100
44.153600 1.796800
44.197100 1.810300
44.240700 1.823000
44.284200 1.853800
44.327700 1.889000
44.371200 1.925300
44.414800 1.960800
44.458300 1.973300
44.501800 1.988600
44.545300 1.969400
44.588900 1.962400
44.632400 1.952500
44.675900 1.944000
44.719400 1.935200
44.762900 1.933400
44.806500 1.965400
44.850000 2.013600
44.893500 2.042300
44.937000 2.069700
44.980600 2.053400
45.024100 1.923200
45.067600 1.890900
45.111100 1.881200
45.154700 1.870700
45.198200 1.847600
45.241700 1.836000
45.285200 1.839500
45.328800 1.821400
45.372300 1.835400
45.415800 1.829300
45.459300 1.824900
45.502900 1.865600
45.546400 1.846300
45.589900 1.847500
45.633400 1.861900
45.677000 1.880300
45.720500 1.898000
45.764000 1.919400
45.807500 1.935800
45.851100 2.007700
45.894600 2.034400
45.938100 2.048200
45.981600 2.041300
46.025200 1.990200
46.068700 1.947300
46.112200 1.924900
46.155700 1.921400
46.199300 1.928600
46.242800 1.979100
46.286300 1.998500
46.329800 2.024100
46.373400 2.058100
46.416900 2.087300
46.460400 2.078800
46.503900 2.097400
46.547500 2.065200
46.591000 2.033900
46.634500 1.987500
46.678000 1.952700
46.721600 1.931100
46.765100 1.931100
46.808600 1.916600
46.852100 1.902800
46.895700 1.895800
46.939200 1.887800
46.982700 1.875200
47.026200 1.865400
47.069800 1.862900
47.113300 1.874800
47.156800 1.890100
47.200300 1.896400
47.243900 1.901400
47.287400 1.926500
47.330900 1.941800
47.374400 1.962000
47.418000 1.911500
47.461500 1.873000
47.505000 1.875400
47.548500 1.905300
47.592100 1.881400
47.635600 1.872300
47.679100 1.892800
47.722600 1.899900
47.766100 1.908400
47.809700 1.914300
47.853200 1.915500
47.896700 1.913300
47.940200 1.928100
47.983800 1.937600
48.027300 1.948000
48.070800 1.968600
48.114300 1.997600
48.157900 2.021900
48.201400 1.982000
48.244900 1.969500
48.288400 1.958300
48.332000 1.964900
48.375500 2.009500
48.419000 2.060200
48.462500 2.122400
48.506100 2.110100
48.549600 2.098100
48.593100 2.084400
48.636600 2.085200
48.680200 2.053900
48.723700 2.067200
48.767200 2.103300
48.810700 2.086900
48.854300 2.060500
48.897800 2.055200
48.941300 2.034500
48.984800 2.015100
49.028400 2.000300
49.071900 1.966500
49.115400 1.969200
49.158900 1.987500
49.202500 1.982100
49.246000 1.999300
49.289500 2.003200
49.333000 1.987500
49.376600 1.978700
49.420100 1.996700
49.463600 2.021900
49.507100 2.015000
49.550700 1.974800
49.594200 1.941900
49.637700 1.907900
49.681200 1.882100
49.724800 1.862500
49.768300 1.844600
49.811800 1.832000
49.855300 1.809800
49.898900 1.798300
49.942400 1.794800
49.985900 1.800100
50.029400 1.821900
50.073000 1.855300
50.116500 1.891100
50.160000 1.926400
50.203500 1.950900
50.247100 1.963900
50.290600 1.915400
50.334100 1.936200
50.377600 1.943500
50.421200 1.962500
50.464700 1.996700
50.508200 2.036300
50.551700 2.055800
50.595300 2.048700
50.638800 2.051000
50.682300 2.046200
50.725800 2.035700
50.769400 2.057200
50.812900 2.068000
50.856400 2.059600
50.899900 2.045200
50.943400 2.015500
50.987000 1.991900
51.030500 1.974300
51.074000 1.976400
51.117500 1.977800
51.161100 1.987400
51.204600 1.997500
51.248100 2.013000
51.291600 2.000600
51.335200 2.003000
51.378700 2.005700
51.422200 2.003800
51.465700 2.010600
51.509300 2.016000
51.552800 2.022300
51.596300 2.023500
51.639800 2.037300
51.683400 2.044800
51.726900 2.026800
51.770400 2.012900
51.813900 2.000700
51.857500 1.991400
51.901000 1.977200
51.944500 1.968400
51.988000 1.959600
52.031600 1.954700
52.075100 1.952300
52.118600 1.945000
52.162100 1.937400
52.205700 1.926900
52.249200 1.925600
52.292700 1.954700
52.336200 1.981200
52.379800 2.004900
52.423300 2.016500
52.466800 2.029900
52.510300 2.049600
52.553900 2.062500
52.597400 2.048200
52.640900 2.037400
52.684400 2.033800
52.728000 2.046900
52.771500 2.060800
52.815000 2.064400
52.858500 2.077400
52.902100 2.086000
52.945600 2.094600
52.989100 2.090800
53.032600 2.081500
53.076200 2.056100
53.119700 2.033400
53.163200 2.022500
53.206700 2.011200
53.250300 2.008300
53.293800 2.019900
53.337300 2.039800
53.380800 2.059700
53.424400 2.084600
53.467900 2.116000
53.511400 2.169100
53.554900 2.196500
53.598500 2.230500
53.642000 2.208700
53.685500 2.198600
53.729000 2.220500
53.772600 2.241300
53.816100 2.316600
53.859600 2.330400
53.903100 2.338300
53.946600 2.335600
53.990200 2.336100
54.033700 2.308400
54.077200 2.257600
54.120700 2.213600
54.164300 2.182300
54.207800 2.129600
54.251300 2.076200
54.294800 2.077500
54.338400 2.069900
54.381900 2.082500
54.425400 2.086600
54.468900 2.145100
54.512500 2.144800
54.556000 2.123100
54.599500 2.129000
54.643000 2.131800
54.686600 2.094600
54.730100 2.053600
54.773600 2.059200
54.817100 2.071200
54.860700 2.052800
54.904200 2.043100
54.947700 2.030000
54.991200 2.014000
55.034800 1.999600
55.078300 1.983400
55.121800 1.965500
55.165300 1.968600
55.208900 1.978800
55.252400 1.982900
55.295900 1.988000
55.339400 1.995700
55.383000 1.988000
55.426500 1.994300
55.470000 2.007000
55.513500 2.010400
55.557100 2.005900
55.600600 2.001200
55.644100 1.993200
55.687600 1.969200
55.731200 1.946700
55.774700 1.965100
55.818200 1.980400
55.861700 1.999100
55.905300 2.023000
55.948800 2.054000
55.992300 2.102200
56.035800 2.149600
56.079400 2.192300
56.122900 2.225500
56.166400 2.248200
56.209900 2.263600
56.253500 2.251800
56.297000 2.211700
56.340500 2.211300
56.384000 2.241500
56.427600 2.239100
56.471100 2.231900
56.514600 2.219000
56.558100 2.201900
56.601700 2.206100
56.645200 2.205300
56.688700 2.194000
56.732200 2.171000
56.775800 2.145900
56.819300 2.129800
56.862800 2.125100
56.906300 2.105300
56.949800 2.076900
56.993400 2.052700
57.036900 2.045400
57.080400 2.033500
57.123900 2.025900
57.167500 2.006800
57.211000 2.007300
57.254500 1.985000
57.298000 1.918900
57.341600 1.891600
57.385100 1.905300
57.428600 1.945200
57.472100 1.999500
57.515700 2.057900
57.559200 2.092600
57.602700 2.119200
57.646200 2.126400
57.689800 2.135700
57.733300 2.146000
57.776800 2.143000
57.820300 2.115700
57.863900 2.063800
57.907400 1.997900
57.950900 1.941400
57.994400 1.915600
58.038000 1.909900
58.081500 1.903800
58.125000 1.912300
58.168500 1.900900
58.212100 1.912700
58.255600 1.938800
58.299100 1.967800
58.342600 2.026400
58.386200 2.056100
58.429700 2.075400
58.473200 2.125900
58.516700 2.136400
58.560300 2.167000
58.603800 2.196400
58.647300 2.204800
58.690800 2.187700
58.734400 2.164100
58.777900 2.142600
58.821400 2.112700
58.864900 2.050400
58.908500 2.043500
58.952000 1.953100
58.995500 1.902800
59.039000 1.853700
59.082600 1.822800
59.126100 1.827100
59.169600 1.792800
59.213100 1.771900
59.256700 1.761000
59.300200 1.716000
59.343700 1.673600
59.387200 1.678200
59.430800 1.676200
59.474300 1.674000
59.517800 1.651700
59.561300 1.619200
59.604900 1.602100
59.648400 1.513200
59.691900 1.440200
59.735400 1.413100
59.779000 1.429900
59.822500 1.396400
59.866000 1.349900
59.909500 1.302600
59.953100 1.249900
59.996600 1.178000
60.040100 1.105900
60.083600 1.021700
60.127100 0.941500
60.170700 0.879400
60.214200 0.823200
60.257700 0.773500
60.301200 0.736900
60.344800 0.694900
60.388300 0.674700
60.431800 0.655800
60.475300 0.639300
60.518900 0.633000
60.562400 0.638800
60.605900 0.631100
60.649400 0.590500
60.693000 0.551800
60.736500 0.519200
60.780000 0.495500
60.823500 0.462700
60.867100 0.414200
60.910600 0.367900
60.954100 0.334700
60.997600 0.308400
61.041200 0.278500
61.084700 0.245000
61.128200 0.211700
61.171700 0.179400
61.215300 0.149500
61.258800 0.122400
61.302300 0.098700
61.345800 0.075300
61.389400 0.054900
61.432900 0.040400
61.476400 0.031000
61.519900 0.024000
61.563500 0.018900
61.607000 0.014900
61.650500 0.011100
61.694000 0.008300
61.737600 0.006400
61.781100 0.005100
61.824600 0.001800
61.868100 0.001600
61.911700 0.001400
61.955200 0.001200
61.998700 0.001000
62.042200 0.000900
62.085800 0.000700
62.129300 0.000600
62.172800 0.000500
62.216300 0.000400
62.259900 0.000300
62.303400 0.000200
62.346900 0.000100
62.390400 0.000100
62.434000 0.000000
62.477500 0.000000
62.521000 0.000000
62.564500 0.000000
62.608100 0.000000
62.651600 0.000000
62.695100 0.000000
62.738600 0.000000
62.782200 0.000000
62.825700 0.000000
62.869200 0.000000
62.912700 0.000000
62.956300 0.000000
62.999800 0.000000
63.043300 0.000000
63.086800 0.000000
63.130300 0.000000
63.173900 0.000000
63.217400 0.000000
63.260900 0.000000
63.304400 0.000000
63.348000 0.000000
63.391500 0.000000
63.435000 0.000000
63.478500 0.000000
63.522100 0.000000
63.565600 0.000000
63.609100 0.000000
63.652600 0.000000
63.696200 0.000000
63.739700 0.000000
63.783200 0.000000
63.826700 0.000000
63.870300 0.000000
63.913800 0.000000
63.957300 0.000000
64.000800 0.000000
64.044400 0.000000
64.087900 0.000000
64.131400 0.000000
64.174900 0.000000
64.218500 0.000000
64.262000 0.000000
64.305500 0.000000
64.349000 0.000000
64.392600 0.000000
64.436100 0.000000
64.479600 0.000000
64.523100 0.000000
64.566700 0.000000
64.610200 0.000000
64.653700 0.000000
64.697200 0.000000
64.740800 0.000000
64.784300 0.000000
64.827800 0.000000
64.871300 0.000000
64.914900 0.000000
64.958400 0.000000
65.001900 0.000000
65.045400 0.000000
65.089000 0.000000
65.132500 0.000000
65.176000 0.000000
65.219500 0.000000
65.263100 0.000000
65.306600 0.000000
65.350100 0.000000
65.393600 0.000000
65.437200 0.000000
65.480700 0.000000
65.524200 0.000000
65.567700 0.000000
65.611300 0.000000
65.654800 0.000000
65.698300 0.000000
65.741800 0.000000
65.785400 0.000000
65.828900 0.000000
65.872400 0.000000
65.915900 0.000000
65.959500 0.000000
66.003000 0.000000
66.046500 0.000000
66.090000 0.000000
66.133500 0.000000
66.177100 0.000000
66.220600 0.000000
66.264100 0.000000
66.307600 0.000000
66.351200 0.000000
66.394700 0.000000
66.438200 0.000000
66.481700 0.000000
e
