set title 'mp-1077157 - Density of States'
set xlabel 'Energy (eV)'
set ylabel 'DOS (states/eV)'
set grid
set xrange [-10:10]
set yrange [0:6.839]
set xzeroaxis lt -1
set terminal png size 800,600
set output 'mp-1077157_dos_gnuplot.png'
plot '-' using 1:2 with lines title 'DOS'
-10.159600 0.000000
-10.133100 0.000000
-10.106600 0.000000
-10.080000 0.000000
-10.053500 0.000000
-10.027000 0.000000
-10.000400 0.000000
-9.973900 0.000000
-9.947400 0.000000
-9.920900 0.000000
-9.894300 0.000000
-9.867800 0.000000
-9.841300 0.000000
-9.814800 0.000000
-9.788200 0.000000
-9.761700 0.000000
-9.735200 0.000000
-9.708600 0.000000
-9.682100 0.000000
-9.655600 0.000000
-9.629100 0.000000
-9.602500 0.000000
-9.576000 0.000000
-9.549500 0.000000
-9.523000 0.000000
-9.496400 0.000000
-9.469900 0.000000
-9.443400 0.000000
-9.416800 0.000000
-9.390300 0.000000
-9.363800 0.000000
-9.337300 0.000000
-9.310700 0.000000
-9.284200 0.000000
-9.257700 0.000000
-9.231200 0.000000
-9.204600 0.000000
-9.178100 0.000000
-9.151600 0.000000
-9.125000 0.000000
-9.098500 0.000000
-9.072000 0.000000
-9.045500 0.000000
-9.018900 0.000000
-8.992400 0.000000
-8.965900 0.000000
-8.939400 0.000000
-8.912800 0.000000
-8.886300 0.000000
-8.859800 0.000000
-8.833200 0.000000
-8.806700 0.000000
-8.780200 0.000000
-8.753700 0.000000
-8.727100 0.000000
-8.700600 0.000000
-8.674100 0.000000
-8.647600 0.000000
-8.621000 0.000000
-8.594500 0.000000
-8.568000 0.000000
-8.541400 0.000000
-8.514900 0.000000
-8.488400 0.000000
-8.461900 0.000000
-8.435300 0.000000
-8.408800 0.000000
-8.382300 0.000000
-8.355800 0.000000
-8.329200 0.000000
-8.302700 0.000000
-8.276200 0.000000
-8.249700 0.000000
-8.223100 0.000000
-8.196600 0.000000
-8.170100 0.000000
-8.143500 0.000000
-8.117000 0.000000
-8.090500 0.000000
-8.064000 0.000000
-8.037400 0.000000
-8.010900 0.000000
-7.984400 0.000000
-7.957900 0.000000
-7.931300 0.000000
-7.904800 0.000000
-7.878300 0.000000
-7.851700 0.000000
-7.825200 0.000000
-7.798700 0.000000
-7.772200 0.000000
-7.745600 0.000100
-7.719100 0.020300
-7.692600 0.074700
-7.666100 0.109400
-7.639500 0.129200
-7.613000 0.154700
-7.586500 0.184000
-7.559900 0.207400
-7.533400 0.219700
-7.506900 0.228100
-7.480400 0.240600
-7.453800 0.255400
-7.427300 0.273300
-7.400800 0.290800
-7.374300 0.305500
-7.347700 0.322100
-7.321200 0.331500
-7.294700 0.339800
-7.268100 0.348000
-7.241600 0.364200
-7.215100 0.378000
-7.188600 0.392600
-7.162000 0.406100
-7.135500 0.417700
-7.109000 0.429100
-7.082500 0.442700
-7.055900 0.455400
-7.029400 0.467800
-7.002900 0.480300
-6.976300 0.492400
-6.949800 0.504300
-6.923300 0.516900
-6.896800 0.529900
-6.870200 0.543500
-6.843700 0.557200
-6.817200 0.571100
-6.790700 0.585100
-6.764100 0.599600
-6.737600 0.614300
-6.711100 0.627800
-6.684500 0.641300
-6.658000 0.655600
-6.631500 0.671200
-6.605000 0.687800
-6.578400 0.704600
-6.551900 0.721200
-6.525400 0.737600
-6.498900 0.754300
-6.472300 0.771300
-6.445800 0.788500
-6.419300 0.805900
-6.392700 0.827400
-6.366200 0.848100
-6.339700 0.869700
-6.313200 0.891700
-6.286600 0.914200
-6.260100 0.938100
-6.233600 0.962400
-6.207100 0.987200
-6.180500 1.014400
-6.154000 1.045000
-6.127500 1.077500
-6.101000 1.110200
-6.074400 1.143600
-6.047900 1.179200
-6.021400 1.217500
-5.994800 1.259100
-5.968300 1.317500
-5.941800 1.389800
-5.915300 1.474000
-5.888700 1.576400
-5.862200 1.685200
-5.835700 1.815400
-5.809200 2.061800
-5.782600 2.209100
-5.756100 2.207600
-5.729600 2.166600
-5.703000 2.100700
-5.676500 2.032600
-5.650000 2.066600
-5.623500 2.184700
-5.596900 2.138800
-5.570400 1.988000
-5.543900 1.694000
-5.517400 1.588600
-5.490800 1.647600
-5.464300 1.681100
-5.437800 1.635600
-5.411200 1.463800
-5.384700 1.650900
-5.358200 2.065500
-5.331700 2.287200
-5.305100 2.325100
-5.278600 2.227700
-5.252100 2.245200
-5.225600 2.330300
-5.199000 2.206700
-5.172500 2.112900
-5.146000 2.108300
-5.119400 2.138800
-5.092900 2.202500
-5.066400 2.293600
-5.039900 2.562500
-5.013300 2.839300
-4.986800 2.961300
-4.960300 3.095300
-4.933800 2.580100
-4.907200 2.139500
-4.880700 1.843300
-4.854200 1.660600
-4.827600 1.497300
-4.801100 1.393400
-4.774600 1.291300
-4.748100 1.194100
-4.721500 1.117800
-4.695000 1.057400
-4.668500 0.991200
-4.642000 0.919800
-4.615400 0.861600
-4.588900 0.818800
-4.562400 0.778800
-4.535800 0.737300
-4.509300 0.696200
-4.482800 0.657400
-4.456300 0.621200
-4.429700 0.589300
-4.403200 0.560500
-4.376700 0.530900
-4.350200 0.501600
-4.323600 0.473600
-4.297100 0.448900
-4.270600 0.426900
-4.244100 0.404500
-4.217500 0.383400
-4.191000 0.364000
-4.164500 0.345200
-4.137900 0.322700
-4.111400 0.308500
-4.084900 0.294200
-4.058400 0.278900
-4.031800 0.262500
-4.005300 0.246900
-3.978800 0.231100
-3.952300 0.216400
-3.925700 0.203400
-3.899200 0.192000
-3.872700 0.181400
-3.846100 0.171200
-3.819600 0.161200
-3.793100 0.151300
-3.766600 0.137200
-3.740000 0.130900
-3.713500 0.122500
-3.687000 0.112000
-3.660500 0.100800
-3.633900 0.090500
-3.607400 0.081200
-3.580900 0.073000
-3.554300 0.065900
-3.527800 0.059700
-3.501300 0.063800
-3.474800 0.040900
-3.448200 0.026300
-3.421700 0.014900
-3.395200 0.006700
-3.368700 0.001700
-3.342100 0.000000
-3.315600 0.000000
-3.289100 0.000000
-3.262500 0.000000
-3.236000 0.000000
-3.209500 0.000000
-3.183000 0.000000
-3.156400 0.000000
-3.129900 0.000000
-3.103400 0.000000
-3.076900 0.000000
-3.050300 0.000000
-3.023800 0.000000
-2.997300 0.000000
-2.970700 0.000000
-2.944200 0.000000
-2.917700 0.000000
-2.891200 0.000000
-2.864600 0.000000
-2.838100 0.081500
-2.811600 0.067500
-2.785100 0.083900
-2.758500 0.100100
-2.732000 0.118100
-2.705500 0.141900
-2.678900 0.158700
-2.652400 0.169400
-2.625900 0.180600
-2.599400 0.187200
-2.572800 0.192400
-2.546300 0.201700
-2.519800 0.213200
-2.493300 0.224900
-2.466700 0.236900
-2.440200 0.250600
-2.413700 0.263200
-2.387100 0.273400
-2.360600 0.284000
-2.334100 0.294500
-2.307600 0.302000
-2.281000 0.308300
-2.254500 0.317000
-2.228000 0.326600
-2.201500 0.336600
-2.174900 0.346800
-2.148400 0.357600
-2.121900 0.368800
-2.095400 0.380400
-2.068800 0.392100
-2.042300 0.402700
-2.015800 0.411400
-1.989200 0.422000
-1.962700 0.433300
-1.936200 0.444800
-1.909700 0.456600
-1.883100 0.469000
-1.856600 0.480700
-1.830100 0.493500
-1.803600 0.506500
-1.777000 0.520000
-1.750500 0.534200
-1.724000 0.551800
-1.697400 0.571100
-1.670900 0.591800
-1.644400 0.613800
-1.617900 0.637500
-1.591300 0.662200
-1.564800 0.654500
-1.538300 0.645300
-1.511800 0.645700
-1.485200 0.657600
-1.458700 0.669200
-1.432200 0.680800
-1.405600 0.692800
-1.379100 0.705600
-1.352600 0.718700
-1.326100 0.735600
-1.299500 0.754000
-1.273000 0.773500
-1.246500 0.794400
-1.220000 0.831700
-1.193400 0.868400
-1.166900 0.925800
-1.140400 1.084200
-1.113800 1.165900
-1.087300 1.276300
-1.060800 1.402300
-1.034300 1.499200
-1.007700 1.556400
-0.981200 1.617100
-0.954700 1.669700
-0.928200 1.716200
-0.901600 1.763400
-0.875100 1.847900
-0.848600 1.946200
-0.822000 2.063600
-0.795500 2.214400
-0.769000 2.375000
-0.742500 2.647700
-0.715900 2.913900
-0.689400 2.960900
-0.662900 2.667500
-0.636400 2.466000
-0.609800 2.211500
-0.583300 2.042600
-0.556800 1.939000
-0.530200 1.895000
-0.503700 1.820600
-0.477200 1.804500
-0.450700 1.838200
-0.424100 1.841500
-0.397600 1.832400
-0.371100 1.837600
-0.344600 1.852500
-0.318000 1.943100
-0.291500 1.967600
-0.265000 1.989300
-0.238500 2.025000
-0.211900 2.010600
-0.185400 2.001400
-0.158900 1.902200
-0.132300 1.884100
-0.105800 1.875400
-0.079300 1.899900
-0.052800 1.951000
-0.026200 2.041300
0.000300 2.217900
0.026800 2.316100
0.053300 2.508000
0.079900 2.487300
0.106400 2.374400
0.132900 2.320800
0.159500 2.292300
0.186000 2.301900
0.212500 2.321300
0.239000 2.270100
0.265600 2.178800
0.292100 2.053200
0.318600 1.932000
0.345100 1.880000
0.371700 1.755000
0.398200 1.419000
0.424700 1.106300
0.451300 1.014200
0.477800 0.929600
0.504300 0.836000
0.530800 0.797300
0.557400 0.713800
0.583900 0.758400
0.610400 0.838500
0.636900 0.885400
0.663500 0.942100
0.690000 1.097900
0.716500 1.166900
0.743100 1.188700
0.769600 1.133200
0.796100 1.178200
0.822600 1.224100
0.849200 1.273400
0.875700 1.253200
0.902200 1.266300
0.928700 1.303500
0.955300 1.331500
0.981800 1.376600
1.008300 1.427900
1.034900 1.532400
1.061400 1.633000
1.087900 1.748700
1.114400 1.948100
1.141000 2.095800
1.167500 2.064400
1.194000 2.553700
1.220500 1.998000
1.247100 1.848200
1.273600 1.753800
1.300100 1.685600
1.326700 1.645500
1.353200 1.611400
1.379700 1.585500
1.406200 1.584400
1.432800 1.656400
1.459300 1.752300
1.485800 1.836400
1.512300 1.902400
1.538900 1.969600
1.565400 2.039000
1.591900 2.084300
1.618500 2.139600
1.645000 2.194400
1.671500 2.222800
1.698000 2.266600
1.724600 2.347000
1.751100 2.390300
1.777600 2.496800
1.804100 2.467400
1.830700 2.457300
1.857200 2.468400
1.883700 2.450200
1.910200 2.400000
1.936800 2.381600
1.963300 2.363000
1.989800 2.375100
2.016400 2.347400
2.042900 2.322600
2.069400 2.300500
2.095900 2.279300
2.122500 2.321000
2.149000 2.475900
2.175500 2.439900
2.202000 2.383200
2.228600 2.376600
2.255100 2.415400
2.281600 2.439000
2.308200 2.445800
2.334700 2.463700
2.361200 2.465200
2.387700 2.474000
2.414300 2.491700
2.440800 2.507300
2.467300 2.508100
2.493800 2.522500
2.520400 2.551500
2.546900 2.584600
2.573400 2.594600
2.600000 2.608400
2.626500 2.651900
2.653000 2.676600
2.679500 2.719500
2.706100 2.766900
2.732600 2.830200
2.759100 2.845100
2.785600 2.832100
2.812200 2.876200
2.838700 3.042000
2.865200 3.070100
2.891800 3.194900
2.918300 3.425400
2.944800 3.628300
2.971300 3.862400
2.997900 3.828900
3.024400 3.653900
3.050900 3.263500
3.077400 3.003300
3.104000 2.830300
3.130500 2.529700
3.157000 2.488600
3.183600 2.612800
3.210100 2.644500
3.236600 2.539900
3.263100 2.539200
3.289700 2.613900
3.316200 2.570000
3.342700 2.449600
3.369200 2.492400
3.395800 2.642400
3.422300 2.782500
3.448800 2.942600
3.475400 3.034800
3.501900 2.987800
3.528400 3.005300
3.554900 3.180900
3.581500 3.451000
3.608000 3.686900
3.634500 3.754200
3.661000 3.584900
3.687600 3.535600
3.714100 3.576900
3.740600 3.598300
3.767100 3.623300
3.793700 3.691100
3.820200 3.813000
3.846700 3.946400
3.873300 4.029500
3.899800 4.077000
3.926300 4.008900
3.952800 3.868200
3.979400 3.741300
4.005900 3.548600
4.032400 3.312300
4.058900 3.161600
4.085500 3.110700
4.112000 3.072500
4.138500 3.057000
4.165100 3.044000
4.191600 3.109600
4.218100 3.163100
4.244600 3.194900
4.271200 3.255200
4.297700 3.376200
4.324200 3.506000
4.350700 3.602200
4.377300 3.756400
4.403800 3.819200
4.430300 3.952100
4.456900 4.039200
4.483400 4.215700
4.509900 4.722300
4.536400 5.489500
4.563000 5.908900
4.589500 5.649100
4.616000 5.855800
4.642500 5.750400
4.669100 5.125000
4.695600 4.656900
4.722100 3.979500
4.748700 3.683300
4.775200 3.471300
4.801700 3.559200
4.828200 3.540500
4.854800 3.858600
4.881300 4.058000
4.907800 4.240800
4.934300 4.208000
4.960900 4.074600
4.987400 4.155600
5.013900 4.468500
5.040500 4.157800
5.067000 4.076800
5.093500 3.992800
5.120000 3.963700
5.146600 3.881300
5.173100 3.835700
5.199600 3.878000
5.226100 4.011300
5.252700 4.275200
5.279200 4.629400
5.305700 4.945600
5.332300 5.282700
5.358800 5.355900
5.385300 5.585500
5.411800 6.136500
5.438400 6.216900
5.464900 5.964400
5.491400 6.063100
5.517900 6.217500
5.544500 5.794300
5.571000 5.779200
5.597500 5.807100
5.624100 5.892900
5.650600 5.876100
5.677100 5.625100
5.703600 5.331200
5.730200 4.476200
5.756700 4.113800
5.783200 3.987200
5.809700 3.916900
5.836300 3.807900
5.862800 3.744500
5.889300 3.670700
5.915800 3.598900
5.942400 3.530200
5.968900 3.485400
5.995400 3.428200
6.022000 3.387500
6.048500 3.277200
6.075000 3.244200
6.101500 3.232700
6.128100 3.248100
6.154600 3.329300
6.181100 3.307600
6.207600 3.235600
6.234200 3.179500
6.260700 3.089500
6.287200 3.008800
6.313800 2.884000
6.340300 2.779800
6.366800 2.697300
6.393300 2.584700
6.419900 2.506200
6.446400 2.439400
6.472900 2.365900
6.499400 2.345300
6.526000 2.228200
6.552500 1.989700
6.579000 1.971500
6.605600 1.956200
6.632100 1.926300
6.658600 1.826700
6.685100 1.740900
6.711700 1.730100
6.738200 1.726200
6.764700 1.731000
6.791200 1.763500
6.817800 1.761900
6.844300 1.772800
6.870800 1.850300
6.897400 1.893100
6.923900 2.004500
6.950400 2.199700
6.976900 2.221300
7.003500 2.069200
7.030000 1.845700
7.056500 1.643000
7.083000 1.542100
7.109600 1.330600
7.136100 1.088600
7.162600 1.002000
7.189200 0.908000
7.215700 0.774600
7.242200 0.678700
7.268700 0.650400
7.295300 0.668800
7.321800 0.668000
7.348300 0.632300
7.374800 0.666800
7.401400 0.788800
7.427900 0.983100
7.454400 1.230400
7.481000 1.720300
7.507500 2.318400
7.534000 2.797800
7.560500 2.824600
7.587100 2.866500
7.613600 2.997600
7.640100 3.155700
7.666600 3.221300
7.693200 3.501800
7.719700 3.610700
7.746200 3.864200
7.772700 3.652800
7.799300 3.184800
7.825800 2.843900
7.852300 2.668600
7.878900 2.467700
7.905400 2.280000
7.931900 2.169100
7.958400 2.242200
7.985000 2.271100
8.011500 2.371200
8.038000 2.265400
8.064500 2.332000
8.091100 2.335000
8.117600 2.298100
8.144100 2.230500
8.170700 2.182700
8.197200 2.119600
8.223700 2.089000
8.250200 2.104200
8.276800 2.119600
8.303300 2.181300
8.329800 2.338700
8.356300 2.355200
8.382900 2.339400
8.409400 2.380500
8.435900 2.420100
8.462500 2.426600
8.489000 2.477900
8.515500 2.451600
8.542000 2.435800
8.568600 2.433500
8.595100 2.452900
8.621600 2.541700
8.648100 2.677000
8.674700 2.697500
8.701200 2.585100
8.727700 2.587600
8.754300 2.833100
8.780800 2.528400
8.807300 2.318500
8.833800 2.353000
8.860400 2.468400
8.886900 2.577000
8.913400 2.902600
8.939900 2.498900
8.966500 2.319500
8.993000 2.126000
9.019500 1.972600
9.046100 1.936800
9.072600 1.814000
9.099100 1.688200
9.125600 1.559500
9.152200 1.504600
9.178700 1.427100
9.205200 1.444300
9.231700 1.460500
9.258300 1.501900
9.284800 1.535700
9.311300 1.623200
9.337900 1.704900
9.364400 1.833300
9.390900 1.844300
9.417400 1.931400
9.444000 2.020400
9.470500 2.152600
9.497000 2.335000
9.523500 2.375000
9.550100 2.464800
9.576600 2.483300
9.603100 2.499800
9.629700 2.519400
9.656200 2.433900
9.682700 2.381000
9.709200 2.356800
9.735800 2.344200
9.762300 2.392800
9.788800 2.423800
9.815300 2.381300
9.841900 2.359400
9.868400 2.368900
9.894900 2.393400
9.921400 2.428300
9.948000 2.476900
9.974500 2.546800
10.001000 2.618700
10.027600 2.684500
10.054100 2.740700
10.080600 2.789700
10.107100 2.849400
10.133700 2.849200
10.160200 2.867500
10.186700 2.879300
10.213200 2.880200
10.239800 2.884000
10.266300 2.910500
10.292800 2.874400
10.319400 2.932400
10.345900 3.008400
10.372400 3.089200
10.398900 3.203000
10.425500 3.268200
10.452000 3.449700
10.478500 3.504300
10.505000 3.430500
10.531600 3.432400
10.558100 3.277300
10.584600 3.275600
10.611200 3.209700
10.637700 3.194100
10.664200 3.468500
10.690700 3.669600
10.717300 4.047900
10.743800 4.166900
10.770300 4.103800
10.796800 4.353100
10.823400 4.883300
10.849900 4.844000
10.876400 4.508200
10.903000 4.063200
10.929500 3.758900
10.956000 3.532100
10.982500 3.391000
11.009100 3.377800
11.035600 3.277600
11.062100 3.344900
11.088600 3.425000
11.115200 3.563600
11.141700 3.734000
11.168200 3.944500
11.194800 4.330900
11.221300 4.201200
11.247800 4.074600
11.274300 4.125700
11.300900 4.130700
11.327400 4.245800
11.353900 4.213000
11.380400 3.996900
11.407000 3.177900
11.433500 2.855600
11.460000 2.761800
11.486600 2.827400
11.513100 2.888300
11.539600 3.012000
11.566100 3.002600
11.592700 2.833700
11.619200 2.689000
11.645700 2.468200
11.672200 2.378000
11.698800 2.322000
11.725300 2.059400
11.751800 2.031900
11.778300 2.053400
11.804900 2.133600
11.831400 2.302600
11.857900 2.398800
11.884500 2.528900
11.911000 2.875400
11.937500 3.453900
11.964000 3.495000
11.990600 3.458200
12.017100 3.491900
12.043600 3.680400
12.070100 3.749000
12.096700 3.842300
12.123200 3.739100
12.149700 3.717200
12.176300 3.807900
12.202800 3.329200
12.229300 3.050500
12.255800 2.761400
12.282400 2.541800
12.308900 2.443600
12.335400 2.501100
12.361900 2.343900
12.388500 2.348500
12.415000 2.331500
12.441500 2.265300
12.468100 2.194700
12.494600 2.159100
12.521100 2.166600
12.547600 2.317800
12.574200 2.608200
12.600700 2.415200
12.627200 2.372900
12.653700 2.497100
12.680300 2.448800
12.706800 2.502700
12.733300 2.575300
12.759900 2.847900
12.786400 2.882900
12.812900 3.135700
12.839400 3.413100
12.866000 3.815500
12.892500 3.745800
12.919000 3.713800
12.945500 3.793800
12.972100 4.084200
12.998600 3.746500
13.025100 3.550000
13.051700 3.405100
13.078200 3.323600
13.104700 3.287500
13.131200 3.295000
13.157800 3.356700
13.184300 3.481000
13.210800 3.685200
13.237300 3.568000
13.263900 3.593800
13.290400 3.562200
13.316900 3.529900
13.343500 3.412100
13.370000 3.335800
13.396500 3.305800
13.423000 3.150600
13.449600 2.931000
13.476100 2.647600
13.502600 2.424300
13.529100 2.245900
13.555700 2.147400
13.582200 2.118300
13.608700 2.246400
13.635300 2.074900
13.661800 1.851400
13.688300 1.652300
13.714800 1.513400
13.741400 1.400400
13.767900 1.316100
13.794400 1.287800
13.820900 1.278300
13.847500 1.282100
13.874000 1.346400
13.900500 1.444800
13.927000 1.306600
13.953600 1.098500
13.980100 0.962000
14.006600 0.905900
14.033200 0.980800
14.059700 0.867800
14.086200 0.842000
14.112700 0.821300
14.139300 0.818600
14.165800 0.821800
14.192300 0.828500
14.218800 0.841100
14.245400 0.855000
14.271900 0.870200
14.298400 0.903700
14.325000 0.929000
14.351500 0.941500
14.378000 0.956000
14.404500 0.972900
14.431100 0.990200
14.457600 1.013800
14.484100 1.032100
14.510600 1.053200
14.537200 1.078000
14.563700 1.105400
14.590200 1.136000
14.616800 1.169000
14.643300 1.197400
14.669800 1.241000
14.696300 1.285200
14.722900 1.328900
14.749400 1.388300
14.775900 1.460300
14.802400 1.564500
14.829000 1.680900
14.855500 1.601600
14.882000 1.574400
14.908600 1.511200
14.935100 1.470700
14.961600 1.446800
14.988100 1.468900
15.014700 1.436700
15.041200 1.420800
15.067700 1.412600
15.094200 1.321800
15.120800 1.162700
15.147300 0.964200
15.173800 0.922400
15.200400 0.879400
15.226900 0.837400
15.253400 0.800200
15.279900 0.765300
15.306500 0.734000
15.333000 0.704300
15.359500 0.675800
15.386000 0.649200
15.412600 0.624700
15.439100 0.595400
15.465600 0.572000
15.492200 0.553100
15.518700 0.535700
15.545200 0.519400
15.571700 0.503800
15.598300 0.487200
15.624800 0.473700
15.651300 0.460100
15.677800 0.446700
15.704400 0.432600
15.730900 0.421600
15.757400 0.409700
15.783900 0.397000
15.810500 0.383000
15.837000 0.368500
15.863500 0.356000
15.890100 0.343200
15.916600 0.328800
15.943100 0.315000
15.969600 0.301900
15.996200 0.289400
16.022700 0.277700
16.049200 0.266700
16.075700 0.258600
16.102300 0.254400
16.128800 0.235800
16.155300 0.215900
16.181900 0.199300
16.208400 0.185700
16.234900 0.175000
16.261400 0.167500
16.288000 0.161800
16.314500 0.155600
16.341000 0.149100
16.367500 0.142100
16.394100 0.136600
16.420600 0.131400
16.447100 0.128100
16.473700 0.123200
16.500200 0.117000
16.526700 0.110400
16.553200 0.103400
16.579800 0.096000
16.606300 0.090400
16.632800 0.084700
16.659300 0.077600
16.685900 0.069000
16.712400 0.058900
16.738900 0.053200
16.765500 0.047600
16.792000 0.041400
16.818500 0.034600
16.845000 0.000000
16.871600 0.000000
16.898100 0.000000
16.924600 0.000000
16.951100 0.000000
16.977700 0.000000
17.004200 0.000000
17.030700 0.000000
17.057300 0.000300
17.083800 0.001600
17.110300 0.003900
17.136800 0.007300
17.163400 0.011700
17.189900 0.017100
17.216400 0.023500
17.242900 0.174400
17.269500 0.033000
17.296000 0.034800
17.322500 0.036700
17.349100 0.038900
17.375600 0.041300
17.402100 0.043900
17.428600 0.046700
17.455200 0.049700
17.481700 0.052700
17.508200 0.055500
17.534700 0.058100
17.561300 0.060600
17.587800 0.063000
17.614300 0.065300
17.640900 0.067400
17.667400 0.072600
17.693900 0.073700
17.720400 0.074900
17.747000 0.076500
17.773500 0.078200
17.800000 0.080200
17.826500 0.082400
17.853100 0.084900
17.879600 0.088000
17.906100 0.091600
17.932600 0.095900
17.959200 0.100700
17.985700 0.106100
18.012200 0.112100
18.038800 0.118800
18.065300 0.148800
18.091800 0.232000
18.118300 0.377300
18.144900 0.478000
18.171400 0.533200
18.197900 0.553800
18.224400 0.612600
18.251000 0.699400
18.277500 0.812000
18.304000 0.979900
18.330600 1.259500
18.357100 1.613700
18.383600 1.660600
18.410100 1.704600
18.436700 1.855900
18.463200 1.872600
18.489700 1.924000
18.516200 1.991300
18.542800 2.062400
18.569300 2.118400
18.595800 2.153700
18.622400 2.271500
18.648900 2.416300
18.675400 2.543900
18.701900 2.595900
18.728500 2.521900
18.755000 2.404100
18.781500 2.298000
18.808000 2.252100
18.834600 2.247100
18.861100 2.272400
18.887600 2.420600
18.914200 2.553100
18.940700 2.640500
18.967200 3.157700
18.993700 2.405300
19.020300 1.939100
19.046800 1.782500
19.073300 1.650800
19.099800 1.557600
19.126400 2.028300
19.152900 2.392400
19.179400 2.551400
19.206000 2.742500
19.232500 2.859100
19.259000 2.838700
19.285500 2.686000
19.312100 2.607000
19.338600 2.585200
19.365100 2.513600
19.391600 2.457300
19.418200 2.443800
19.444700 2.409400
19.471200 2.394500
19.497800 2.418400
19.524300 2.426800
19.550800 2.422100
19.577300 2.324400
19.603900 2.235300
19.630400 2.145100
19.656900 2.081600
19.683400 1.780800
19.710000 1.640600
19.736500 1.474600
19.763000 1.369400
19.789500 1.252100
19.816100 1.140400
19.842600 1.053100
19.869100 1.044400
19.895700 1.038600
19.922200 1.021600
19.948700 1.033800
19.975200 0.982800
20.001800 0.935500
20.028300 0.881200
20.054800 0.843700
20.081300 0.812600
20.107900 0.800400
20.134400 0.813700
20.160900 0.832500
20.187500 0.983300
20.214000 1.431300
20.240500 1.841200
20.267000 2.006400
20.293600 2.272600
20.320100 3.222100
20.346600 4.626500
20.373100 5.830200
20.399700 6.771800
20.426200 7.396400
20.452700 6.544200
20.479300 5.421400
20.505800 4.564100
20.532300 4.180500
20.558800 3.960100
20.585400 3.673800
20.611900 3.769400
20.638400 3.764600
20.664900 3.603500
20.691500 3.928400
20.718000 4.043000
20.744500 3.736700
20.771100 3.368000
20.797600 3.227800
20.824100 3.245300
20.850600 3.132900
20.877200 3.148500
20.903700 3.228500
20.930200 3.104000
20.956700 3.013600
20.983300 3.046500
21.009800 3.140100
21.036300 3.436900
21.062900 3.429400
21.089400 3.504600
21.115900 3.482300
21.142400 3.430700
21.169000 3.351000
21.195500 3.263900
21.222000 3.037200
21.248500 2.885200
21.275100 2.830600
21.301600 2.403600
21.328100 2.101900
21.354700 1.903300
21.381200 1.849000
21.407700 1.854700
21.434200 1.858000
21.460800 1.900200
21.487300 1.868400
21.513800 1.811000
21.540300 1.708300
21.566900 1.660200
21.593400 1.659600
21.619900 1.670600
21.646500 1.651100
21.673000 1.693100
21.699500 1.724900
21.726000 1.914800
21.752600 2.015400
21.779100 2.090700
21.805600 2.146700
21.832100 2.167300
21.858700 2.258300
21.885200 2.229200
21.911700 2.307000
21.938200 2.319900
21.964800 2.388200
21.991300 2.472100
22.017800 2.622600
22.044400 2.711600
22.070900 2.713700
22.097400 2.777600
22.123900 2.978900
22.150500 2.878300
22.177000 2.914700
22.203500 2.962500
22.230000 2.716200
22.256600 2.569400
22.283100 2.437400
22.309600 2.356900
22.336200 2.316400
22.362700 2.293000
22.389200 2.280200
22.415700 2.242200
22.442300 2.208900
22.468800 2.182300
22.495300 2.164200
22.521800 2.142700
22.548400 2.137700
22.574900 2.123500
22.601400 2.107000
22.628000 2.119100
22.654500 2.137100
22.681000 2.117200
22.707500 2.080800
22.734100 2.060500
22.760600 2.057300
22.787100 2.067000
22.813600 2.051800
22.840200 2.023100
22.866700 2.008900
22.893200 2.040900
22.919800 2.077900
22.946300 2.106500
22.972800 2.231100
22.999300 2.450300
23.025900 2.395900
23.052400 2.434400
23.078900 2.503700
23.105400 2.562900
23.132000 2.338800
23.158500 2.281100
23.185000 2.239000
23.211600 2.196400
23.238100 2.148200
23.264600 2.164400
23.291100 2.209700
23.317700 2.219300
23.344200 2.119900
23.370700 1.917800
23.397200 1.801300
23.423800 1.686300
23.450300 1.624900
23.476800 1.575200
23.503400 1.519700
23.529900 1.625000
23.556400 1.529800
23.582900 1.308100
23.609500 1.179800
23.636000 1.088700
23.662500 0.975500
23.689000 0.931900
23.715600 0.879400
23.742100 0.838000
23.768600 0.813100
23.795100 0.807400
23.821700 0.821200
23.848200 1.050700
23.874700 1.124100
23.901300 1.183400
23.927800 1.229300
23.954300 1.278500
23.980800 1.338600
24.007400 1.533000
24.033900 1.562100
24.060400 1.613700
24.086900 1.565600
24.113500 1.589900
24.140000 1.616300
24.166500 1.645800
24.193100 1.678300
24.219600 1.705000
24.246100 1.733100
24.272600 1.765700
24.299200 1.806000
24.325700 1.907300
24.352200 2.106600
24.378700 1.969600
24.405300 1.976100
24.431800 2.026900
24.458300 2.080600
24.484900 2.146300
24.511400 2.246700
24.537900 2.371400
24.564400 2.479500
24.591000 2.587700
24.617500 2.731800
24.644000 2.728500
24.670500 2.785400
24.697100 2.707300
24.723600 2.718100
24.750100 2.767600
24.776700 2.879300
24.803200 2.911000
24.829700 3.004600
24.856200 3.180800
24.882800 3.414100
24.909300 3.350600
24.935800 3.086500
24.962300 2.968700
24.988900 2.743300
25.015400 2.713500
25.041900 2.650900
25.068500 2.602200
25.095000 2.583000
25.121500 2.671800
25.148000 2.837000
25.174600 3.108100
25.201100 3.307900
25.227600 3.601700
25.254100 3.587800
25.280700 3.655700
25.307200 3.950900
25.333700 3.806000
25.360300 3.692800
25.386800 3.846000
25.413300 4.041500
25.439800 3.590000
25.466400 3.366800
25.492900 3.207800
25.519400 3.225700
25.545900 3.201300
25.572500 3.033200
25.599000 2.713800
25.625500 2.507600
25.652000 2.358400
25.678600 2.237700
25.705100 2.112900
25.731600 2.025400
25.758200 1.949900
25.784700 1.872300
25.811200 1.846500
25.837700 1.775200
25.864300 1.735800
25.890800 1.740900
25.917300 1.635800
25.943800 1.598500
25.970400 1.570100
25.996900 1.869200
26.023400 1.758500
26.050000 1.744700
26.076500 1.733500
26.103000 1.702000
26.129500 1.708200
26.156100 1.716500
26.182600 1.724700
26.209100 1.768400
26.235600 1.840600
26.262200 1.879100
26.288700 1.954700
26.315200 2.219200
26.341800 2.307500
26.368300 2.320800
26.394800 2.234500
26.421300 2.106500
26.447900 2.060900
26.474400 2.082000
26.500900 2.133800
26.527400 2.198600
26.554000 2.286000
26.580500 2.363300
26.607000 2.407300
26.633600 2.392200
26.660100 2.292300
26.686600 2.180900
26.713100 2.122200
26.739700 2.055500
26.766200 1.987800
26.792700 1.925400
26.819200 1.823200
26.845800 1.709700
26.872300 1.592100
26.898800 1.474900
26.925400 1.424900
26.951900 1.395700
26.978400 1.370700
27.004900 1.350600
27.031500 1.338400
27.058000 1.339400
27.084500 1.350400
27.111000 1.481200
27.137600 1.443500
27.164100 1.468900
27.190600 1.480800
27.217200 1.488500
27.243700 1.484400
27.270200 1.478100
27.296700 1.483400
27.323300 1.499800
27.349800 1.523800
27.376300 1.548300
27.402800 1.569400
27.429400 1.615800
27.455900 1.666400
27.482400 1.702800
27.509000 1.744300
27.535500 1.819800
27.562000 1.915500
27.588500 2.010300
27.615100 2.141900
27.641600 2.382400
27.668100 2.559900
27.694600 2.711000
27.721200 2.908500
27.747700 3.139200
27.774200 3.247400
27.800700 3.353100
27.827300 3.311400
27.853800 3.101000
27.880300 2.580100
27.906900 2.285100
27.933400 2.072000
27.959900 1.890100
27.986400 1.731600
28.013000 1.637300
28.039500 1.574200
28.066000 1.508900
28.092500 1.474500
28.119100 1.441500
28.145600 1.390200
28.172100 1.354600
28.198700 1.407400
28.225200 1.447000
28.251700 1.525100
28.278200 1.615000
28.304800 1.736000
28.331300 1.799800
28.357800 1.852300
28.384300 1.925400
28.410900 2.034600
28.437400 2.248100
28.463900 2.765200
28.490500 3.066400
28.517000 3.244000
28.543500 3.244800
28.570000 3.182700
28.596600 2.961200
28.623100 2.767800
28.649600 2.606400
28.676100 2.463700
28.702700 2.263700
28.729200 2.240400
28.755700 2.184000
28.782300 2.149100
28.808800 2.218000
28.835300 2.126000
28.861800 2.013600
28.888400 1.997200
28.914900 1.995500
28.941400 1.999000
28.967900 2.074400
28.994500 2.061800
29.021000 2.016100
29.047500 1.838100
29.074100 1.669100
29.100600 1.559500
29.127100 1.524100
29.153600 1.519900
29.180200 1.542700
29.206700 1.603900
29.233200 1.643000
29.259700 1.661700
29.286300 1.696200
29.312800 1.757100
29.339300 1.832500
29.365900 1.890500
29.392400 1.982500
29.418900 2.058600
29.445400 2.107700
29.472000 2.127100
29.498500 2.136900
29.525000 2.141900
29.551500 2.143000
29.578100 2.144500
29.604600 2.169100
29.631100 2.592500
29.657600 2.524200
29.684200 2.416300
29.710700 2.079800
29.737200 1.903400
29.763800 1.812500
29.790300 1.751800
29.816800 1.686900
29.843300 1.536200
29.869900 1.450400
29.896400 1.391700
29.922900 1.366800
29.949400 1.360100
29.976000 1.358500
30.002500 1.362600
30.029000 1.372800
30.055600 1.391600
30.082100 1.433200
30.108600 1.489700
30.135100 1.553200
30.161700 1.622500
30.188200 1.727500
30.214700 1.804700
30.241200 1.866900
30.267800 1.981700
30.294300 2.143600
30.320800 2.372300
30.347400 2.413700
30.373900 2.433100
30.400400 2.429300
30.426900 2.423400
30.453500 2.483000
30.480000 2.484600
30.506500 2.457000
30.533000 2.494600
30.559600 2.539800
30.586100 2.755700
30.612600 2.807700
30.639200 2.783700
30.665700 2.683600
30.692200 2.635600
30.718700 2.601700
30.745300 2.463000
30.771800 2.293600
30.798300 2.131500
30.824800 2.033500
30.851400 1.720700
30.877900 1.643400
30.904400 1.565100
30.931000 1.417100
30.957500 1.445200
30.984000 1.629400
31.010500 1.777200
31.037100 1.977600
31.063600 2.231100
31.090100 2.524100
31.116600 2.767300
31.143200 2.873400
31.169700 2.929500
31.196200 3.056600
31.222800 3.195100
31.249300 3.341200
31.275800 3.403800
31.302300 3.439700
31.328900 3.519600
31.355400 3.506200
31.381900 3.461300
31.408400 3.427000
31.435000 3.401600
31.461500 3.339400
31.488000 3.124600
31.514600 2.566400
31.541100 2.118100
31.567600 1.871300
31.594100 1.664200
31.620700 1.511900
31.647200 1.402300
31.673700 1.337600
31.700200 1.310700
31.726800 1.317900
31.753300 1.408100
31.779800 1.362900
31.806300 1.275000
31.832900 1.397900
31.859400 1.258800
31.885900 1.234700
31.912500 1.205100
31.939000 1.184700
31.965500 1.162200
31.992000 1.028200
32.018600 0.940500
32.045100 0.944400
32.071600 0.994700
32.098100 1.069300
32.124700 1.049500
32.151200 1.077600
32.177700 1.116000
32.204300 1.149300
32.230800 1.180800
32.257300 1.210400
32.283800 1.254500
32.310400 1.294100
32.336900 1.315400
32.363400 1.334900
32.389900 1.360200
32.416500 1.362800
32.443000 1.366400
32.469500 1.370900
32.496100 1.381500
32.522600 1.398200
32.549100 1.440100
32.575600 1.585700
32.602200 1.657800
32.628700 1.650300
32.655200 1.635800
32.681700 1.682400
32.708300 1.738000
32.734800 1.778100
32.761300 1.774900
32.787900 1.715700
32.814400 1.727500
32.840900 1.737200
32.867400 1.884100
32.894000 1.982200
32.920500 2.104600
32.947000 2.211000
32.973500 2.300200
33.000100 2.371000
33.026600 2.434900
33.053100 2.507200
33.079700 2.633400
33.106200 2.652600
33.132700 2.643900
33.159200 2.452900
33.185800 2.344000
33.212300 2.254800
33.238800 2.166200
33.265300 2.139000
33.291900 2.180200
33.318400 2.280000
33.344900 2.462100
33.371500 2.534600
33.398000 2.585100
33.424500 2.624600
33.451000 2.709200
33.477600 2.869600
33.504100 2.877400
33.530600 2.880300
33.557100 2.804200
33.583700 2.652800
33.610200 2.507100
33.636700 2.377300
33.663200 2.305800
33.689800 2.212400
33.716300 2.158800
33.742800 2.127700
33.769400 2.106200
33.795900 2.090800
33.822400 2.056100
33.848900 2.027700
33.875500 2.012100
33.902000 2.012500
33.928500 2.006500
33.955000 2.029400
33.981600 2.053700
34.008100 2.097300
34.034600 2.147500
34.061200 2.185800
34.087700 2.196400
34.114200 2.221800
34.140700 2.221900
34.167300 2.300300
34.193800 2.298200
34.220300 2.304200
34.246800 2.328900
34.273400 2.369300
34.299900 2.406800
34.326400 2.457100
34.353000 2.454800
34.379500 2.325800
34.406000 2.289400
34.432500 2.246900
34.459100 2.212600
34.485600 2.137600
34.512100 2.145900
34.538600 2.225700
34.565200 2.106800
34.591700 2.016400
34.618200 1.972000
34.644800 1.936800
34.671300 1.914300
34.697800 1.897000
34.724300 1.898700
34.750900 1.899100
34.777400 1.898500
34.803900 1.893400
34.830400 1.881100
34.857000 1.880600
34.883500 1.886100
34.910000 1.887000
34.936600 1.864300
34.963100 1.858500
34.989600 1.848700
35.016100 1.829600
35.042700 1.802000
35.069200 1.784100
35.095700 1.787200
35.122200 1.713300
35.148800 1.641600
35.175300 1.577500
35.201800 1.533600
35.228400 1.506200
35.254900 1.502000
35.281400 1.531100
35.307900 1.523600
35.334500 1.501500
35.361000 1.530600
35.387500 1.538000
35.414000 1.515200
35.440600 1.509500
35.467100 1.519300
35.493600 1.510300
35.520200 1.524800
35.546700 1.556400
35.573200 1.614900
35.599700 1.670700
35.626300 1.721600
35.652800 1.765000
35.679300 1.808300
35.705800 1.876900
35.732400 2.021400
35.758900 2.166100
35.785400 2.247500
35.811900 2.295600
35.838500 2.259200
35.865000 2.223500
35.891500 2.177400
35.918100 2.163000
35.944600 2.235900
35.971100 2.268600
35.997600 2.283700
36.024200 2.341200
36.050700 2.369000
36.077200 2.331000
36.103700 2.254800
36.130300 2.130000
36.156800 2.112900
36.183300 2.091600
36.209900 2.104500
36.236400 2.084900
36.262900 2.091200
36.289400 2.132600
36.316000 2.208600
36.342500 2.280300
36.369000 2.277900
36.395500 2.300400
36.422100 2.417200
36.448600 2.487100
36.475100 2.615800
36.501700 2.696100
36.528200 2.726000
36.554700 2.755900
36.581200 2.783900
36.607800 2.829500
36.634300 2.865700
36.660800 2.907500
36.687300 2.958200
36.713900 3.047200
36.740400 3.155900
36.766900 3.130300
36.793500 3.148700
36.820000 3.161100
36.846500 3.485800
36.873000 3.561300
36.899600 3.325000
36.926100 3.159500
36.952600 3.099100
36.979100 3.040500
37.005700 3.022300
37.032200 3.016300
37.058700 3.012500
37.085300 2.996700
37.111800 3.080900
37.138300 3.197100
37.164800 3.193100
37.191400 3.268400
37.217900 3.325300
37.244400 3.393300
37.270900 3.437200
37.297500 3.497400
37.324000 3.332500
37.350500 3.143600
37.377100 3.006200
37.403600 2.970900
37.430100 2.944600
37.456600 2.996000
37.483200 2.928100
37.509700 2.906700
37.536200 2.855400
37.562700 2.797300
37.589300 2.742400
37.615800 2.653700
37.642300 2.582000
37.668800 2.529100
37.695400 2.490500
37.721900 2.520500
37.748400 2.538800
37.775000 2.626900
37.801500 2.859000
37.828000 2.881300
37.854500 2.917900
37.881100 2.923500
37.907600 2.916900
37.934100 2.936200
37.960600 2.958100
37.987200 2.982900
38.013700 3.126300
38.040200 3.252200
38.066800 2.852800
38.093300 2.733700
38.119800 2.631600
38.146300 2.598700
38.172900 2.574500
38.199400 2.675700
38.225900 3.141800
38.252400 2.946900
38.279000 2.798100
38.305500 2.761900
38.332000 2.699300
38.358600 2.628000
38.385100 2.529100
38.411600 2.467000
38.438100 2.443800
38.464700 2.409100
38.491200 2.414400
38.517700 2.473100
38.544200 2.503400
38.570800 2.532000
38.597300 2.607100
38.623800 2.638800
38.650400 2.655500
38.676900 2.647100
38.703400 2.572200
38.729900 2.535400
38.756500 2.514200
38.783000 2.502300
38.809500 2.495300
38.836000 2.469400
38.862600 2.454100
38.889100 2.437300
38.915600 2.405900
38.942200 2.476300
38.968700 2.367600
38.995200 2.317700
39.021700 2.301900
39.048300 2.311500
39.074800 2.283700
39.101300 2.193900
39.127800 2.214000
39.154400 2.070800
39.180900 1.996300
39.207400 1.934100
39.234000 1.895000
39.260500 1.824000
39.287000 1.789900
39.313500 1.791300
39.340100 1.801600
39.366600 1.812600
39.393100 1.855900
39.419600 1.827000
39.446200 1.824000
39.472700 1.848300
39.499200 1.805500
39.525800 1.705100
39.552300 1.511400
39.578800 1.354900
39.605300 1.200600
39.631900 1.065100
39.658400 0.955000
39.684900 0.862700
39.711400 0.844800
39.738000 0.843700
39.764500 0.850100
39.791000 0.832200
39.817500 0.897700
39.844100 0.757200
39.870600 0.701500
39.897100 0.657900
39.923700 0.614900
39.950200 0.574000
39.976700 0.534000
40.003200 0.499000
40.029800 0.473400
40.056300 0.451600
40.082800 0.426600
40.109300 0.398800
40.135900 0.368200
40.162400 0.334700
40.188900 0.337100
40.215500 0.247600
40.242000 0.194400
40.268500 0.134500
40.295000 0.085300
40.321600 0.050500
40.348100 0.035300
40.374600 0.022800
40.401100 0.013000
40.427700 0.006000
40.454200 0.001600
40.480700 0.000000
40.507300 0.000000
40.533800 0.000000
40.560300 0.000000
40.586800 0.000000
40.613400 0.000000
40.639900 0.000000
40.666400 0.000000
40.692900 0.000000
40.719500 0.000000
40.746000 0.000000
40.772500 0.000000
40.799100 0.000000
40.825600 0.000000
40.852100 0.000000
40.878600 0.000000
40.905200 0.000000
40.931700 0.000000
40.958200 0.000000
40.984700 0.000000
41.011300 0.000000
41.037800 0.000000
41.064300 0.000000
41.090900 0.000000
41.117400 0.000000
41.143900 0.000000
41.170400 0.000000
41.197000 0.000000
41.223500 0.000000
41.250000 0.000000
41.276500 0.000000
41.303100 0.000000
41.329600 0.000000
41.356100 0.000000
41.382700 0.000000
41.409200 0.000000
41.435700 0.000000
41.462200 0.000000
41.488800 0.000000
41.515300 0.000000
41.541800 0.000000
41.568300 0.000000
41.594900 0.000000
41.621400 0.000000
41.647900 0.000000
41.674400 0.000000
41.701000 0.000000
41.727500 0.000000
41.754000 0.000000
41.780600 0.000000
41.807100 0.000000
41.833600 0.000000
41.860100 0.000000
41.886700 0.000000
41.913200 0.000000
41.939700 0.000000
41.966200 0.000000
41.992800 0.000000
42.019300 0.000000
42.045800 0.000000
42.072400 0.000000
42.098900 0.000000
42.125400 0.000000
42.151900 0.000000
42.178500 0.000000
42.205000 0.000000
42.231500 0.000000
42.258000 0.000000
42.284600 0.000000
42.311100 0.000000
42.337600 0.000000
42.364200 0.000000
42.390700 0.000000
42.417200 0.000000
42.443700 0.000000
42.470300 0.000000
42.496800 0.000000
42.523300 0.000000
42.549800 0.000000
42.576400 0.000000
42.602900 0.000000
42.629400 0.000000
42.656000 0.000000
42.682500 0.000000
42.709000 0.000000
42.735500 0.000000
42.762100 0.000000
42.788600 0.000000
42.815100 0.000000
42.841600 0.000000
42.868200 0.000000
42.894700 0.000000
e
