set title 'mp-1104073 - Density of States'
set xlabel 'Energy (eV)'
set ylabel 'DOS (states/eV)'
set grid
set xrange [-10:10]
set yrange [0:10.666]
set xzeroaxis lt -1
set terminal png size 800,600
set output 'mp-1104073_dos_gnuplot.png'
plot '-' using 1:2 with lines title 'DOS'
-15.737100 0.000000
-15.713700 0.000000
-15.690300 0.000000
-15.666800 0.000000
-15.643400 0.000000
-15.620000 0.000000
-15.596500 0.000000
-15.573100 0.000000
-15.549700 0.000000
-15.526200 0.000000
-15.502800 0.000000
-15.479400 0.000000
-15.455900 0.000000
-15.432500 0.000000
-15.409100 0.000000
-15.385700 0.000000
-15.362200 0.000000
-15.338800 0.000000
-15.315400 0.000000
-15.291900 0.000000
-15.268500 0.000000
-15.245100 0.000000
-15.221600 0.000000
-15.198200 0.000000
-15.174800 0.000000
-15.151400 0.000000
-15.127900 0.000000
-15.104500 0.000000
-15.081100 0.000000
-15.057600 0.000000
-15.034200 0.000000
-15.010800 0.000000
-14.987300 0.000000
-14.963900 0.000000
-14.940500 0.000000
-14.917000 0.000000
-14.893600 0.000000
-14.870200 0.000000
-14.846800 0.000000
-14.823300 0.000000
-14.799900 0.000000
-14.776500 0.000000
-14.753000 0.000000
-14.729600 0.000000
-14.706200 0.000000
-14.682700 0.000000
-14.659300 0.000000
-14.635900 0.000000
-14.612400 0.000000
-14.589000 0.000000
-14.565600 0.000000
-14.542200 0.000000
-14.518700 0.000000
-14.495300 0.000000
-14.471900 0.000000
-14.448400 0.000000
-14.425000 0.000000
-14.401600 0.000000
-14.378100 0.000000
-14.354700 0.000000
-14.331300 0.000000
-14.307800 0.000000
-14.284400 0.000000
-14.261000 0.000000
-14.237600 0.000000
-14.214100 0.000000
-14.190700 0.000000
-14.167300 0.000000
-14.143800 0.000000
-14.120400 0.000000
-14.097000 0.000000
-14.073500 0.000000
-14.050100 0.000000
-14.026700 0.000000
-14.003300 0.000000
-13.979800 0.000000
-13.956400 0.000000
-13.933000 0.000000
-13.909500 0.000000
-13.886100 0.000000
-13.862700 0.000000
-13.839200 0.000000
-13.815800 0.000000
-13.792400 0.000000
-13.768900 0.000000
-13.745500 0.000000
-13.722100 0.000000
-13.698700 0.000000
-13.675200 0.000000
-13.651800 0.000000
-13.628400 0.000000
-13.604900 0.211400
-13.581500 0.256200
-13.558100 0.304000
-13.534600 0.354800
-13.511200 0.408500
-13.487800 0.465200
-13.464300 0.524900
-13.440900 0.587600
-13.417500 0.653300
-13.394100 0.754000
-13.370600 0.805300
-13.347200 0.784800
-13.323800 0.804900
-13.300300 0.821900
-13.276900 0.835900
-13.253500 0.846900
-13.230000 0.854800
-13.206600 0.859700
-13.183200 0.861600
-13.159800 0.804700
-13.136300 0.808000
-13.112900 0.811300
-13.089500 0.817600
-13.066000 0.824800
-13.042600 0.832900
-13.019200 0.841900
-12.995700 0.851700
-12.972300 0.862300
-12.948900 0.873800
-12.925400 0.887900
-12.902000 0.903000
-12.878600 0.906400
-12.855200 0.916100
-12.831700 0.925200
-12.808300 0.933800
-12.784900 0.941700
-12.761400 0.949000
-12.738000 0.955800
-12.714600 0.956400
-12.691100 0.964200
-12.667700 0.971900
-12.644300 0.980800
-12.620800 0.990100
-12.597400 0.999600
-12.574000 1.009600
-12.550600 1.019800
-12.527100 1.190400
-12.503700 1.221500
-12.480300 1.254800
-12.456800 1.288100
-12.433400 1.322300
-12.410000 1.357200
-12.386500 1.393000
-12.363100 1.429500
-12.339700 1.850400
-12.316200 1.905600
-12.292800 1.956000
-12.269400 1.939100
-12.246000 1.965000
-12.222500 1.720000
-12.199100 1.696200
-12.175700 1.673000
-12.152200 1.650000
-12.128800 1.627300
-12.105400 1.534200
-12.081900 1.487800
-12.058500 1.444400
-12.035100 1.403800
-12.011700 1.308700
-11.988200 1.310700
-11.964800 1.313000
-11.941400 1.315500
-11.917900 1.416300
-11.894500 1.419700
-11.871100 1.422400
-11.847600 1.424400
-11.824200 1.425800
-11.800800 1.426400
-11.777300 1.426400
-11.753900 1.425700
-11.730500 1.405000
-11.707100 1.400400
-11.683600 1.337100
-11.660200 1.311400
-11.636800 1.293800
-11.613300 1.276700
-11.589900 1.252100
-11.566500 1.242100
-11.543000 1.232000
-11.519600 1.222000
-11.496200 1.212000
-11.472700 1.204000
-11.449300 1.195700
-11.425900 1.188100
-11.402500 1.182500
-11.379000 1.176800
-11.355600 1.171000
-11.332200 1.165000
-11.308700 1.158900
-11.285300 1.152800
-11.261900 1.146500
-11.238400 1.140000
-11.215000 1.133500
-11.191600 1.123100
-11.168200 1.119200
-11.144700 1.312400
-11.121300 1.257800
-11.097900 0.878300
-11.074400 0.888500
-11.051000 0.899100
-11.027600 0.910300
-11.004100 0.922100
-10.980700 1.119100
-10.957300 1.132900
-10.933800 1.148600
-10.910400 1.160800
-10.887000 1.171400
-10.863600 1.180200
-10.840100 1.187400
-10.816700 1.192800
-10.793300 1.196500
-10.769800 1.198500
-10.746400 1.141300
-10.723000 1.140200
-10.699500 1.138000
-10.676100 1.134500
-10.652700 1.107400
-10.629200 1.067900
-10.605800 1.029600
-10.582400 0.992500
-10.559000 0.956500
-10.535500 0.921700
-10.512100 0.888100
-10.488700 0.864700
-10.465200 0.966000
-10.441800 0.976200
-10.418400 0.987000
-10.394900 0.998500
-10.371500 1.479700
-10.348100 1.582200
-10.324600 1.690100
-10.301200 1.824900
-10.277800 1.944000
-10.254400 2.060900
-10.230900 2.190100
-10.207500 2.299100
-10.184100 2.382300
-10.160600 2.465700
-10.137200 2.489100
-10.113800 2.511000
-10.090300 2.529500
-10.066900 2.544600
-10.043500 2.283100
-10.020100 2.269100
-9.996600 2.253600
-9.973200 2.236600
-9.949800 2.218100
-9.926300 2.198000
-9.902900 2.360600
-9.879500 2.254400
-9.856000 1.776300
-9.832600 3.538700
-9.809200 3.660800
-9.785700 3.335800
-9.762300 2.777600
-9.738900 2.103500
-9.715500 2.071700
-9.692000 2.040400
-9.668600 2.009400
-9.645200 1.978900
-9.621700 1.948800
-9.598300 1.867200
-9.574900 1.844700
-9.551400 1.825000
-9.528000 1.808200
-9.504600 1.794200
-9.481100 1.785600
-9.457700 1.812300
-9.434300 1.997800
-9.410900 2.208100
-9.387400 2.302500
-9.364000 2.398100
-9.340600 2.707100
-9.317100 4.076700
-9.293700 4.723800
-9.270300 5.892400
-9.246800 3.201300
-9.223400 3.030300
-9.200000 2.862800
-9.176600 2.699000
-9.153100 2.538700
-9.129700 2.382000
-9.106300 2.228800
-9.082800 2.079300
-9.059400 1.929800
-9.036000 1.786300
-9.012500 1.562300
-8.989100 1.295100
-8.965700 0.943100
-8.942200 0.919200
-8.918800 0.900200
-8.895400 0.881000
-8.872000 0.861600
-8.848500 0.842000
-8.825100 0.822100
-8.801700 0.848900
-8.778200 1.106500
-8.754800 1.137100
-8.731400 1.170900
-8.707900 1.207700
-8.684500 1.247500
-8.661100 1.290400
-8.637600 1.336400
-8.614200 1.385400
-8.590800 1.437400
-8.567400 1.431200
-8.543900 1.500100
-8.520500 1.576100
-8.497100 1.659200
-8.473600 1.749300
-8.450200 2.012400
-8.426800 2.199500
-8.403300 2.397800
-8.379900 2.552900
-8.356500 2.898400
-8.333000 3.177600
-8.309600 3.606100
-8.286200 3.716600
-8.262800 3.818900
-8.239300 4.539500
-8.215900 4.036000
-8.192500 5.210100
-8.169000 4.339800
-8.145600 3.886800
-8.122200 3.498000
-8.098700 3.125600
-8.075300 2.806300
-8.051900 2.374100
-8.028500 2.145800
-8.005000 1.438000
-7.981600 1.352700
-7.958200 1.273000
-7.934700 1.198900
-7.911300 1.130500
-7.887900 1.067700
-7.864400 0.854200
-7.841000 0.837700
-7.817600 0.826500
-7.794100 1.016800
-7.770700 1.054700
-7.747300 1.095800
-7.723900 1.140000
-7.700400 1.874900
-7.677000 2.027800
-7.653600 2.174500
-7.630100 2.860700
-7.606700 3.161000
-7.583300 2.213700
-7.559800 2.239800
-7.536400 2.241500
-7.513000 2.241400
-7.489500 2.257600
-7.466100 2.247600
-7.442700 2.236200
-7.419300 2.223300
-7.395800 2.208900
-7.372400 3.858600
-7.349000 2.801600
-7.325500 2.649400
-7.302100 2.500700
-7.278700 2.024200
-7.255200 1.967300
-7.231800 1.916500
-7.208400 1.871600
-7.185000 1.832700
-7.161500 1.595300
-7.138100 1.596700
-7.114700 1.603100
-7.091200 1.611100
-7.067800 1.863100
-7.044400 1.893000
-7.020900 1.962400
-6.997500 2.036200
-6.974100 1.948500
-6.950600 2.592000
-6.927200 3.030500
-6.903800 3.144600
-6.880400 2.697100
-6.856900 2.639800
-6.833500 2.624100
-6.810100 2.603500
-6.786600 2.439200
-6.763200 2.402700
-6.739800 2.131100
-6.716300 1.739000
-6.692900 1.615000
-6.669500 1.504800
-6.646000 1.500800
-6.622600 1.499900
-6.599200 1.499200
-6.575800 1.498800
-6.552300 1.498600
-6.528900 1.498800
-6.505500 1.499200
-6.482000 1.499800
-6.458600 1.500800
-6.435200 1.502000
-6.411700 1.503400
-6.388300 1.505200
-6.364900 1.507200
-6.341400 1.562100
-6.318000 1.573800
-6.294600 1.858000
-6.271200 2.060800
-6.247700 2.297400
-6.224300 2.508000
-6.200900 2.757700
-6.177400 3.192000
-6.154000 3.475500
-6.130600 3.380500
-6.107100 3.078800
-6.083700 2.809800
-6.060300 2.571500
-6.036900 2.122800
-6.013400 2.328500
-5.990000 2.332300
-5.966600 2.320000
-5.943100 2.293800
-5.919700 2.270100
-5.896300 2.246700
-5.872800 2.222500
-5.849400 4.903700
-5.826000 1.876200
-5.802500 1.852800
-5.779100 1.831600
-5.755700 1.819900
-5.732300 1.807100
-5.708800 1.768300
-5.685400 1.764500
-5.662000 1.759000
-5.638500 1.751800
-5.615100 1.758300
-5.591700 1.757100
-5.568200 1.754300
-5.544800 1.749900
-5.521400 1.743800
-5.497900 1.736200
-5.474500 2.146100
-5.451100 2.040900
-5.427700 1.724800
-5.404200 1.695700
-5.380800 1.668700
-5.357400 1.667300
-5.333900 1.634800
-5.310500 1.270800
-5.287100 1.274600
-5.263600 1.278400
-5.240200 1.282200
-5.216800 1.286100
-5.193400 1.290100
-5.169900 1.294100
-5.146500 1.298200
-5.123100 1.302300
-5.099600 1.306500
-5.076200 1.310700
-5.052800 1.588300
-5.029300 1.681000
-5.005900 1.763700
-4.982500 1.836400
-4.959000 2.811600
-4.935600 2.971700
-4.912200 2.408200
-4.888800 2.323900
-4.865300 2.263400
-4.841900 1.776200
-4.818500 0.619200
-4.795000 0.603200
-4.771600 0.436000
-4.748200 0.425000
-4.724700 0.414000
-4.701300 0.403000
-4.677900 0.392100
-4.654400 0.381100
-4.631000 0.370200
-4.607600 0.359200
-4.584200 0.348300
-4.560700 0.337400
-4.537300 0.326500
-4.513900 0.315600
-4.490400 0.435400
-4.467000 0.448600
-4.443600 0.528100
-4.420100 0.549800
-4.396700 0.838100
-4.373300 0.799600
-4.349800 0.384900
-4.326400 0.423900
-4.303000 0.464400
-4.279600 0.506500
-4.256100 0.550200
-4.232700 0.595500
-4.209300 0.642500
-4.185800 0.691000
-4.162400 0.741100
-4.139000 1.585500
-4.115500 2.205100
-4.092100 1.184600
-4.068700 1.069700
-4.045300 1.000400
-4.021800 1.001200
-3.998400 1.028200
-3.975000 1.056700
-3.951500 1.086800
-3.928100 2.379400
-3.904700 1.952200
-3.881200 2.047900
-3.857800 2.133900
-3.834400 2.299400
-3.810900 2.305100
-3.787500 2.402000
-3.764100 2.509100
-3.740700 3.376000
-3.717200 3.917100
-3.693800 3.534600
-3.670400 3.491700
-3.646900 3.690800
-3.623500 3.586100
-3.600100 3.678200
-3.576600 3.763800
-3.553200 3.842900
-3.529800 3.915500
-3.506300 3.981500
-3.482900 4.041000
-3.459500 4.181000
-3.436100 4.170000
-3.412600 4.175300
-3.389200 5.624200
-3.365800 5.630900
-3.342300 5.580800
-3.318900 5.348800
-3.295500 4.292200
-3.272000 3.979800
-3.248600 3.436300
-3.225200 2.830100
-3.201800 2.792900
-3.178300 2.758700
-3.154900 2.717300
-3.131500 2.801900
-3.108000 2.771800
-3.084600 2.639400
-3.061200 2.628800
-3.037700 2.622500
-3.014300 2.620400
-2.990900 2.783400
-2.967400 2.836100
-2.944000 3.108100
-2.920600 3.195600
-2.897200 3.277300
-2.873700 3.353100
-2.850300 3.423000
-2.826900 3.487000
-2.803400 3.545100
-2.780000 5.065800
-2.756600 6.759100
-2.733100 4.862000
-2.709700 2.790700
-2.686300 2.824800
-2.662800 3.415000
-2.639400 3.044200
-2.616000 1.982000
-2.592600 2.036000
-2.569100 2.094700
-2.545700 2.147000
-2.522300 2.207000
-2.498800 2.265800
-2.475400 2.323200
-2.452000 2.379300
-2.428500 2.435600
-2.405100 2.496600
-2.381700 2.472300
-2.358200 2.486100
-2.334800 2.500300
-2.311400 2.514700
-2.288000 2.538400
-2.264500 2.566300
-2.241100 2.972000
-2.217700 3.097300
-2.194200 3.183100
-2.170800 3.470800
-2.147400 3.708800
-2.123900 3.669600
-2.100500 3.404700
-2.077100 3.255500
-2.053700 3.091300
-2.030200 2.963900
-2.006800 3.055900
-1.983400 2.868500
-1.959900 2.493300
-1.936500 2.474100
-1.913100 2.463100
-1.889600 2.460600
-1.866200 2.455600
-1.842800 2.448200
-1.819300 2.438400
-1.795900 2.426100
-1.772500 2.411100
-1.749100 2.395800
-1.725600 2.295500
-1.702200 2.279000
-1.678800 2.172700
-1.655300 2.152700
-1.631900 1.876100
-1.608500 1.927300
-1.585000 1.935600
-1.561600 1.944200
-1.538200 1.952900
-1.514700 1.961800
-1.491300 1.963000
-1.467900 2.025900
-1.444500 2.085100
-1.421000 2.140500
-1.397600 2.664300
-1.374200 2.584700
-1.350700 2.510300
-1.327300 1.943400
-1.303900 1.975200
-1.280400 2.028400
-1.257000 2.067200
-1.233600 2.107600
-1.210200 2.241600
-1.186700 2.233300
-1.163300 2.226400
-1.139900 2.220900
-1.116400 2.216900
-1.093000 2.214300
-1.069600 2.213100
-1.046100 2.213400
-1.022700 2.252000
-0.999300 2.245000
-0.975800 2.461300
-0.952400 2.584000
-0.929000 2.638200
-0.905600 2.620500
-0.882100 2.443200
-0.858700 2.481800
-0.835300 2.518700
-0.811800 2.554000
-0.788400 2.587500
-0.765000 2.619300
-0.741500 2.649400
-0.718100 2.486700
-0.694700 2.518600
-0.671200 2.482900
-0.647800 2.504200
-0.624400 2.523300
-0.601000 4.089900
-0.577500 4.087400
-0.554100 6.271800
-0.530700 2.992000
-0.507200 2.727700
-0.483800 2.492600
-0.460400 2.286600
-0.436900 2.387800
-0.413500 2.142500
-0.390100 2.290500
-0.366600 2.440400
-0.343200 2.993500
-0.319800 3.412500
-0.296400 3.570700
-0.272900 3.889900
-0.249500 4.711500
-0.226100 5.115600
-0.202600 5.511600
-0.179200 5.531300
-0.155800 5.251600
-0.132300 3.610700
-0.108900 3.364800
-0.085500 3.119700
-0.062100 2.875400
-0.038600 2.581700
-0.015200 2.403900
0.008200 2.313900
0.031700 2.218500
0.055100 2.205800
0.078500 2.201300
0.102000 2.241700
0.125400 2.541900
0.148800 2.929000
0.172300 3.467800
0.195700 4.004400
0.219100 4.552800
0.242500 6.000400
0.266000 4.786100
0.289400 1.673000
0.312800 1.620900
0.336300 2.524200
0.359700 2.512400
0.383100 1.816200
0.406600 1.613400
0.430000 1.720500
0.453400 2.717700
0.476900 3.726000
0.500300 4.014200
0.523700 3.905800
0.547100 3.328700
0.570600 3.440800
0.594000 3.562200
0.617400 3.635300
0.640900 3.642900
0.664300 3.650900
0.687700 6.578100
0.711200 4.554900
0.734600 4.720900
0.758000 4.653600
0.781400 6.915000
0.804900 4.580900
0.828300 4.195200
0.851700 3.834800
0.875200 3.207500
0.898600 2.747800
0.922000 2.449400
0.945500 2.261000
0.968900 1.892200
0.992300 2.117100
1.015800 2.608400
1.039200 3.142400
1.062600 5.675500
1.086000 3.994800
1.109500 4.037300
1.132900 4.214800
1.156300 4.388200
1.179800 4.557300
1.203200 4.722200
1.226600 7.311400
1.250100 3.750900
1.273500 3.904800
1.296900 3.840200
1.320400 4.704400
1.343800 6.233100
1.367200 5.827700
1.390600 4.472400
1.414100 4.148500
1.437500 4.076000
1.460900 3.952700
1.484400 4.233000
1.507800 4.212500
1.531200 3.988700
1.554700 4.076300
1.578100 4.392600
1.601500 4.383600
1.625000 4.414600
1.648400 4.331200
1.671800 4.254700
1.695200 3.976100
1.718700 2.788400
1.742100 2.802300
1.765500 2.875900
1.789000 3.742200
1.812400 4.515900
1.835800 5.915900
1.859300 8.059900
1.882700 9.141100
1.906100 9.696200
1.929500 7.348700
1.953000 6.240800
1.976400 6.129200
1.999800 7.903400
2.023300 8.348100
2.046700 9.605800
2.070100 7.251500
2.093600 6.150700
2.117000 5.568600
2.140400 4.862300
2.163900 5.099600
2.187300 4.116600
2.210700 4.316600
2.234100 4.317000
2.257600 4.521400
2.281000 4.593500
2.304400 4.714000
2.327900 4.863000
2.351300 5.040400
2.374700 5.184500
2.398200 5.305600
2.421600 5.137900
2.445000 4.898200
2.468500 4.688400
2.491900 4.432700
2.515300 4.131000
2.538700 3.788400
2.562200 3.084000
2.585600 3.020900
2.609000 4.053900
2.632500 5.055600
2.655900 4.952300
2.679300 6.090200
2.702800 5.990300
2.726200 7.058600
2.749600 7.398100
2.773100 6.916800
2.796500 6.622300
2.819900 5.282700
2.843300 6.189800
2.866800 6.186400
2.890200 5.203200
2.913600 4.943800
2.937100 4.718500
2.960500 4.282300
2.983900 4.330400
3.007400 4.257900
3.030800 4.182000
3.054200 4.292800
3.077600 4.248800
3.101100 4.147900
3.124500 4.214100
3.147900 4.300100
3.171400 4.397000
3.194800 4.516400
3.218200 4.620500
3.241700 4.410100
3.265100 5.216500
3.288500 5.923100
3.312000 6.395300
3.335400 6.372600
3.358800 6.206900
3.382200 5.996800
3.405700 5.783600
3.429100 5.631900
3.452500 4.937900
3.476000 4.796700
3.499400 4.657300
3.522800 4.519800
3.546300 4.561700
3.569700 4.224200
3.593100 4.290100
3.616600 4.009600
3.640000 3.917100
3.663400 3.535500
3.686800 3.530300
3.710300 3.527900
3.733700 3.645100
3.757100 3.703000
3.780600 3.927300
3.804000 5.069900
3.827400 5.664400
3.850900 6.352000
3.874300 5.273500
3.897700 5.273300
3.921100 5.279700
3.944600 5.148600
3.968000 5.107300
3.991400 4.557100
4.014900 4.177100
4.038300 3.932700
4.061700 3.731800
4.085200 3.378100
4.108600 3.359300
4.132000 3.358000
4.155500 3.599800
4.178900 3.767400
4.202300 3.795000
4.225700 3.818900
4.249200 3.796100
4.272600 3.839600
4.296000 3.786800
4.319500 4.659700
4.342900 5.604700
4.366300 6.312700
4.389800 7.206000
4.413200 5.080100
4.436600 4.632300
4.460100 4.760600
4.483500 4.819700
4.506900 4.848500
4.530300 5.010300
4.553800 5.118400
4.577200 5.013300
4.600600 4.903600
4.624100 5.000800
4.647500 4.849200
4.670900 4.640000
4.694400 4.509100
4.717800 4.306000
4.741200 4.196800
4.764700 3.973700
4.788100 3.961800
4.811500 3.430500
4.834900 3.419900
4.858400 3.537400
4.881800 4.960600
4.905200 5.206300
4.928700 4.108400
4.952100 4.214300
4.975500 5.092600
4.999000 4.675400
5.022400 4.817600
5.045800 4.726300
5.069200 4.484900
5.092700 4.427200
5.116100 4.456600
5.139500 4.309300
5.163000 4.015800
5.186400 6.394400
5.209800 3.730900
5.233300 3.705500
5.256700 3.905700
5.280100 5.868400
5.303600 4.130700
5.327000 3.882100
5.350400 3.638900
5.373800 3.113900
5.397300 3.018100
5.420700 2.932600
5.444100 2.857500
5.467600 2.792700
5.491000 2.738300
5.514400 2.641500
5.537900 2.641300
5.561300 2.561100
5.584700 2.647600
5.608200 2.670700
5.631600 3.713000
5.655000 2.963800
5.678400 2.744300
5.701900 2.779900
5.725300 3.142500
5.748700 2.631200
5.772200 2.489500
5.795600 2.502800
5.819000 2.492900
5.842500 2.492900
5.865900 2.681600
5.889300 2.703300
5.912700 2.719300
5.936200 2.729700
5.959600 2.960600
5.983000 2.963600
6.006500 3.072600
6.029900 2.854100
6.053300 2.729000
6.076800 1.840500
6.100200 1.879500
6.123600 1.908900
6.147100 1.695000
6.170500 1.513000
6.193900 1.395200
6.217300 2.898000
6.240800 4.137800
6.264200 3.706000
6.287600 4.712800
6.311100 4.620400
6.334500 2.933000
6.357900 2.970300
6.381400 3.084100
6.404800 4.030500
6.428200 3.680100
6.451700 3.921000
6.475100 4.151700
6.498500 4.376200
6.521900 4.867000
6.545400 5.246600
6.568800 5.016700
6.592200 4.622000
6.615700 3.256400
6.639100 3.064200
6.662500 2.881300
6.686000 4.753500
6.709400 2.318900
6.732800 1.609300
6.756300 0.563300
6.779700 0.507500
6.803100 0.454400
6.826500 0.404000
6.850000 0.356300
6.873400 0.311300
6.896800 0.269000
6.920300 0.229300
6.943700 0.192400
6.967100 0.000000
6.990600 0.000000
7.014000 0.000000
7.037400 0.000000
7.060800 0.000000
7.084300 0.000000
7.107700 0.000000
7.131100 0.000000
7.154600 0.000000
7.178000 0.000000
7.201400 0.000000
7.224900 0.000000
7.248300 0.000000
7.271700 0.000000
7.295200 0.000000
7.318600 0.000000
7.342000 0.000000
7.365400 0.000000
7.388900 0.000000
7.412300 0.000000
7.435700 0.000000
7.459200 0.678700
7.482600 0.857500
7.506000 1.058200
7.529500 1.033400
7.552900 1.173400
7.576300 1.310500
7.599800 1.444700
7.623200 1.713000
7.646600 1.874700
7.670000 1.974100
7.693500 2.158200
7.716900 2.345700
7.740300 2.536500
7.763800 2.730700
7.787200 2.928300
7.810600 3.006800
7.834100 3.097100
7.857500 3.770100
7.880900 3.116800
7.904300 2.942600
7.927800 2.737100
7.951200 2.543400
7.974600 2.373400
7.998100 2.216400
8.021500 2.072400
8.044900 2.080200
8.068400 2.080300
8.091800 2.098200
8.115200 2.201700
8.138700 2.175500
8.162100 1.905300
8.185500 1.883500
8.208900 1.869700
8.232400 1.864000
8.255800 1.866400
8.279200 1.862800
8.302700 1.881900
8.326100 1.878500
8.349500 1.877100
8.373000 1.810300
8.396400 1.782200
8.419800 1.758100
8.443300 1.735300
8.466700 1.713600
8.490100 1.693100
8.513500 1.627200
8.537000 1.593100
8.560400 1.600200
8.583800 1.607800
8.607300 1.615900
8.630700 1.506600
8.654100 1.532400
8.677600 1.550800
8.701000 1.585500
8.724400 1.812500
8.747900 1.879900
8.771300 1.955000
8.794700 2.037900
8.818100 2.128600
8.841600 2.227000
8.865000 2.383400
8.888400 2.345400
8.911900 2.652200
8.935300 2.548500
8.958700 2.434900
8.982200 2.225400
9.005600 2.130900
9.029000 2.028900
9.052400 1.931700
9.075900 1.660700
9.099300 1.633900
9.122700 1.533700
9.146200 1.530600
9.169600 1.392900
9.193000 1.267800
9.216500 0.872200
9.239900 1.806500
9.263300 2.051700
9.286800 2.435500
9.310200 4.384000
9.333600 5.950500
9.357000 5.231500
9.380500 5.267900
9.403900 5.227600
9.427300 4.729100
9.450800 4.786500
9.474200 4.792700
9.497600 4.626000
9.521100 4.221000
9.544500 4.264800
9.567900 4.993400
9.591400 4.264100
9.614800 3.450400
9.638200 3.236000
9.661600 2.909500
9.685100 4.217700
9.708500 2.670100
9.731900 2.156500
9.755400 1.941300
9.778800 1.486600
9.802200 0.954500
9.825700 0.718100
9.849100 0.602900
9.872500 0.497000
9.895900 0.400400
9.919400 0.313100
9.942800 0.235100
9.966200 0.000000
9.989700 0.000000
10.013100 0.000000
10.036500 0.000000
10.060000 0.000000
10.083400 0.000000
10.106800 0.000000
10.130300 0.000000
10.153700 0.000000
10.177100 0.000000
10.200500 0.000000
10.224000 0.000000
10.247400 0.000000
10.270800 0.000000
10.294300 0.000000
10.317700 0.000000
10.341100 0.000000
10.364600 0.000000
10.388000 0.000000
10.411400 0.000000
10.434900 0.000000
10.458300 0.000000
10.481700 0.000000
10.505100 0.000000
10.528600 0.000000
10.552000 0.000000
10.575400 0.000000
10.598900 0.000000
10.622300 0.000000
10.645700 0.000000
10.669200 0.000000
10.692600 0.000000
10.716000 0.000000
10.739500 0.000000
10.762900 0.000000
10.786300 0.000000
10.809700 0.000000
10.833200 0.000000
10.856600 0.000000
10.880000 0.000000
10.903500 0.000000
10.926900 0.000000
10.950300 0.000000
10.973800 0.000000
10.997200 0.000000
11.020600 0.000000
11.044000 0.000000
11.067500 0.000000
11.090900 0.000000
11.114300 0.000000
11.137800 0.000000
11.161200 0.000000
11.184600 0.000000
11.208100 0.000000
11.231500 0.000000
11.254900 0.000000
11.278400 0.000000
11.301800 0.000000
11.325200 0.000000
11.348600 0.000000
11.372100 0.000000
11.395500 0.000000
11.418900 0.000000
11.442400 0.000000
11.465800 0.000000
11.489200 0.000000
11.512700 0.000000
11.536100 0.000000
11.559500 0.000000
11.583000 0.000000
11.606400 0.000000
11.629800 0.000000
11.653200 0.000000
11.676700 0.000000
11.700100 0.000000
11.723500 0.000000
11.747000 0.000000
11.770400 0.000000
11.793800 0.000000
11.817300 0.000000
11.840700 0.000000
11.864100 0.000000
11.887500 0.000000
11.911000 0.000000
11.934400 0.000000
11.957800 0.000000
11.981300 0.000000
12.004700 0.000000
12.028100 0.000000
12.051600 0.000000
12.075000 0.000000
12.098400 0.000000
12.121900 0.000000
12.145300 0.000000
12.168700 0.000000
12.192100 0.000000
12.215600 0.000000
12.239000 0.000000
12.262400 0.000000
12.285900 0.000000
12.309300 0.000000
12.332700 0.000000
12.356200 0.000000
12.379600 0.000000
12.403000 0.000000
12.426500 0.000000
12.449900 0.000000
12.473300 0.000000
12.496700 0.000000
12.520200 0.000000
12.543600 0.000000
12.567000 0.000000
12.590500 0.000000
12.613900 0.000000
12.637300 0.000000
12.660800 0.000000
12.684200 0.000000
12.707600 0.000000
12.731100 0.000000
12.754500 0.000000
12.777900 0.185800
12.801300 0.213000
12.824800 0.241100
12.848200 0.270300
12.871600 0.300500
12.895100 0.282600
12.918500 0.293500
12.941900 0.304300
12.965400 0.315200
12.988800 0.326100
13.012200 0.498400
13.035600 0.525100
13.059100 0.552300
13.082500 0.580100
13.105900 0.608400
13.129400 0.637200
13.152800 0.593100
13.176200 0.610600
13.199700 1.093400
13.223100 1.175500
13.246500 1.182800
13.270000 1.242300
13.293400 1.372200
13.316800 1.000600
13.340200 1.021900
13.363700 1.043000
13.387100 1.064000
13.410500 1.144100
13.434000 1.169200
13.457400 1.194200
13.480800 1.219300
13.504300 1.244200
13.527700 1.269200
13.551100 1.294200
13.574600 1.319100
13.598000 1.344000
13.621400 1.368900
13.644800 1.393800
13.668300 1.418700
13.691700 1.549500
13.715100 1.571900
13.738600 1.595900
13.762000 1.621600
13.785400 1.648900
13.808900 1.741800
13.832300 1.792700
13.855700 1.833100
13.879100 1.852000
13.902600 1.870000
13.926000 1.888500
13.949400 1.907400
13.972900 1.954700
13.996300 2.007100
14.019700 2.066200
14.043200 2.132900
14.066600 2.209400
14.090000 2.293700
14.113500 3.259600
14.136900 3.685900
14.160300 2.719400
14.183700 2.888500
14.207200 2.841700
14.230600 2.927300
14.254000 2.846100
14.277500 2.922500
14.300900 2.914600
14.324300 2.893400
14.347800 2.792100
14.371200 2.607400
14.394600 2.626000
14.418100 2.598300
14.441500 2.570400
14.464900 2.542200
14.488300 2.514000
14.511800 2.485500
14.535200 2.456900
14.558600 2.428000
14.582100 2.490100
14.605500 2.461200
14.628900 2.505000
14.652400 3.254600
14.675800 3.780100
14.699200 3.843400
14.722700 3.122200
14.746100 2.971600
14.769500 2.959500
14.792900 2.983600
14.816400 3.007900
14.839800 3.032400
14.863200 3.057000
14.886700 3.081900
14.910100 3.107000
14.933500 3.161500
14.957000 3.228500
14.980400 3.272800
15.003800 3.316400
15.027200 3.364600
15.050700 3.417600
15.074100 3.475400
15.097500 3.537900
15.121000 4.275100
15.144400 4.585400
15.167800 4.905400
15.191300 5.706300
15.214700 6.075700
15.238100 4.489100
15.261600 4.002400
15.285000 3.721000
15.308400 3.852800
15.331800 4.293300
15.355300 4.453500
15.378700 4.561900
15.402100 4.647600
15.425600 4.742200
15.449000 4.853800
15.472400 4.968600
15.495900 4.853600
15.519300 5.266300
15.542700 5.437400
15.566200 5.661900
15.589600 5.870500
15.613000 9.978500
15.636400 5.258200
15.659900 5.127100
15.683300 4.977400
15.706700 4.897300
15.730200 4.774700
15.753600 4.867200
15.777000 5.827900
15.800500 5.909000
15.823900 5.368400
15.847300 5.146900
15.870700 5.735700
15.894200 6.342500
15.917600 6.544600
15.941000 6.047600
15.964500 5.999600
15.987900 6.083800
16.011300 5.574200
16.034800 5.621100
16.058200 5.253900
16.081600 5.201100
16.105100 4.997300
16.128500 4.957600
16.151900 5.006000
16.175300 5.008100
16.198800 4.959000
16.222200 4.910300
16.245600 4.985400
16.269100 5.113700
16.292500 5.663900
16.315900 5.557500
16.339400 5.470500
16.362800 5.356700
16.386200 5.274700
16.409700 5.119700
16.433100 5.113400
16.456500 5.114100
16.479900 5.116600
16.503400 4.967200
16.526800 4.999400
16.550200 5.231100
16.573700 5.419200
16.597100 5.343800
16.620500 6.237000
16.644000 6.798500
16.667400 5.820700
16.690800 5.812700
16.714300 5.699300
16.737700 5.552200
16.761100 5.072900
16.784500 5.480600
16.808000 5.451100
16.831400 5.436700
16.854800 5.508700
16.878300 5.534100
16.901700 6.502200
16.925100 6.255500
16.948600 6.372900
16.972000 7.614200
16.995400 5.874700
17.018800 5.814900
17.042300 5.536600
17.065700 5.490400
17.089100 5.883800
17.112600 5.698400
17.136000 4.924700
17.159400 4.960900
17.182900 5.252200
17.206300 5.153500
17.229700 5.077200
17.253200 4.966600
17.276600 4.858900
17.300000 4.756100
17.323400 4.851400
17.346900 3.982200
17.370300 4.009700
17.393700 4.392600
17.417200 5.357600
17.440600 5.974800
17.464000 7.009900
17.487500 8.031900
17.510900 7.949700
17.534300 7.058900
17.557800 5.702900
17.581200 5.327300
17.604600 5.339000
17.628000 5.381100
17.651500 6.038200
17.674900 6.231900
17.698300 6.455700
17.721800 6.904100
17.745200 7.185400
17.768600 8.048600
17.792100 8.220300
17.815500 7.501200
17.838900 7.558500
17.862300 7.131700
17.885800 7.154800
17.909200 7.165100
17.932600 6.907700
17.956100 6.651500
17.979500 6.506000
18.002900 6.570900
18.026400 5.990000
18.049800 5.959500
18.073200 6.067900
18.096700 5.801500
18.120100 5.864600
18.143500 5.944500
18.166900 5.953600
18.190400 5.922000
18.213800 5.985500
18.237200 5.874500
18.260700 6.530700
18.284100 6.708900
18.307500 6.555800
18.331000 9.515200
18.354400 6.263700
18.377800 5.851600
18.401300 5.468400
18.424700 5.395900
18.448100 5.280000
18.471500 5.226800
18.495000 5.178100
18.518400 5.313600
18.541800 5.328200
18.565300 5.525700
18.588700 5.410100
18.612100 5.299400
18.635600 5.210600
18.659000 4.782200
18.682400 4.775700
18.705900 4.658800
18.729300 4.687100
18.752700 4.694500
18.776100 4.682000
18.799600 4.596200
18.823000 4.586400
18.846400 4.430600
18.869900 3.912200
18.893300 4.136100
18.916700 4.234000
18.940200 4.386900
18.963600 4.627100
18.987000 4.895300
19.010400 5.841400
19.033900 6.909800
19.057300 7.298600
19.080700 7.553500
19.104200 5.401800
19.127600 5.149000
19.151000 4.997700
19.174500 4.976000
19.197900 4.958400
19.221300 4.999700
19.244800 5.313000
19.268200 5.587700
19.291600 6.198000
19.315000 7.006000
19.338500 7.339500
19.361900 7.767300
19.385300 7.089800
19.408800 6.719500
19.432200 5.879900
19.455600 5.832000
19.479100 5.795600
19.502500 5.917500
19.525900 6.055600
19.549400 6.584200
19.572800 6.567200
19.596200 6.450400
19.619600 5.612700
19.643100 6.916400
19.666500 7.160800
19.689900 6.680500
19.713400 6.348700
19.736800 6.375900
19.760200 10.514200
19.783700 8.243400
19.807100 4.592000
19.830500 5.157300
19.853900 5.108100
19.877400 5.021100
19.900800 4.994200
19.924200 4.982900
19.947700 4.987400
19.971100 5.079000
19.994500 11.048200
20.018000 6.472800
20.041400 6.400500
20.064800 5.654300
20.088300 5.493100
20.111700 5.334000
20.135100 5.758300
20.158500 4.369000
20.182000 4.404300
20.205400 4.344300
20.228800 4.436300
20.252300 4.545800
20.275700 4.672700
20.299100 5.035300
20.322600 7.747300
20.346000 8.812800
20.369400 7.262100
20.392900 6.429400
20.416300 5.259600
20.439700 4.702100
20.463100 3.599400
20.486600 3.567300
20.510000 3.739200
20.533400 4.571300
20.556900 4.519300
20.580300 3.624500
20.603700 3.615900
20.627200 3.582400
20.650600 3.584100
20.674000 3.514000
20.697500 3.444300
20.720900 3.840000
20.744300 3.563600
20.767700 4.243800
20.791200 4.656700
20.814600 5.037800
20.838000 5.363000
20.861500 5.391500
20.884900 5.924500
20.908300 5.923600
20.931800 6.462500
20.955200 7.054800
20.978600 6.467000
21.002000 6.345600
21.025500 5.147100
21.048900 5.063300
21.072300 5.067900
21.095800 5.093900
21.119200 5.519100
21.142600 5.690200
21.166100 5.878600
21.189500 6.295700
21.212900 5.939800
21.236400 5.662400
21.259800 5.684200
21.283200 5.396300
21.306600 4.545300
21.330100 4.383300
21.353500 4.352300
21.376900 4.476400
21.400400 4.524600
21.423800 4.808400
21.447200 4.761800
21.470700 4.720400
21.494100 4.684200
21.517500 4.653200
21.541000 4.989400
21.564400 4.964000
21.587800 5.238700
21.611200 5.481800
21.634700 5.812800
21.658100 6.765100
21.681500 11.770800
21.705000 6.847200
21.728400 4.722700
21.751800 4.509500
21.775300 4.234000
21.798700 4.016400
21.822100 4.075400
21.845500 4.545600
21.869000 5.150500
21.892400 5.292600
21.915800 5.043100
21.939300 4.707100
21.962700 4.645000
21.986100 4.583400
22.009600 4.651500
22.033000 4.578500
22.056400 4.506100
22.079900 4.457400
22.103300 4.315600
22.126700 4.156500
22.150100 4.009000
22.173600 4.041600
22.197000 4.614600
22.220400 4.883800
22.243900 4.899400
22.267300 5.243400
22.290700 5.212600
22.314200 5.244600
22.337600 5.290300
22.361000 6.034300
22.384500 6.150800
22.407900 7.984600
22.431300 8.529100
22.454700 6.192900
22.478200 6.126700
22.501600 5.828500
22.525000 5.887600
22.548500 5.645600
22.571900 5.498300
22.595300 5.579100
22.618800 5.412600
22.642200 5.240600
22.665600 5.075900
22.689100 5.155900
22.712500 5.026000
22.735900 4.648300
22.759300 5.103900
22.782800 5.376900
22.806200 5.506900
22.829600 4.918000
22.853100 4.738700
22.876500 4.661700
22.899900 4.622900
22.923400 4.598000
22.946800 4.773700
22.970200 5.200900
22.993600 5.589900
23.017100 5.639100
23.040500 5.642100
23.063900 5.646300
23.087400 5.652300
23.110800 5.661600
23.134200 5.585100
23.157700 5.688000
23.181100 5.764600
23.204500 5.831400
23.228000 5.961500
23.251400 6.108100
23.274800 6.172200
23.298200 6.234100
23.321700 6.284400
23.345100 6.405300
23.368500 6.458300
23.392000 6.527600
23.415400 6.507400
23.438800 6.436200
23.462300 6.474300
23.485700 6.414400
23.509100 6.344500
23.532600 6.275400
23.556000 6.974600
23.579400 7.241300
23.602800 6.617300
23.626300 6.239800
23.649700 5.885700
23.673100 5.666900
23.696600 5.507400
23.720000 5.229600
23.743400 5.135700
23.766900 5.242700
23.790300 5.000500
23.813700 4.461600
23.837100 4.220900
23.860600 3.987300
23.884000 3.601600
23.907400 3.222200
23.930900 2.790300
23.954300 2.653800
23.977700 2.403000
24.001200 2.230700
24.024600 2.368400
24.048000 2.217200
24.071500 2.029600
24.094900 1.891100
24.118300 1.837500
24.141700 1.720400
24.165200 1.379500
24.188600 1.327500
24.212000 1.155000
24.235500 1.120000
24.258900 1.084400
24.282300 1.048100
24.305800 1.011000
24.329200 0.973200
24.352600 0.934700
24.376100 0.937800
24.399500 0.794600
24.422900 0.636100
24.446300 0.595000
24.469800 0.555100
24.493200 0.516400
24.516600 0.478900
24.540100 0.442500
24.563500 0.407300
24.586900 0.373200
24.610400 0.340300
24.633800 0.308600
24.657200 0.278100
24.680700 0.169200
24.704100 0.149000
24.727500 0.000000
24.750900 0.000000
24.774400 0.000000
24.797800 0.000000
24.821200 0.000000
24.844700 0.000000
24.868100 0.000000
24.891500 0.000000
24.915000 0.000000
24.938400 0.000000
24.961800 0.000000
24.985200 0.000000
25.008700 0.000000
25.032100 0.000000
25.055500 0.000000
25.079000 0.000000
25.102400 0.000000
25.125800 0.000000
25.149300 0.000000
25.172700 0.000000
25.196100 0.123900
25.219600 0.141300
25.243000 0.159600
25.266400 0.178700
25.289800 0.198800
25.313300 0.219700
25.336700 0.241400
25.360100 0.264100
25.383600 0.287600
25.407000 0.312100
25.430400 0.337400
25.453900 0.363500
25.477300 0.390600
25.500700 0.418500
25.524200 0.447300
25.547600 0.486900
25.571000 0.529800
25.594400 0.575700
25.617900 0.624600
25.641300 0.676500
25.664700 0.731400
25.688200 0.789300
25.711600 0.850200
25.735000 1.209200
25.758500 1.304900
25.781900 1.404900
25.805300 1.490800
25.828700 1.430600
25.852200 1.440900
25.875600 1.464800
25.899000 1.502300
25.922500 1.560300
25.945900 1.612500
25.969300 1.669900
25.992800 1.972200
26.016200 3.149600
26.039600 2.849200
26.063100 3.268400
26.086500 3.322900
26.109900 3.330100
26.133300 2.895800
26.156800 2.934500
26.180200 2.957700
26.203600 3.107800
26.227100 3.046700
26.250500 2.987300
26.273900 3.048400
26.297400 3.004000
26.320800 2.917000
26.344200 3.116200
26.367700 6.732400
26.391100 0.795500
26.414500 0.426500
26.437900 0.391300
26.461400 0.874200
26.484800 1.013200
26.508200 1.168500
26.531700 1.513800
26.555100 1.617200
26.578500 1.722300
26.602000 1.828900
26.625400 1.937200
26.648800 1.886600
26.672300 1.755600
26.695700 1.405200
26.719100 1.283500
26.742500 1.357400
26.766000 1.441200
26.789400 1.534900
26.812800 1.638400
26.836300 3.032900
26.859700 3.016500
26.883100 2.947700
26.906600 3.992300
26.930000 4.423200
26.953400 4.774400
26.976800 4.729900
27.000300 5.007100
27.023700 5.592600
27.047100 5.425200
27.070600 5.258900
27.094000 5.093400
27.117400 4.579300
27.140900 4.747100
27.164300 5.756200
27.187700 4.313900
27.211200 4.112800
27.234600 3.948400
27.258000 3.754700
27.281400 3.139800
27.304900 2.995900
27.328300 2.926600
27.351700 3.093600
27.375200 2.470900
27.398600 2.376900
27.422000 1.964100
27.445500 1.645900
27.468900 1.472800
27.492300 1.367700
27.515800 2.617300
27.539200 3.853100
27.562600 4.281600
27.586000 4.690000
27.609500 4.568800
27.632900 4.423300
27.656300 3.406500
27.679800 3.407600
27.703200 3.400000
27.726600 3.375500
27.750100 3.334200
27.773500 3.276000
27.796900 4.077100
27.820300 3.541300
27.843800 3.393100
27.867200 3.251100
27.890600 2.796700
27.914100 2.653100
27.937500 2.626000
27.960900 2.542400
27.984400 2.436800
28.007800 2.358600
28.031200 2.282100
28.054700 2.333100
28.078100 2.606800
28.101500 2.353000
28.124900 2.210800
28.148400 2.084300
28.171800 1.741100
28.195200 1.668500
28.218700 1.597800
28.242100 1.529200
28.265500 1.462500
28.289000 1.397800
28.312400 1.287200
28.335800 1.214700
28.359300 1.146400
28.382700 1.086400
28.406100 1.029100
28.429500 0.974400
28.453000 0.922400
28.476400 0.640800
28.499800 0.632400
28.523300 0.624300
28.546700 0.616800
28.570100 0.631700
28.593600 0.639600
28.617000 0.674600
28.640400 0.649300
28.663900 0.624100
28.687300 0.599000
28.710700 0.573900
28.734100 0.548900
28.757600 0.524000
28.781000 0.499200
28.804400 0.474500
28.827900 0.449800
28.851300 0.425200
28.874700 0.400700
28.898200 0.391600
28.921600 0.343900
28.945000 0.298500
28.968400 0.255400
28.991900 0.214700
29.015300 0.000000
29.038700 0.000000
29.062200 0.000000
29.085600 0.000000
29.109000 0.000000
29.132500 0.000000
29.155900 0.000000
29.179300 0.000000
29.202800 0.000000
29.226200 0.000000
29.249600 0.000000
29.273000 0.000000
29.296500 0.000000
29.319900 0.000000
29.343300 0.000000
29.366800 0.000000
29.390200 0.000000
29.413600 0.000000
29.437100 0.000000
29.460500 0.000000
29.483900 0.000000
29.507400 0.000000
29.530800 0.000000
29.554200 0.000000
29.577600 0.000000
29.601100 0.000000
29.624500 0.000000
29.647900 0.000000
29.671400 0.000000
29.694800 0.000000
29.718200 0.000000
29.741700 0.000000
29.765100 0.000000
29.788500 0.000000
29.811900 0.000000
29.835400 0.000000
29.858800 0.000000
29.882200 0.000000
29.905700 0.000000
29.929100 0.000000
29.952500 0.000000
29.976000 0.000000
29.999400 0.000000
30.022800 0.000000
30.046300 0.000000
30.069700 0.000000
30.093100 0.000000
30.116500 0.000000
30.140000 0.000000
30.163400 0.000000
30.186800 0.000000
30.210300 0.000000
30.233700 0.000000
30.257100 0.000000
30.280600 0.000000
30.304000 0.000000
30.327400 0.000000
30.350900 0.000000
30.374300 0.000000
30.397700 0.000000
30.421100 0.000000
30.444600 0.000000
30.468000 0.000000
30.491400 0.000000
30.514900 0.000000
30.538300 0.000000
30.561700 0.000000
30.585200 0.000000
30.608600 0.000000
30.632000 0.000000
30.655500 0.000000
30.678900 0.000000
30.702300 0.000000
30.725700 0.000000
30.749200 0.000000
30.772600 0.000000
30.796000 0.000000
30.819500 0.000000
30.842900 0.000000
30.866300 0.000000
30.889800 0.000000
30.913200 0.000000
30.936600 0.000000
30.960000 0.000000
30.983500 0.000000
31.006900 0.000000
31.030300 0.000000
31.053800 0.000000
31.077200 0.000000
31.100600 0.000000
31.124100 0.000000
e
