set title 'mp-979254 - Density of States'
set xlabel 'Energy (eV)'
set ylabel 'DOS (states/eV)'
set grid
set xrange [-10:10]
set yrange [0:3.400]
set xzeroaxis lt -1
set terminal png size 800,600
set output 'mp-979254_dos_gnuplot.png'
plot '-' using 1:2 with lines title 'DOS'
-19.943300 0.000000
-19.910300 0.000000
-19.877200 0.000000
-19.844100 0.000000
-19.811000 0.000000
-19.777900 0.000000
-19.744900 0.000000
-19.711800 0.000000
-19.678700 0.000000
-19.645600 0.000000
-19.612500 0.000000
-19.579500 0.000000
-19.546400 0.000000
-19.513300 0.000000
-19.480200 0.000000
-19.447200 0.000000
-19.414100 0.000000
-19.381000 0.000000
-19.347900 0.000000
-19.314800 0.000000
-19.281800 0.000000
-19.248700 0.000000
-19.215600 0.000000
-19.182500 0.000000
-19.149500 0.000000
-19.116400 0.000000
-19.083300 0.000000
-19.050200 0.000000
-19.017100 0.000000
-18.984100 0.000000
-18.951000 0.000000
-18.917900 0.000000
-18.884800 0.000000
-18.851700 0.000000
-18.818700 0.000000
-18.785600 0.000000
-18.752500 0.000000
-18.719400 0.000000
-18.686400 0.000000
-18.653300 0.000000
-18.620200 0.000000
-18.587100 0.000000
-18.554000 0.000000
-18.521000 0.000000
-18.487900 0.000000
-18.454800 0.000000
-18.421700 0.000000
-18.388600 0.000000
-18.355600 0.000000
-18.322500 0.000000
-18.289400 0.000000
-18.256300 0.000000
-18.223300 0.000000
-18.190200 0.000000
-18.157100 0.000000
-18.124000 0.000000
-18.090900 0.000000
-18.057900 0.000000
-18.024800 0.000000
-17.991700 0.000000
-17.958600 0.000000
-17.925600 0.000000
-17.892500 0.000000
-17.859400 0.000000
-17.826300 0.000000
-17.793200 0.000000
-17.760200 0.000000
-17.727100 0.000000
-17.694000 0.000000
-17.660900 0.000000
-17.627800 0.000000
-17.594800 0.000000
-17.561700 0.000000
-17.528600 0.000000
-17.495500 0.000000
-17.462500 0.000000
-17.429400 0.000000
-17.396300 0.000000
-17.363200 0.000000
-17.330100 0.000000
-17.297100 0.000000
-17.264000 0.000000
-17.230900 0.000000
-17.197800 0.000000
-17.164700 0.000000
-17.131700 0.000000
-17.098600 0.000000
-17.065500 0.000000
-17.032400 0.000000
-16.999400 0.000000
-16.966300 0.000000
-16.933200 49.009300
-16.900100 415.613200
-16.867000 357.972100
-16.834000 43.803600
-16.800900 0.000000
-16.767800 0.000000
-16.734700 0.000000
-16.701600 0.000000
-16.668600 0.000000
-16.635500 0.000000
-16.602400 0.000000
-16.569300 0.000000
-16.536300 0.000000
-16.503200 0.000000
-16.470100 0.000000
-16.437000 0.000000
-16.403900 0.000000
-16.370900 0.000000
-16.337800 0.000000
-16.304700 0.000000
-16.271600 0.000000
-16.238600 0.000000
-16.205500 0.000000
-16.172400 0.000000
-16.139300 0.000000
-16.106200 0.000000
-16.073200 0.000000
-16.040100 0.000000
-16.007000 0.000000
-15.973900 0.000000
-15.940800 0.000000
-15.907800 0.000000
-15.874700 0.000000
-15.841600 0.000000
-15.808500 0.000000
-15.775500 0.000000
-15.742400 0.000000
-15.709300 0.000000
-15.676200 0.000000
-15.643100 0.000000
-15.610100 0.000000
-15.577000 0.000000
-15.543900 0.000000
-15.510800 0.000000
-15.477700 0.000000
-15.444700 0.000000
-15.411600 0.000000
-15.378500 0.000000
-15.345400 0.000000
-15.312400 0.000000
-15.279300 0.000000
-15.246200 0.000000
-15.213100 0.000000
-15.180000 0.000000
-15.147000 0.000000
-15.113900 0.000000
-15.080800 0.000000
-15.047700 0.000000
-15.014700 0.000000
-14.981600 0.000000
-14.948500 0.000000
-14.915400 0.000000
-14.882300 0.000000
-14.849300 0.000000
-14.816200 0.000000
-14.783100 0.000000
-14.750000 0.000000
-14.716900 0.000000
-14.683900 0.000000
-14.650800 0.000000
-14.617700 0.000000
-14.584600 0.000000
-14.551600 0.000000
-14.518500 0.000000
-14.485400 0.000000
-14.452300 0.000000
-14.419200 0.000000
-14.386200 0.000000
-14.353100 0.000000
-14.320000 0.000000
-14.286900 0.000000
-14.253800 0.000000
-14.220800 0.000000
-14.187700 0.000000
-14.154600 0.000000
-14.121500 0.000000
-14.088500 0.000000
-14.055400 0.000000
-14.022300 0.000000
-13.989200 0.000000
-13.956100 0.000000
-13.923100 0.000000
-13.890000 0.000000
-13.856900 0.000000
-13.823800 0.000000
-13.790800 0.000000
-13.757700 0.000000
-13.724600 0.000000
-13.691500 0.000000
-13.658400 0.000000
-13.625400 0.000000
-13.592300 0.000000
-13.559200 0.000000
-13.526100 0.000000
-13.493000 0.000000
-13.460000 0.000000
-13.426900 0.000000
-13.393800 0.000000
-13.360700 0.000000
-13.327700 0.000000
-13.294600 0.000000
-13.261500 0.000000
-13.228400 0.000000
-13.195300 0.000000
-13.162300 0.000000
-13.129200 0.000000
-13.096100 0.000000
-13.063000 0.000000
-13.029900 0.000000
-12.996900 0.000000
-12.963800 0.000000
-12.930700 0.000000
-12.897600 0.000000
-12.864600 0.000000
-12.831500 0.000000
-12.798400 0.000000
-12.765300 0.000000
-12.732200 0.000000
-12.699200 0.000000
-12.666100 0.000000
-12.633000 0.000000
-12.599900 0.000000
-12.566900 0.000000
-12.533800 0.000000
-12.500700 0.000000
-12.467600 0.000000
-12.434500 0.000000
-12.401500 0.000000
-12.368400 0.000000
-12.335300 0.000000
-12.302200 0.000000
-12.269100 0.000000
-12.236100 0.000000
-12.203000 0.000000
-12.169900 0.000000
-12.136800 0.000000
-12.103800 0.000000
-12.070700 0.000000
-12.037600 0.000000
-12.004500 0.000000
-11.971400 0.000000
-11.938400 0.000000
-11.905300 0.000000
-11.872200 0.000000
-11.839100 0.000000
-11.806000 0.000000
-11.773000 0.000000
-11.739900 0.000000
-11.706800 0.000000
-11.673700 0.000000
-11.640700 0.000000
-11.607600 0.000000
-11.574500 0.000000
-11.541400 0.000000
-11.508300 0.000000
-11.475300 0.000000
-11.442200 0.000000
-11.409100 0.000000
-11.376000 0.000000
-11.343000 0.000000
-11.309900 0.000000
-11.276800 0.000000
-11.243700 0.000000
-11.210600 0.000000
-11.177600 0.000000
-11.144500 0.000000
-11.111400 0.000000
-11.078300 0.000000
-11.045200 0.000000
-11.012200 0.000000
-10.979100 0.000000
-10.946000 0.000000
-10.912900 0.000000
-10.879900 0.000000
-10.846800 0.000000
-10.813700 0.000000
-10.780600 0.000000
-10.747500 0.000000
-10.714500 0.000000
-10.681400 0.000000
-10.648300 0.000000
-10.615200 0.000000
-10.582100 0.000000
-10.549100 0.000000
-10.516000 0.000000
-10.482900 0.000000
-10.449800 0.000000
-10.416800 0.000000
-10.383700 0.000000
-10.350600 0.000000
-10.317500 0.000000
-10.284400 0.000000
-10.251400 0.000000
-10.218300 0.000000
-10.185200 0.000000
-10.152100 0.000000
-10.119100 0.000000
-10.086000 0.000000
-10.052900 0.000000
-10.019800 0.000000
-9.986700 0.000000
-9.953700 0.000000
-9.920600 0.000000
-9.887500 0.000000
-9.854400 0.000000
-9.821300 0.000000
-9.788300 0.000000
-9.755200 0.000000
-9.722100 0.000000
-9.689000 0.000000
-9.656000 0.000000
-9.622900 0.000000
-9.589800 0.000000
-9.556700 0.000000
-9.523600 0.000000
-9.490600 0.000000
-9.457500 0.000000
-9.424400 0.000000
-9.391300 0.000000
-9.358200 0.000000
-9.325200 0.000000
-9.292100 0.000000
-9.259000 0.000000
-9.225900 0.000000
-9.192900 0.000000
-9.159800 0.000000
-9.126700 0.000000
-9.093600 0.000000
-9.060500 0.000000
-9.027500 0.000000
-8.994400 0.000000
-8.961300 0.000000
-8.928200 0.000000
-8.895200 0.000000
-8.862100 0.000000
-8.829000 0.000000
-8.795900 0.000000
-8.762800 0.000000
-8.729800 0.000000
-8.696700 0.000000
-8.663600 0.000000
-8.630500 0.000000
-8.597400 0.000000
-8.564400 0.000000
-8.531300 0.000000
-8.498200 0.000000
-8.465100 0.000000
-8.432100 0.000000
-8.399000 0.000000
-8.365900 0.000000
-8.332800 0.000000
-8.299700 0.000000
-8.266700 0.000000
-8.233600 0.000000
-8.200500 0.000000
-8.167400 0.000000
-8.134300 0.000000
-8.101300 0.000000
-8.068200 0.000000
-8.035100 0.000000
-8.002000 0.000000
-7.969000 0.000000
-7.935900 0.000000
-7.902800 0.000000
-7.869700 0.000000
-7.836600 0.000000
-7.803600 0.000000
-7.770500 0.000000
-7.737400 0.000000
-7.704300 0.000000
-7.671300 0.000000
-7.638200 0.000000
-7.605100 0.000000
-7.572000 0.000000
-7.538900 0.000000
-7.505900 0.000000
-7.472800 0.000000
-7.439700 0.000000
-7.406600 0.000000
-7.373500 0.000000
-7.340500 0.000000
-7.307400 0.000000
-7.274300 0.000000
-7.241200 0.000000
-7.208200 0.000000
-7.175100 0.000000
-7.142000 0.000000
-7.108900 0.000000
-7.075800 0.000000
-7.042800 0.000000
-7.009700 0.000000
-6.976600 0.000000
-6.943500 0.000000
-6.910400 0.000000
-6.877400 0.000000
-6.844300 0.000000
-6.811200 0.000000
-6.778100 0.000000
-6.745100 0.000000
-6.712000 0.000000
-6.678900 0.000000
-6.645800 0.000000
-6.612700 0.000000
-6.579700 0.000000
-6.546600 0.000000
-6.513500 0.000000
-6.480400 0.000000
-6.447400 0.000000
-6.414300 0.000000
-6.381200 0.000000
-6.348100 0.000000
-6.315000 0.000000
-6.282000 0.000000
-6.248900 0.000000
-6.215800 0.000000
-6.182700 0.000000
-6.149600 0.000000
-6.116600 0.000000
-6.083500 0.000000
-6.050400 0.000000
-6.017300 0.000000
-5.984300 0.000000
-5.951200 0.000000
-5.918100 0.000000
-5.885000 0.000000
-5.851900 0.000000
-5.818900 0.000000
-5.785800 0.000000
-5.752700 0.000000
-5.719600 0.000000
-5.686500 0.000000
-5.653500 0.000000
-5.620400 0.000000
-5.587300 0.000000
-5.554200 0.000000
-5.521200 0.000000
-5.488100 0.000000
-5.455000 0.000000
-5.421900 0.000000
-5.388800 0.000000
-5.355800 0.009700
-5.322700 0.071000
-5.289600 0.161000
-5.256500 0.172400
-5.223500 0.195600
-5.190400 0.225400
-5.157300 0.247700
-5.124200 0.275900
-5.091100 0.302100
-5.058100 0.314400
-5.025000 0.326100
-4.991900 0.344600
-4.958800 0.361200
-4.925700 0.374300
-4.892700 0.386200
-4.859600 0.400700
-4.826500 0.417000
-4.793400 0.435000
-4.760400 0.451000
-4.727300 0.462700
-4.694200 0.474000
-4.661100 0.483200
-4.628000 0.491700
-4.595000 0.501400
-4.561900 0.511100
-4.528800 0.520800
-4.495700 0.532500
-4.462600 0.543800
-4.429600 0.555900
-4.396500 0.568800
-4.363400 0.582000
-4.330300 0.595300
-4.297300 0.606500
-4.264200 0.611900
-4.231100 0.619100
-4.198000 0.626500
-4.164900 0.633800
-4.131900 0.641700
-4.098800 0.650100
-4.065700 0.659000
-4.032600 0.668500
-3.999600 0.678400
-3.966500 0.688500
-3.933400 0.698700
-3.900300 0.708900
-3.867200 0.719300
-3.834200 0.729700
-3.801100 0.742000
-3.768000 0.755900
-3.734900 0.769400
-3.701800 0.779800
-3.668800 0.794300
-3.635700 0.808800
-3.602600 0.820000
-3.569500 0.827700
-3.536500 0.822900
-3.503400 0.817700
-3.470300 0.819900
-3.437200 0.826500
-3.404100 0.842300
-3.371100 0.868300
-3.338000 0.887800
-3.304900 0.910500
-3.271800 0.955700
-3.238700 0.963400
-3.205700 0.972600
-3.172600 0.976200
-3.139500 0.969700
-3.106400 0.968400
-3.073400 0.968700
-3.040300 0.992600
-3.007200 1.070400
-2.974100 1.052300
-2.941000 0.996100
-2.908000 0.948100
-2.874900 0.906200
-2.841800 0.865200
-2.808700 0.830700
-2.775600 0.796400
-2.742600 0.778800
-2.709500 0.784100
-2.676400 0.786200
-2.643300 0.796200
-2.610300 0.841200
-2.577200 0.875200
-2.544100 0.903400
-2.511000 0.925100
-2.477900 0.926700
-2.444900 0.937500
-2.411800 0.961700
-2.378700 0.993300
-2.345600 1.028700
-2.312600 1.067000
-2.279500 1.107200
-2.246400 1.146600
-2.213300 1.156100
-2.180200 1.175600
-2.147200 1.185800
-2.114100 1.169400
-2.081000 1.144100
-2.047900 1.156300
-2.014800 1.217800
-1.981800 1.238600
-1.948700 1.223100
-1.915600 1.202400
-1.882500 1.177700
-1.849500 1.158700
-1.816400 1.151000
-1.783300 1.147100
-1.750200 1.154900
-1.717100 1.165000
-1.684100 1.145300
-1.651000 1.152300
-1.617900 1.159300
-1.584800 1.179100
-1.551700 1.205500
-1.518700 1.246300
-1.485600 1.280300
-1.452500 1.311700
-1.419400 1.340300
-1.386400 1.358000
-1.353300 1.352300
-1.320200 1.349300
-1.287100 1.325900
-1.254000 1.314100
-1.221000 1.305000
-1.187900 1.297100
-1.154800 1.297500
-1.121700 1.298200
-1.088700 1.309300
-1.055600 1.344000
-1.022500 1.389700
-0.989400 1.493500
-0.956300 1.552800
-0.923300 1.568100
-0.890200 1.565900
-0.857100 1.575900
-0.824000 1.531400
-0.790900 1.515300
-0.757900 1.501800
-0.724800 1.495700
-0.691700 1.491000
-0.658600 1.486600
-0.625600 1.487600
-0.592500 1.492700
-0.559400 1.484000
-0.526300 1.486700
-0.493200 1.497900
-0.460200 1.534000
-0.427100 1.528600
-0.394000 1.535200
-0.360900 1.551400
-0.327800 1.571800
-0.294800 1.590700
-0.261700 1.831400
-0.228600 1.807700
-0.195500 1.901100
-0.162500 1.897200
-0.129400 1.904800
-0.096300 1.905700
-0.063200 1.906800
-0.030100 1.910000
0.002900 1.890300
0.036000 1.912000
0.069100 1.906100
0.102200 1.837200
0.135200 1.769600
0.168300 1.693300
0.201400 1.602100
0.234500 1.492700
0.267600 1.433300
0.300600 1.371900
0.333700 1.310300
0.366800 1.293600
0.399900 1.299200
0.433000 1.258200
0.466000 1.230800
0.499100 1.217200
0.532200 1.206200
0.565300 1.202800
0.598300 1.210400
0.631400 1.192500
0.664500 1.163900
0.697600 1.152300
0.730700 1.143900
0.763700 1.142100
0.796800 1.143600
0.829900 1.168300
0.863000 1.188400
0.896100 1.188800
0.929100 1.221700
0.962200 1.279700
0.995300 1.322000
1.028400 1.386900
1.061400 1.491100
1.094500 1.391800
1.127600 1.361500
1.160700 1.333100
1.193800 1.304100
1.226800 1.257000
1.259900 1.280200
1.293000 1.280400
1.326100 1.274000
1.359100 1.272100
1.392200 1.270600
1.425300 1.275200
1.458400 1.311400
1.491500 1.280800
1.524500 1.259100
1.557600 1.235800
1.590700 1.213500
1.623800 1.196100
1.656900 1.184400
1.689900 1.173800
1.723000 1.161400
1.756100 1.159600
1.789200 1.253200
1.822200 1.189400
1.855300 1.114600
1.888400 1.038800
1.921500 0.954800
1.954600 0.841000
1.987600 0.723400
2.020700 0.582200
2.053800 0.489400
2.086900 0.447300
2.120000 0.452500
2.153000 0.437700
2.186100 0.458900
2.219200 0.473200
2.252300 0.485200
2.285300 0.497000
2.318400 0.509000
2.351500 0.521100
2.384600 0.525700
2.417700 0.536800
2.450700 0.560600
2.483800 0.589000
2.516900 0.621700
2.550000 0.629300
2.583000 0.683200
2.616100 0.680600
2.649200 0.693200
2.682300 0.716800
2.715400 0.756600
2.748400 0.926100
2.781500 0.798200
2.814600 0.697000
2.847700 0.650600
2.880800 0.651300
2.913800 0.691400
2.946900 0.723200
2.980000 0.773100
3.013100 0.819400
3.046100 0.860800
3.079200 0.897100
3.112300 0.921300
3.145400 0.940700
3.178500 0.978300
3.211500 1.048100
3.244600 1.092100
3.277700 1.115400
3.310800 1.139700
3.343900 1.177400
3.376900 1.190200
3.410000 1.223800
3.443100 1.258500
3.476200 1.293000
3.509200 1.335300
3.542300 1.430900
3.575400 1.398300
3.608500 1.421700
3.641600 1.441000
3.674600 1.493600
3.707700 1.574600
3.740800 1.667700
3.773900 1.664400
3.806900 1.716900
3.840000 1.781200
3.873100 1.860400
3.906200 1.924900
3.939300 1.995400
3.972300 2.113700
4.005400 2.205800
4.038500 2.294300
4.071600 2.399500
4.104700 2.536100
4.137700 2.611300
4.170800 2.645400
4.203900 2.706700
4.237000 2.602400
4.270000 2.415600
4.303100 2.295100
4.336200 2.238700
4.369300 2.224100
4.402400 2.206100
4.435400 2.162400
4.468500 2.259500
4.501600 2.213300
4.534700 2.159900
4.567800 2.129500
4.600800 2.126900
4.633900 2.124200
4.667000 2.120800
4.700100 2.113600
4.733100 2.237700
4.766200 2.075600
4.799300 2.100100
4.832400 2.026900
4.865500 1.950400
4.898500 1.877200
4.931600 1.812500
4.964700 1.781400
4.997800 1.783300
5.030800 1.841600
5.063900 1.770900
5.097000 1.688700
5.130100 1.669300
5.163200 1.661100
5.196200 1.650800
5.229300 1.647000
5.262400 1.660400
5.295500 1.643300
5.328600 1.592100
5.361600 1.570700
5.394700 1.565600
5.427800 1.588900
5.460900 1.626700
5.493900 1.681200
5.527000 1.693000
5.560100 1.682700
5.593200 1.680900
5.626300 1.678200
5.659300 1.701400
5.692400 1.746100
5.725500 1.727800
5.758600 1.778900
5.791700 1.805100
5.824700 1.820000
5.857800 1.834300
5.890900 1.861900
5.924000 1.881200
5.957000 1.937700
5.990100 1.998600
6.023200 2.058200
6.056300 2.121400
6.089400 2.116100
6.122400 2.160100
6.155500 2.226600
6.188600 2.300100
6.221700 2.335200
6.254700 2.309300
6.287800 2.270700
6.320900 2.212500
6.354000 2.141600
6.387100 2.031300
6.420100 1.932300
6.453200 1.829000
6.486300 1.733500
6.519400 1.673600
6.552500 1.666300
6.585500 1.662200
6.618600 1.657600
6.651700 1.640100
6.684800 1.607200
6.717800 1.587700
6.750900 1.573000
6.784000 1.560300
6.817100 1.549200
6.850200 1.540600
6.883200 1.538800
6.916300 1.547800
6.949400 1.571500
6.982500 1.616500
7.015600 1.673100
7.048600 1.722400
7.081700 1.767500
7.114800 1.799500
7.147900 1.804500
7.180900 1.766900
7.214000 1.687400
7.247100 1.629900
7.280200 1.613400
7.313300 1.621800
7.346300 1.641900
7.379400 1.693400
7.412500 1.772600
7.445600 1.918700
7.478600 2.036000
7.511700 2.152800
7.544800 2.253900
7.577900 2.302400
7.611000 2.285100
7.644000 2.278400
7.677100 2.286600
7.710200 2.275000
7.743300 2.232600
7.776400 2.206700
7.809400 2.200200
7.842500 2.188600
7.875600 2.177500
7.908700 2.163700
7.941700 2.147600
7.974800 2.129900
8.007900 2.118900
8.041000 2.100900
8.074100 2.088500
8.107100 2.122100
8.140200 2.118000
8.173300 2.166000
8.206400 2.232000
8.239500 2.294100
8.272500 2.410200
8.305600 2.560000
8.338700 2.574500
8.371800 2.500800
8.404800 2.542500
8.437900 2.622900
8.471000 2.647400
8.504100 2.636500
8.537200 2.625100
8.570200 2.556400
8.603300 2.471300
8.636400 2.419900
8.669500 2.342000
8.702500 2.249200
8.735600 2.198700
8.768700 2.148700
8.801800 2.085800
8.834900 2.046500
8.867900 2.032300
8.901000 2.051300
8.934100 2.061800
8.967200 2.064500
9.000300 2.186600
9.033300 2.200800
9.066400 2.234700
9.099500 2.273600
9.132600 2.313700
9.165600 2.347600
9.198700 2.439700
9.231800 2.530900
9.264900 2.518800
9.298000 2.491000
9.331000 2.495600
9.364100 2.571900
9.397200 2.623900
9.430300 2.742900
9.463400 2.889400
9.496400 3.005200
9.529500 3.091300
9.562600 2.951800
9.595700 2.845700
9.628700 2.761600
9.661800 2.723500
9.694900 2.682300
9.728000 2.637100
9.761100 2.621500
9.794100 2.590900
9.827200 2.558900
9.860300 2.582600
9.893400 2.586900
9.926400 2.473100
9.959500 2.356600
9.992600 2.329900
10.025700 2.346300
10.058800 2.387500
10.091800 2.430100
10.124900 2.460700
10.158000 2.629300
10.191100 2.706200
10.224200 2.575500
10.257200 2.307100
10.290300 2.316600
10.323400 2.337500
10.356500 2.408900
10.389500 2.352800
10.422600 2.386500
10.455700 2.487500
10.488800 2.635900
10.521900 2.749700
10.554900 2.723400
10.588000 2.666200
10.621100 2.615900
10.654200 2.576900
10.687300 2.534700
10.720300 2.408600
10.753400 2.386900
10.786500 2.391000
10.819600 2.417500
10.852600 2.454900
10.885700 2.461800
10.918800 2.504400
10.951900 2.530700
10.985000 2.535400
11.018000 2.491900
11.051100 2.456100
11.084200 2.429300
11.117300 2.396300
11.150400 2.383900
11.183400 2.396000
11.216500 2.435500
11.249600 2.421100
11.282700 2.402100
11.315700 2.370900
11.348800 2.374600
11.381900 2.391500
11.415000 2.349600
11.448100 2.303300
11.481100 2.265800
11.514200 2.236500
11.547300 2.224400
11.580400 2.217500
11.613400 2.219900
11.646500 2.206800
11.679600 2.111000
11.712700 2.089400
11.745800 2.068000
11.778800 2.062400
11.811900 2.002600
11.845000 1.978700
11.878100 1.954100
11.911200 1.923100
11.944200 1.934600
11.977300 1.955500
12.010400 1.968100
12.043500 1.982100
12.076500 2.009100
12.109600 2.080200
12.142700 2.110300
12.175800 2.089000
12.208900 2.016000
12.241900 2.051800
12.275000 1.985300
12.308100 1.936900
12.341200 1.954800
12.374300 1.967800
12.407300 1.982300
12.440400 1.987800
12.473500 2.030800
12.506600 2.062000
12.539600 2.059600
12.572700 2.027400
12.605800 2.071200
12.638900 2.014800
12.672000 1.952200
12.705000 1.933500
12.738100 1.858800
12.771200 1.790100
12.804300 1.724600
12.837300 1.687200
12.870400 1.656100
12.903500 1.583200
12.936600 1.579800
12.969700 1.582100
13.002700 1.634400
13.035800 1.651300
13.068900 1.609000
13.102000 1.540600
13.135100 1.499600
13.168100 1.523000
13.201200 1.534700
13.234300 1.549000
13.267400 1.567300
13.300400 1.590800
13.333500 1.622600
13.366600 1.661200
13.399700 1.698300
13.432800 1.738700
13.465800 1.801900
13.498900 1.796900
13.532000 1.793500
13.565100 1.802500
13.598200 1.852900
13.631200 1.879700
13.664300 1.869700
13.697400 1.976400
13.730500 2.083200
13.763500 2.158300
13.796600 2.198200
13.829700 2.156800
13.862800 2.100500
13.895900 2.102100
13.928900 2.103200
13.962000 1.985500
13.995100 1.981600
14.028200 1.970500
14.061200 1.968200
14.094300 1.982100
14.127400 2.012300
14.160500 2.055200
14.193600 2.110800
14.226600 2.172100
14.259700 2.180600
14.292800 2.167900
14.325900 2.125100
14.359000 2.224500
14.392000 2.204400
14.425100 2.174000
14.458200 2.232600
14.491300 2.172400
14.524300 2.081000
14.557400 2.022100
14.590500 1.933300
14.623600 1.823800
14.656700 1.740700
14.689700 1.678600
14.722800 1.649300
14.755900 1.652800
14.789000 1.620200
14.822100 1.502700
14.855100 1.515200
14.888200 1.506400
14.921300 1.509400
14.954400 1.501400
14.987400 1.522500
15.020500 1.632700
15.053600 1.603100
15.086700 1.640500
15.119800 1.686400
15.152800 1.876600
15.185900 1.843300
15.219000 1.901200
15.252100 1.974400
15.285100 2.039600
15.318200 1.892000
15.351300 1.846400
15.384400 1.878600
15.417500 2.013000
15.450500 2.194100
15.483600 2.193400
15.516700 2.100600
15.549800 1.965700
15.582900 1.850900
15.615900 1.789800
15.649000 1.775200
15.682100 1.760700
15.715200 1.785300
15.748200 1.795300
15.781300 1.796300
15.814400 1.806400
15.847500 1.825200
15.880600 1.849300
15.913600 1.873300
15.946700 1.895400
15.979800 1.914700
16.012900 1.931500
16.046000 1.947400
16.079000 1.958300
16.112100 1.970900
16.145200 2.000500
16.178300 2.015200
16.211300 2.032000
16.244400 2.050900
16.277500 2.072300
16.310600 2.119600
16.343700 2.205600
16.376700 2.163300
16.409800 2.148200
16.442900 2.161400
16.476000 2.205000
16.509000 2.244700
16.542100 2.282100
16.575200 2.296800
16.608300 2.295000
16.641400 2.303400
16.674400 2.297100
16.707500 2.300900
16.740600 2.306900
16.773700 2.326600
16.806800 2.343300
16.839800 2.360800
16.872900 2.391100
16.906000 2.400700
16.939100 2.438200
16.972100 2.450500
17.005200 2.480000
17.038300 2.538600
17.071400 2.648600
17.104500 2.772900
17.137500 2.828600
17.170600 2.894500
17.203700 2.930700
17.236800 2.967200
17.269900 3.001400
17.302900 2.964800
17.336000 2.924600
17.369100 3.004200
17.402200 2.944300
17.435200 2.798500
17.468300 2.654300
17.501400 2.553000
17.534500 2.508100
17.567600 2.492000
17.600600 2.472600
17.633700 2.469000
17.666800 2.465200
17.699900 2.442600
17.732900 2.388500
17.766000 2.498400
17.799100 2.329200
17.832200 2.513000
17.865300 2.667500
17.898300 2.787500
17.931400 2.473400
17.964500 2.395600
17.997600 2.324400
18.030700 2.294100
18.063700 2.346500
18.096800 2.437200
18.129900 2.534100
18.163000 2.725900
18.196000 2.648500
18.229100 2.532100
18.262200 2.443200
18.295300 2.477700
18.328400 2.508500
18.361400 2.516700
18.394500 2.625800
18.427600 2.468000
18.460700 2.364300
18.493800 2.267700
18.526800 2.175400
18.559900 2.101500
18.593000 2.068700
18.626100 2.117700
18.659100 2.209000
18.692200 2.331800
18.725300 2.396400
18.758400 2.386800
18.791500 2.369200
18.824500 2.334600
18.857600 2.290300
18.890700 2.221500
18.923800 2.190900
18.956800 2.024800
18.989900 1.889400
19.023000 1.850200
19.056100 1.836600
19.089200 1.849200
19.122200 1.890600
19.155300 1.937600
19.188400 1.975300
19.221500 1.998500
19.254600 2.065400
19.287600 2.190800
19.320700 2.573200
19.353800 2.317400
19.386900 2.295800
19.419900 2.353100
19.453000 2.609100
19.486100 2.865700
19.519200 3.093900
19.552300 3.274900
19.585300 3.312900
19.618400 3.275200
19.651500 3.196800
19.684600 3.081000
19.717700 3.102300
19.750700 3.157000
19.783800 3.310800
19.816900 3.148900
19.850000 2.999200
19.883000 2.968600
19.916100 2.932200
19.949200 3.005800
19.982300 2.881100
20.015400 2.866200
20.048400 2.846300
20.081500 2.841100
20.114600 2.734200
20.147700 2.729600
20.180700 2.645600
20.213800 2.589400
20.246900 2.555200
20.280000 2.519000
20.313100 2.494400
20.346100 2.496700
20.379200 2.544700
20.412300 2.471400
20.445400 2.363400
20.478500 2.355400
20.511500 2.421200
20.544600 2.501500
20.577700 2.577300
20.610800 2.625300
20.643800 2.654100
20.676900 2.750600
20.710000 2.781900
20.743100 2.868200
20.776200 2.931700
20.809200 2.945600
20.842300 3.013500
20.875400 2.990300
20.908500 2.955800
20.941600 2.950100
20.974600 2.896100
21.007700 2.866400
21.040800 2.857200
21.073900 2.995200
21.106900 2.910900
21.140000 3.053000
21.173100 3.204500
21.206200 3.293400
21.239300 3.297100
21.272300 3.224400
21.305400 3.117000
21.338500 2.959400
21.371600 2.782000
21.404600 2.703400
21.437700 2.638300
21.470800 2.614200
21.503900 2.648100
21.537000 2.700500
21.570000 2.753400
21.603100 2.843500
21.636200 2.945900
21.669300 2.988300
21.702400 2.980200
21.735400 2.729300
21.768500 2.759000
21.801600 2.806100
21.834700 2.818400
21.867700 2.687800
21.900800 2.683300
21.933900 2.575900
21.967000 2.542100
22.000100 2.549700
22.033100 2.607900
22.066200 2.726500
22.099300 2.822400
22.132400 2.923400
22.165500 3.034800
22.198500 3.130000
22.231600 3.238700
22.264700 3.351000
22.297800 3.374300
22.330800 3.327000
22.363900 3.302400
22.397000 3.372000
22.430100 3.373900
22.463200 3.373800
22.496200 3.481300
22.529300 3.496800
22.562400 3.416600
22.595500 3.476200
22.628500 3.460700
22.661600 3.499700
22.694700 3.590200
22.727800 3.640400
22.760900 3.657700
22.793900 3.627300
22.827000 3.595600
22.860100 3.574100
22.893200 3.532400
22.926300 3.446100
22.959300 3.329700
22.992400 3.203300
23.025500 3.169800
23.058600 3.132200
23.091600 3.064300
23.124700 3.019800
23.157800 2.952000
23.190900 2.917700
23.224000 2.909900
23.257000 3.082300
23.290100 3.048700
23.323200 2.987200
23.356300 2.952300
23.389400 2.910700
23.422400 2.870600
23.455500 2.852800
23.488600 2.862200
23.521700 2.895500
23.554700 2.921000
23.587800 2.991200
23.620900 3.031400
23.654000 3.078800
23.687100 3.127500
23.720100 3.131500
23.753200 3.159000
23.786300 3.001500
23.819400 2.942700
23.852400 2.914400
23.885500 2.880000
23.918600 2.851100
23.951700 2.830400
23.984800 2.929500
24.017800 2.896800
24.050900 2.825800
24.084000 2.826300
24.117100 2.844500
24.150200 2.867400
24.183200 3.049200
24.216300 3.192500
24.249400 3.225500
24.282500 3.321300
24.315500 3.396000
24.348600 3.454800
24.381700 3.537500
24.414800 3.558400
24.447900 3.431700
24.480900 3.372100
24.514000 3.304000
24.547100 3.259700
24.580200 3.202200
24.613300 3.139300
24.646300 3.077200
24.679400 3.023500
24.712500 3.014400
24.745600 3.063900
24.778600 3.162700
24.811700 3.219300
24.844800 3.226500
24.877900 3.174100
24.911000 3.104200
24.944000 3.061500
24.977100 3.051700
25.010200 3.080100
25.043300 3.131000
25.076400 3.200200
25.109400 3.378200
25.142500 3.385800
25.175600 3.330400
25.208700 3.180900
25.241700 3.070500
25.274800 3.036900
25.307900 3.056500
25.341000 3.101200
25.374100 3.194200
25.407100 3.347300
25.440200 3.461900
25.473300 3.705300
25.506400 3.903300
25.539400 3.733600
25.572500 3.782100
25.605600 3.838000
25.638700 3.916700
25.671800 3.768000
25.704800 3.532000
25.737900 3.461200
25.771000 3.402200
25.804100 3.402100
25.837200 3.465400
25.870200 3.469400
25.903300 3.457200
25.936400 3.439400
25.969500 3.477000
26.002500 3.505500
26.035600 3.557000
26.068700 3.604300
26.101800 3.590400
26.134900 3.545500
26.167900 3.493300
26.201000 3.539400
26.234100 3.605200
26.267200 3.619200
26.300300 3.641800
26.333300 3.606200
26.366400 3.567200
26.399500 3.529600
26.432600 3.500300
26.465600 3.467700
26.498700 3.445400
26.531800 3.350100
26.564900 3.273600
26.598000 3.244500
26.631000 3.290600
26.664100 3.409400
26.697200 3.467500
26.730300 3.373100
26.763300 3.333700
26.796400 3.253900
26.829500 3.126500
26.862600 3.051400
26.895700 3.020700
26.928700 2.998100
26.961800 2.987400
26.994900 3.030500
27.028000 3.107500
27.061100 3.161900
27.094100 3.098600
27.127200 3.105600
27.160300 3.137400
27.193400 3.119900
27.226400 3.109600
27.259500 3.098700
27.292600 3.082900
27.325700 3.057600
27.358800 3.072500
27.391800 3.121500
27.424900 3.197400
27.458000 3.317800
27.491100 3.434600
27.524200 3.586900
27.557200 3.804800
27.590300 3.781100
27.623400 3.689100
27.656500 3.674700
27.689500 3.686700
27.722600 3.637400
27.755700 3.606800
27.788800 3.724000
27.821900 3.714600
27.854900 3.674300
27.888000 3.627500
27.921100 3.534100
27.954200 3.500200
27.987200 3.469100
28.020300 3.426200
28.053400 3.363900
28.086500 3.349600
28.119600 3.394300
28.152600 3.436700
28.185700 3.471100
28.218800 3.457800
28.251900 3.459100
28.285000 3.482600
28.318000 3.466100
28.351100 3.420200
28.384200 3.378100
28.417300 3.373900
28.450300 3.388600
28.483400 3.400000
28.516500 3.580700
28.549600 3.786600
28.582700 3.955200
28.615700 3.967500
28.648800 3.802400
28.681900 3.902200
28.715000 3.797100
28.748100 3.602800
28.781100 3.517400
28.814200 3.448600
28.847300 3.457100
28.880400 3.441700
28.913400 3.439700
28.946500 3.422700
28.979600 3.465700
29.012700 3.603500
29.045800 3.546200
29.078800 3.525200
29.111900 3.544300
29.145000 3.547100
29.178100 3.564500
29.211100 3.593200
29.244200 3.620300
29.277300 3.644500
29.310400 3.652800
29.343500 3.673800
29.376500 3.703000
29.409600 3.620900
29.442700 3.558900
29.475800 3.501900
29.508900 3.474000
29.541900 3.522400
29.575000 3.583000
29.608100 3.671000
29.641200 3.755300
29.674200 3.801400
29.707300 3.816600
29.740400 3.816800
29.773500 3.859200
29.806600 3.875700
29.839600 3.848800
29.872700 3.814800
29.905800 3.854200
29.938900 3.914900
29.972000 3.987700
30.005000 3.955000
30.038100 3.877000
30.071200 3.895000
30.104300 3.866600
30.137300 3.835500
30.170400 3.815900
30.203500 3.763700
30.236600 3.751300
30.269700 3.735100
30.302700 3.564200
30.335800 3.516200
30.368900 3.568400
30.402000 3.652900
30.435000 3.754700
30.468100 3.894700
30.501200 3.781500
30.534300 3.747200
30.567400 3.713400
30.600400 3.708700
30.633500 3.689200
30.666600 3.660100
30.699700 3.404300
30.732800 3.330500
30.765800 3.226000
30.798900 3.256500
30.832000 3.352700
30.865100 3.461300
30.898100 3.520300
30.931200 3.426500
30.964300 3.388400
30.997400 3.559900
31.030500 3.704400
31.063500 3.751800
31.096600 3.829400
31.129700 3.902100
31.162800 3.918300
31.195900 3.873000
31.228900 3.851000
31.262000 3.846300
31.295100 3.934200
31.328200 3.893800
31.361200 3.921100
31.394300 3.968400
31.427400 3.943900
31.460500 3.891000
31.493600 3.908800
31.526600 3.945000
31.559700 4.017700
31.592800 4.026700
31.625900 4.073200
31.658900 4.109900
31.692000 4.183800
31.725100 4.318900
31.758200 4.314400
31.791300 4.315900
31.824300 4.237300
31.857400 4.137500
31.890500 3.992100
31.923600 3.938800
31.956700 3.840900
31.989700 3.749000
32.022800 3.695300
32.055900 3.672700
32.089000 3.722500
32.122000 3.716400
32.155100 3.716800
32.188200 3.752500
32.221300 3.722900
32.254400 3.818800
32.287400 3.804100
32.320500 3.742000
32.353600 3.695300
32.386700 3.686200
32.419800 3.534400
32.452800 3.493900
32.485900 3.435200
32.519000 3.414700
32.552100 3.433600
32.585100 3.457200
32.618200 3.456400
32.651300 3.527900
32.684400 3.655200
32.717500 3.498900
32.750500 3.523100
32.783600 3.493300
32.816700 3.483900
32.849800 3.471200
32.882800 3.474900
32.915900 3.464500
32.949000 3.451200
32.982100 3.465200
33.015200 3.471600
33.048200 3.524700
33.081300 3.612500
33.114400 3.644300
33.147500 3.665100
33.180600 3.632700
33.213600 3.580500
33.246700 3.638500
33.279800 3.549700
33.312900 3.532400
33.345900 3.505400
33.379000 3.497400
33.412100 3.555900
33.445200 3.564300
33.478300 3.521800
33.511300 3.623400
33.544400 3.477700
33.577500 3.441000
33.610600 3.306700
33.643700 3.171500
33.676700 3.113500
33.709800 3.131700
33.742900 3.156700
33.776000 3.180800
33.809000 3.190200
33.842100 3.133400
33.875200 3.121300
33.908300 3.128900
33.941400 3.117400
33.974400 3.104900
34.007500 3.128200
34.040600 3.139100
34.073700 3.177400
34.106700 3.218800
34.139800 3.338300
34.172900 3.282300
34.206000 3.401900
34.239100 3.412100
34.272100 3.337300
34.305200 3.329500
34.338300 3.278200
34.371400 3.263800
34.404500 3.303600
34.437500 3.494600
34.470600 3.434400
34.503700 3.416600
34.536800 3.368300
34.569800 3.345700
34.602900 3.386800
34.636000 3.392500
34.669100 3.390700
34.702200 3.347800
34.735200 3.205400
34.768300 3.178200
34.801400 2.921100
34.834500 2.861100
34.867600 2.830200
34.900600 2.825000
34.933700 2.929200
34.966800 2.941900
34.999900 2.934900
35.032900 2.946700
35.066000 2.975300
35.099100 3.013200
35.132200 3.019200
35.165300 3.100800
35.198300 3.285700
35.231400 3.286800
35.264500 3.309900
35.297600 3.384000
35.330600 3.447200
35.363700 3.616000
35.396800 3.787000
35.429900 3.796900
35.463000 3.766800
35.496000 3.729300
35.529100 3.844000
35.562200 3.817400
35.595300 4.006100
35.628400 3.981400
35.661400 3.937000
35.694500 3.818000
35.727600 3.767100
35.760700 3.798000
35.793700 3.766600
35.826800 3.715300
35.859900 3.644200
35.893000 3.509300
35.926100 3.492100
35.959100 3.352200
35.992200 3.616500
36.025300 3.623400
36.058400 3.722200
36.091500 3.899500
36.124500 3.927600
36.157600 3.984100
36.190700 4.009700
36.223800 3.854800
36.256800 3.774600
36.289900 3.763400
36.323000 3.779400
36.356100 3.780700
36.389200 3.826800
36.422200 3.879400
36.455300 3.948000
36.488400 3.929100
36.521500 3.959600
36.554500 3.991300
36.587600 3.897800
36.620700 3.800300
36.653800 3.697400
36.686900 3.658000
36.719900 3.692100
36.753000 3.684600
36.786100 3.751700
36.819200 3.642200
36.852300 3.584500
36.885300 3.568200
36.918400 3.516000
36.951500 3.621200
36.984600 3.821000
37.017600 3.906600
37.050700 3.851700
37.083800 3.831100
37.116900 3.714600
37.150000 3.609700
37.183000 3.565300
37.216100 3.555200
37.249200 3.550500
37.282300 3.571600
37.315400 3.610300
37.348400 3.707300
37.381500 3.881100
37.414600 3.961000
37.447700 4.016500
37.480700 4.028300
37.513800 3.985400
37.546900 3.967800
37.580000 3.983400
37.613100 3.941500
37.646100 3.905000
37.679200 3.884700
37.712300 3.787400
37.745400 3.768000
37.778400 3.826300
37.811500 3.719200
37.844600 3.707400
37.877700 3.693500
37.910800 3.625400
37.943800 3.497300
37.976900 3.450500
38.010000 3.496600
38.043100 3.591600
38.076200 3.772300
38.109200 4.026300
38.142300 4.258500
38.175400 4.286700
38.208500 4.206000
38.241500 4.114600
38.274600 4.031800
38.307700 4.034600
38.340800 4.306000
38.373900 4.295500
38.406900 4.355700
38.440000 4.377000
38.473100 4.350500
38.506200 4.362400
38.539300 4.400900
38.572300 4.428800
38.605400 4.540700
38.638500 4.655700
38.671600 4.789000
38.704600 4.644900
38.737700 4.482700
38.770800 4.366200
38.803900 4.344000
38.837000 4.368700
38.870000 4.423300
38.903100 4.499300
38.936200 4.555300
38.969300 4.577400
39.002300 4.431900
39.035400 4.388100
39.068500 4.363800
39.101600 4.275700
39.134700 4.219900
39.167700 4.205700
39.200800 4.142100
39.233900 4.067600
39.267000 4.023500
39.300100 4.082700
39.333100 4.170200
39.366200 4.284700
39.399300 4.353400
39.432400 4.467700
39.465400 4.545000
39.498500 4.554500
39.531600 4.426900
39.564700 4.342100
39.597800 4.332100
39.630800 4.172400
39.663900 3.985100
39.697000 4.014500
39.730100 3.853100
39.763200 3.815400
39.796200 3.859600
39.829300 3.788600
39.862400 3.783800
39.895500 3.719100
39.928500 3.691700
39.961600 3.672400
39.994700 3.619300
40.027800 3.564600
40.060900 3.528300
40.093900 3.487000
40.127000 3.372000
40.160100 3.333200
40.193200 3.352500
40.226300 3.358600
40.259300 3.386500
40.292400 3.412900
40.325500 3.423900
40.358600 3.361500
40.391600 3.378200
40.424700 3.392600
40.457800 3.391600
40.490900 3.367700
40.524000 3.360900
40.557000 3.325900
40.590100 3.234600
40.623200 3.097200
40.656300 3.030800
40.689300 2.983800
40.722400 2.968100
40.755500 3.004800
40.788600 3.111300
40.821700 3.168700
40.854700 3.100500
40.887800 3.050400
40.920900 2.995900
40.954000 2.896300
40.987100 2.850500
41.020100 2.811700
41.053200 2.782600
41.086300 2.769100
41.119400 2.760200
41.152400 2.721800
41.185500 2.678300
41.218600 2.626100
41.251700 2.596800
41.284800 2.558700
41.317800 2.501200
41.350900 2.521600
41.384000 2.440000
41.417100 2.386000
41.450200 2.322200
41.483200 2.331900
41.516300 2.202200
41.549400 2.092500
41.582500 1.982800
41.615500 1.857100
41.648600 1.734500
41.681700 1.629700
41.714800 1.520900
41.747900 1.428600
41.780900 1.362500
41.814000 1.345700
41.847100 1.331300
41.880200 1.335200
41.913200 1.362100
41.946300 1.420900
41.979400 1.330400
42.012500 1.094200
42.045600 0.994900
42.078600 0.906800
42.111700 0.815000
42.144800 0.695300
42.177900 0.544900
42.211000 0.407300
42.244000 0.295400
42.277100 0.202300
42.310200 0.169100
42.343300 0.159400
42.376300 0.137500
42.409400 0.119700
42.442500 0.107000
42.475600 0.098300
42.508700 0.093100
42.541700 0.088600
42.574800 0.084200
42.607900 0.084900
42.641000 0.077700
42.674100 0.070900
42.707100 0.064600
42.740200 0.059300
42.773300 0.054300
42.806400 0.049600
42.839400 0.045100
42.872500 0.040900
42.905600 0.036900
42.938700 0.033200
42.971800 0.029800
43.004800 0.027400
43.037900 0.025700
43.071000 0.024000
43.104100 0.042600
43.137100 0.027000
43.170200 0.013100
43.203300 0.001000
43.236400 0.000000
43.269500 0.000000
43.302500 0.000000
43.335600 0.000000
43.368700 0.000000
43.401800 0.000000
43.434900 0.000000
43.467900 0.000000
43.501000 0.000000
43.534100 0.000000
43.567200 0.000000
43.600200 0.000000
43.633300 0.000000
43.666400 0.000000
43.699500 0.000000
43.732600 0.000000
43.765600 0.000000
43.798700 0.000000
43.831800 0.000000
43.864900 0.000000
43.898000 0.000000
43.931000 0.000000
43.964100 0.000000
43.997200 0.000000
44.030300 0.000000
44.063300 0.000000
44.096400 0.000000
44.129500 0.000000
44.162600 0.000000
44.195700 0.000000
44.228700 0.000000
44.261800 0.000000
44.294900 0.000000
44.328000 0.000000
44.361000 0.000000
44.394100 0.000000
44.427200 0.000000
44.460300 0.000000
44.493400 0.000000
44.526400 0.000000
44.559500 0.000000
44.592600 0.000000
44.625700 0.000000
44.658800 0.000000
44.691800 0.000000
44.724900 0.000000
44.758000 0.000000
44.791100 0.000000
44.824100 0.000000
44.857200 0.000000
44.890300 0.000000
44.923400 0.000000
44.956500 0.000000
44.989500 0.000000
45.022600 0.000000
45.055700 0.000000
45.088800 0.000000
45.121900 0.000000
45.154900 0.000000
45.188000 0.000000
45.221100 0.000000
45.254200 0.000000
45.287200 0.000000
45.320300 0.000000
45.353400 0.000000
45.386500 0.000000
45.419600 0.000000
45.452600 0.000000
45.485700 0.000000
45.518800 0.000000
45.551900 0.000000
45.584900 0.000000
45.618000 0.000000
45.651100 0.000000
45.684200 0.000000
45.717300 0.000000
45.750300 0.000000
45.783400 0.000000
45.816500 0.000000
45.849600 0.000000
45.882700 0.000000
45.915700 0.000000
45.948800 0.000000
45.981900 0.000000
46.015000 0.000000
46.048000 0.000000
46.081100 0.000000
46.114200 0.000000
46.147300 0.000000
46.180400 0.000000
46.213400 0.000000
e
