set title 'mp-990448 - Density of States'
set xlabel 'Energy (eV)'
set ylabel 'DOS (states/eV)'
set grid
set xrange [-10:10]
set yrange [0:3.250]
set xzeroaxis lt -1
set terminal png size 800,600
set output 'mp-990448_dos_gnuplot.png'
plot '-' using 1:2 with lines title 'DOS'
-24.442500 0.000000
-24.401800 0.000000
-24.361100 0.000000
-24.320500 0.000000
-24.279800 0.000000
-24.239100 0.000000
-24.198500 0.000000
-24.157800 0.000000
-24.117100 0.000000
-24.076500 0.000000
-24.035800 0.000000
-23.995100 0.000000
-23.954500 0.000000
-23.913800 0.000000
-23.873100 0.000000
-23.832500 0.000000
-23.791800 0.000000
-23.751100 0.000000
-23.710500 0.000000
-23.669800 0.000000
-23.629100 0.000000
-23.588500 0.000000
-23.547800 0.000000
-23.507100 0.000000
-23.466500 0.000000
-23.425800 0.000000
-23.385100 0.000000
-23.344500 0.000000
-23.303800 0.000000
-23.263100 0.000000
-23.222500 0.000000
-23.181800 0.000000
-23.141100 0.000000
-23.100500 0.000000
-23.059800 0.000000
-23.019100 0.000000
-22.978500 0.000000
-22.937800 0.000000
-22.897100 0.000000
-22.856500 0.000000
-22.815800 0.000000
-22.775100 0.000000
-22.734500 0.000000
-22.693800 0.000000
-22.653100 0.000000
-22.612500 0.000000
-22.571800 0.000000
-22.531100 0.000000
-22.490500 0.000000
-22.449800 0.000000
-22.409100 0.000000
-22.368500 0.000000
-22.327800 0.000000
-22.287100 0.000000
-22.246500 0.000000
-22.205800 0.000000
-22.165100 0.000000
-22.124500 0.000000
-22.083800 0.000000
-22.043100 0.000000
-22.002500 0.000000
-21.961800 0.000000
-21.921100 0.000000
-21.880500 0.000000
-21.839800 0.000000
-21.799100 0.000000
-21.758500 0.000000
-21.717800 0.000000
-21.677100 0.000000
-21.636500 0.000000
-21.595800 0.000000
-21.555100 0.000000
-21.514500 0.000000
-21.473800 0.000000
-21.433100 0.000000
-21.392500 0.000000
-21.351800 0.000000
-21.311100 0.000000
-21.270500 0.000000
-21.229800 0.000000
-21.189100 0.000000
-21.148500 0.000000
-21.107800 0.000000
-21.067100 0.000000
-21.026500 0.000000
-20.985800 0.000000
-20.945100 0.000000
-20.904500 0.000000
-20.863800 0.000000
-20.823100 0.000000
-20.782500 0.000000
-20.741800 0.035000
-20.701100 0.421800
-20.660500 0.279600
-20.619800 0.311900
-20.579100 0.333600
-20.538500 0.293500
-20.497800 0.296300
-20.457100 0.307700
-20.416500 0.319100
-20.375800 0.330500
-20.335100 0.304200
-20.294500 0.301800
-20.253800 0.301700
-20.213100 0.307500
-20.172500 0.313300
-20.131800 0.319100
-20.091100 0.317600
-20.050500 0.303600
-20.009800 0.304700
-19.969100 0.305800
-19.928500 0.307000
-19.887800 0.308400
-19.847100 0.312000
-19.806500 0.315500
-19.765800 0.319100
-19.725100 0.312400
-19.684500 0.309800
-19.643800 0.307200
-19.603100 0.307200
-19.562500 0.308600
-19.521800 0.310100
-19.481200 0.311600
-19.440500 0.313000
-19.399800 0.314900
-19.359200 0.317300
-19.318500 0.319800
-19.277800 0.314400
-19.237200 0.311300
-19.196500 0.311100
-19.155800 0.310900
-19.115200 0.310600
-19.074500 0.311500
-19.033800 0.312800
-18.993200 0.314200
-18.952500 0.315500
-18.911800 0.316800
-18.871200 0.318200
-18.830500 0.319600
-18.789800 0.321400
-18.749200 0.315800
-18.708500 0.314400
-18.667800 0.313800
-18.627200 0.314200
-18.586500 0.314700
-18.545800 0.315100
-18.505200 0.315600
-18.464500 0.316200
-18.423800 0.317400
-18.383200 0.318600
-18.342500 0.319700
-18.301800 0.320900
-18.261200 0.322100
-18.220500 0.323200
-18.179800 0.319800
-18.139200 0.318600
-18.098500 0.318500
-18.057800 0.318400
-18.017200 0.318300
-17.976500 0.318900
-17.935800 0.319600
-17.895200 0.320300
-17.854500 0.320900
-17.813800 0.321600
-17.773200 0.322300
-17.732500 0.323200
-17.691800 0.324200
-17.651200 0.325300
-17.610500 0.326400
-17.569800 0.327400
-17.529200 0.325300
-17.488500 0.324600
-17.447800 0.324100
-17.407200 0.324400
-17.366500 0.324900
-17.325800 0.325300
-17.285200 0.325800
-17.244500 0.326300
-17.203800 0.327200
-17.163200 0.328100
-17.122500 0.329000
-17.081800 0.329800
-17.041200 0.330700
-17.000500 0.331600
-16.959800 0.332500
-16.919200 0.333600
-16.878500 0.334800
-16.837800 0.335300
-16.797200 0.334300
-16.756500 0.334900
-16.715800 0.335500
-16.675200 0.336000
-16.634500 0.336800
-16.593800 0.337900
-16.553200 0.339000
-16.512500 0.340400
-16.471800 0.341800
-16.431200 0.343200
-16.390500 0.344900
-16.349800 0.347100
-16.309200 0.349200
-16.268500 0.351300
-16.227800 0.353400
-16.187200 0.355600
-16.146500 0.357700
-16.105800 0.359800
-16.065200 0.363800
-16.024500 0.370000
-15.983800 0.376200
-15.943200 0.383300
-15.902500 0.390600
-15.861800 0.397900
-15.821200 0.405100
-15.780500 0.415400
-15.739800 0.428100
-15.699200 0.530400
-15.658500 0.506200
-15.617800 0.482000
-15.577200 0.767300
-15.536500 0.574300
-15.495800 0.381300
-15.455200 0.313500
-15.414500 0.299000
-15.373800 0.284600
-15.333200 0.270100
-15.292500 0.255700
-15.251800 0.243900
-15.211200 0.242400
-15.170500 0.793800
-15.129800 0.215700
-15.089200 0.207000
-15.048500 0.198400
-15.007800 0.189700
-14.967200 0.181100
-14.926500 0.172400
-14.885800 0.163800
-14.845200 0.155100
-14.804500 0.146500
-14.763800 0.137800
-14.723200 0.129200
-14.682500 0.120500
-14.641800 0.124000
-14.601200 0.144100
-14.560500 0.164200
-14.519800 0.184300
-14.479200 0.081600
-14.438500 0.076400
-14.397800 0.129600
-14.357200 0.191600
-14.316500 0.253600
-14.275800 0.315600
-14.235200 0.229900
-14.194500 0.243300
-14.153800 0.408800
-14.113200 0.780000
-14.072500 0.292200
-14.031800 0.294400
-13.991200 0.296700
-13.950500 0.298900
-13.909800 0.301200
-13.869200 0.303400
-13.828500 0.310000
-13.787800 0.329500
-13.747200 0.349300
-13.706500 0.394000
-13.665800 0.419200
-13.625200 0.444400
-13.584500 0.469600
-13.543800 0.494800
-13.503200 0.520300
-13.462500 0.550300
-13.421800 0.580300
-13.381200 0.413700
-13.340500 0.406600
-13.299800 0.399600
-13.259200 0.392600
-13.218500 0.385800
-13.177800 0.379000
-13.137200 0.372300
-13.096500 0.366300
-13.055800 0.360600
-13.015200 0.354900
-12.974500 0.349200
-12.933800 0.343500
-12.893200 0.337800
-12.852500 0.332100
-12.811800 0.326300
-12.771200 0.320300
-12.730500 0.316800
-12.689800 0.315100
-12.649200 0.313400
-12.608500 0.311800
-12.567800 0.310100
-12.527200 0.308500
-12.486500 0.306900
-12.445800 0.305300
-12.405200 0.303600
-12.364500 0.301800
-12.323800 0.300100
-12.283200 0.298300
-12.242500 0.296600
-12.201800 0.277500
-12.161200 0.276700
-12.120500 0.275900
-12.079800 0.275100
-12.039200 0.274400
-11.998500 0.273600
-11.957800 0.272800
-11.917200 0.271900
-11.876500 0.271100
-11.835800 0.270300
-11.795200 0.269400
-11.754500 0.281800
-11.713800 0.298800
-11.673200 0.315900
-11.632500 0.332900
-11.591900 0.349900
-11.551200 0.367000
-11.510500 0.384000
-11.469900 0.401000
-11.429200 0.360900
-11.388500 0.360700
-11.347900 0.361200
-11.307200 0.361500
-11.266500 0.361400
-11.225900 0.361300
-11.185200 0.361200
-11.144500 0.361200
-11.103900 0.361100
-11.063200 0.364400
-11.022500 0.368000
-10.981900 0.371600
-10.941200 0.375200
-10.900500 0.378800
-10.859900 0.382400
-10.819200 0.386000
-10.778500 0.389400
-10.737900 0.378300
-10.697200 0.377800
-10.656500 0.377800
-10.615900 0.378100
-10.575200 0.378300
-10.534500 0.378500
-10.493900 0.378800
-10.453200 0.379000
-10.412500 0.379300
-10.371900 0.391600
-10.331200 0.393000
-10.290500 0.394500
-10.249900 0.395900
-10.209200 0.397200
-10.168500 0.398000
-10.127900 0.397700
-10.087200 0.397500
-10.046500 0.397200
-10.005900 0.397000
-9.965200 0.396700
-9.924500 0.396500
-9.883900 0.398200
-9.843200 0.400000
-9.802500 0.404300
-9.761900 0.408700
-9.721200 0.411900
-9.680500 0.415100
-9.639900 0.418200
-9.599200 0.421400
-9.558500 0.424100
-9.517900 0.426800
-9.477200 0.429000
-9.436500 0.430000
-9.395900 0.431000
-9.355200 0.432000
-9.314500 0.433000
-9.273900 0.434000
-9.233200 0.434900
-9.192500 0.435900
-9.151900 0.436900
-9.111200 0.437900
-9.070500 0.431800
-9.029900 0.448700
-8.989200 0.458300
-8.948500 0.463100
-8.907900 0.467900
-8.867200 0.472700
-8.826500 0.587200
-8.785900 0.861700
-8.745200 0.716400
-8.704500 0.742400
-8.663900 0.768400
-8.623200 0.759000
-8.582500 0.739300
-8.541900 0.750700
-8.501200 0.761000
-8.460500 0.771300
-8.419900 0.781600
-8.379200 0.770800
-8.338500 0.778600
-8.297900 0.815800
-8.257200 0.841300
-8.216500 0.870600
-8.175900 0.892800
-8.135200 0.914300
-8.094500 0.932300
-8.053900 0.940000
-8.013200 0.951000
-7.972500 0.998800
-7.931900 1.045600
-7.891200 1.092400
-7.850500 1.139200
-7.809900 1.181400
-7.769200 1.119100
-7.728500 1.086900
-7.687900 1.056000
-7.647200 0.880800
-7.606500 0.691400
-7.565900 0.639700
-7.525200 0.590400
-7.484500 0.666800
-7.443900 0.750700
-7.403200 0.834600
-7.362500 0.914300
-7.321900 1.154200
-7.281200 1.202200
-7.240500 1.182300
-7.199900 1.157900
-7.159200 1.133500
-7.118500 0.935100
-7.077900 0.759700
-7.037200 0.701600
-6.996500 0.621800
-6.955900 0.545600
-6.915200 0.481500
-6.874500 0.493400
-6.833900 0.507800
-6.793200 0.522300
-6.752500 0.537200
-6.711900 0.553500
-6.671200 0.569800
-6.630500 0.593700
-6.589900 0.841000
-6.549200 0.933100
-6.508500 0.857800
-6.467900 0.810500
-6.427200 0.764800
-6.386500 0.740400
-6.345900 0.716600
-6.305200 0.692900
-6.264500 0.669100
-6.223900 0.645300
-6.183200 0.637300
-6.142500 0.635700
-6.101900 0.634100
-6.061200 0.631300
-6.020500 0.627600
-5.979900 0.623800
-5.939200 0.620100
-5.898500 0.616300
-5.857900 0.609700
-5.817200 0.604400
-5.776500 0.599900
-5.735900 0.595500
-5.695200 0.591100
-5.654500 0.588000
-5.613900 0.586200
-5.573200 0.593100
-5.532500 0.597000
-5.491900 0.592900
-5.451200 0.588800
-5.410500 0.584700
-5.369900 0.580900
-5.329200 0.577200
-5.288500 0.573500
-5.247900 0.569800
-5.207200 0.566000
-5.166500 0.563000
-5.125900 0.562500
-5.085200 0.564400
-5.044500 0.579800
-5.003900 0.576800
-4.963200 0.573800
-4.922500 0.570800
-4.881900 0.565500
-4.841200 0.560200
-4.800500 0.555100
-4.759900 0.549900
-4.719200 0.547500
-4.678500 0.560700
-4.637900 0.572700
-4.597200 0.563300
-4.556500 0.554700
-4.515900 0.546200
-4.475200 0.574400
-4.434500 0.545100
-4.393900 0.606300
-4.353200 0.503000
-4.312500 0.400500
-4.271900 0.354600
-4.231200 0.359000
-4.190500 0.365300
-4.149900 0.371500
-4.109200 0.377800
-4.068500 0.384100
-4.027900 0.393700
-3.987200 0.403300
-3.946500 0.412900
-3.905900 0.422500
-3.865200 0.435700
-3.824500 0.463000
-3.783900 0.490200
-3.743200 0.517500
-3.702600 0.544800
-3.661900 0.698200
-3.621200 0.598200
-3.580600 0.498300
-3.539900 0.489000
-3.499200 0.742800
-3.458600 0.421200
-3.417900 0.399400
-3.377200 0.377500
-3.336600 0.355700
-3.295900 0.333900
-3.255200 0.312000
-3.214600 0.290200
-3.173900 0.268300
-3.133200 0.261600
-3.092600 0.261500
-3.051900 0.261400
-3.011200 0.261300
-2.970600 0.261200
-2.929900 0.261100
-2.889200 0.201200
-2.848600 0.204200
-2.807900 0.207300
-2.767200 0.206200
-2.726600 0.199200
-2.685900 0.190300
-2.645200 0.181300
-2.604600 0.172400
-2.563900 0.163400
-2.523200 0.154400
-2.482600 0.145500
-2.441900 0.136500
-2.401200 0.127500
-2.360600 0.123700
-2.319900 0.122100
-2.279200 0.120500
-2.238600 0.118900
-2.197900 0.117400
-2.157200 0.115800
-2.116600 0.114200
-2.075900 0.112600
-2.035200 0.111100
-1.994600 0.068600
-1.953900 0.064900
-1.913200 0.061200
-1.872600 0.057500
-1.831900 0.053700
-1.791200 0.050000
-1.750600 0.046300
-1.709900 0.042600
-1.669200 0.038800
-1.628600 0.035100
-1.587900 0.031400
-1.547200 0.027600
-1.506600 0.023900
-1.465900 0.020200
-1.425200 0.016500
-1.384600 0.012700
-1.343900 0.009000
-1.303200 0.005300
-1.262600 0.001600
-1.221900 0.002300
-1.181200 0.006200
-1.140600 0.010100
-1.099900 0.014100
-1.059200 0.018000
-1.018600 0.022000
-0.977900 0.025900
-0.937200 0.029800
-0.896600 0.033800
-0.855900 0.037700
-0.815200 0.041600
-0.774600 0.045600
-0.733900 0.049500
-0.693200 0.053400
-0.652600 0.057400
-0.611900 0.061300
-0.571200 0.065200
-0.530600 0.069200
-0.489900 0.129400
-0.449200 0.129200
-0.408600 0.128900
-0.367900 0.128700
-0.327200 0.128400
-0.286600 0.128200
-0.245900 0.127900
-0.205200 0.127700
-0.164600 0.140400
-0.123900 0.154300
-0.083200 0.168300
-0.042600 0.182200
-0.001900 0.196100
0.038800 0.210100
0.079400 0.224000
0.120100 0.238000
0.160800 0.251900
0.201400 0.265900
0.242100 0.417500
0.282800 0.266400
0.323400 0.313000
0.364100 0.359700
0.404800 0.406300
0.445400 0.764300
0.486100 0.700800
0.526800 0.798400
0.567400 0.570700
0.608100 0.535600
0.648800 0.500500
0.689400 0.466900
0.730100 0.444600
0.770800 0.422300
0.811400 0.399900
0.852100 0.386600
0.892800 0.376500
0.933400 0.366800
0.974100 0.358100
1.014800 0.349400
1.055400 0.340600
1.096100 0.328900
1.136800 0.322800
1.177400 0.316700
1.218100 0.311000
1.258800 0.306700
1.299400 0.303100
1.340100 0.299700
1.380800 0.296400
1.421400 0.293000
1.462100 0.289700
1.502800 0.286400
1.543400 0.283000
1.584100 0.279700
1.624800 0.276400
1.665400 0.273300
1.706100 0.270200
1.746800 0.267100
1.787400 0.264000
1.828100 0.261400
1.868800 0.258800
1.909400 0.269300
1.950100 0.321700
1.990800 0.349100
2.031400 0.354500
2.072100 0.375500
2.112800 0.397400
2.153400 0.414000
2.194100 0.455700
2.234800 0.449900
2.275400 0.455300
2.316100 0.460000
2.356800 0.463700
2.397400 0.461800
2.438100 0.454000
2.478800 0.451500
2.519400 0.451200
2.560100 0.450400
2.600800 0.450000
2.641400 0.449700
2.682100 0.445400
2.722800 0.472400
2.763400 0.521900
2.804100 0.501200
2.844800 0.509400
2.885400 0.518800
2.926100 0.527800
2.966800 0.530300
3.007400 0.531700
3.048100 0.538500
3.088800 0.545200
3.129400 0.554400
3.170100 0.564700
3.210800 0.574300
3.251400 0.586100
3.292100 0.596300
3.332800 0.605800
3.373400 0.616400
3.414100 0.627300
3.454800 0.638000
3.495400 0.647200
3.536100 0.645500
3.576800 0.645200
3.617400 0.643800
3.658100 0.642100
3.698800 0.641900
3.739400 0.642400
3.780100 0.644000
3.820800 0.645500
3.861400 0.646700
3.902100 0.647000
3.942800 0.651800
3.983400 0.658000
4.024100 0.665400
4.064800 0.671600
4.105400 0.671600
4.146100 0.672700
4.186700 0.688400
4.227400 0.728100
4.268100 0.807600
4.308700 0.818200
4.349400 0.813700
4.390100 0.794500
4.430700 0.746600
4.471400 0.695700
4.512100 0.646100
4.552700 0.605700
4.593400 0.561000
4.634100 0.502200
4.674700 0.447900
4.715400 0.400200
4.756100 0.374200
4.796700 0.377600
4.837400 0.413800
4.878100 0.493100
4.918700 0.574400
4.959400 0.710200
5.000100 0.812900
5.040700 0.867700
5.081400 1.079700
5.122100 0.864400
5.162700 0.783600
5.203400 0.719000
5.244100 0.649300
5.284700 0.582500
5.325400 0.531700
5.366100 0.487900
5.406700 0.463600
5.447400 0.445700
5.488100 0.460800
5.528700 0.491000
5.569400 0.535600
5.610100 0.622100
5.650700 0.677000
5.691400 0.710000
5.732100 0.745500
5.772700 0.781600
5.813400 0.818200
5.854100 0.863200
5.894700 0.957600
5.935400 1.017600
5.976100 1.085100
6.016700 1.101000
6.057400 1.204300
6.098100 1.339600
6.138700 1.462800
6.179400 1.497300
6.220100 1.602600
6.260700 1.626000
6.301400 1.560500
6.342100 1.426000
6.382700 1.217600
6.423400 1.072300
6.464100 1.060000
6.504700 1.096300
6.545400 1.144500
6.586100 1.181100
6.626700 1.193000
6.667400 1.305200
6.708100 1.397100
6.748700 1.442700
6.789400 1.496900
6.830100 1.571800
6.870700 1.482300
6.911400 1.391900
6.952100 1.391600
6.992700 1.407400
7.033400 1.452900
7.074100 2.054100
7.114700 2.954800
7.155400 2.474800
7.196100 2.360900
7.236700 2.042400
7.277400 1.689200
7.318100 1.622800
7.358700 1.552400
7.399400 1.481600
7.440100 1.432200
7.480700 1.385800
7.521400 1.351000
7.562100 1.350900
7.602700 1.336900
7.643400 1.330000
7.684100 1.332900
7.724700 1.436300
7.765400 1.468900
7.806100 1.467000
7.846700 1.469700
7.887400 1.472900
7.928100 1.475900
7.968700 1.473100
8.009400 1.470900
8.050100 1.475900
8.090700 1.487500
8.131400 1.503300
8.172100 1.513200
8.212700 1.522400
8.253400 1.459300
8.294100 1.429100
8.334700 1.385100
8.375400 1.338100
8.416100 1.274500
8.456700 1.256300
8.497400 1.247700
8.538100 1.175700
8.578700 1.176700
8.619400 1.180400
8.660100 1.178100
8.700700 1.181900
8.741400 1.187400
8.782100 1.192700
8.822700 1.196700
8.863400 1.200200
8.904100 1.205800
8.944700 1.504900
8.985400 1.429600
9.026100 1.438000
9.066700 1.446400
9.107400 1.455400
9.148100 1.476200
9.188700 1.493900
9.229400 1.509600
9.270100 1.532300
9.310700 1.599800
9.351400 1.652200
9.392100 1.812100
9.432700 1.999500
9.473400 2.507400
9.514100 2.050900
9.554700 1.973000
9.595400 1.899200
9.636100 1.797000
9.676700 1.728400
9.717400 1.566100
9.758100 1.434100
9.798700 1.402200
9.839400 1.375400
9.880100 1.361100
9.920700 1.382500
9.961400 1.546100
10.002100 1.559800
10.042700 1.506300
10.083400 1.518800
10.124100 1.509400
10.164700 1.442600
10.205400 1.372200
10.246100 1.306200
10.286700 1.241700
10.327400 1.199000
10.368100 1.191900
10.408700 1.107700
10.449400 1.085200
10.490100 1.064500
10.530700 1.314600
10.571400 1.048800
10.612100 1.122700
10.652700 1.305300
10.693400 1.368400
10.734100 1.397700
10.774700 1.433400
10.815400 1.493600
10.856100 1.465400
10.896700 1.449000
10.937400 1.423300
10.978100 1.382200
11.018700 1.373600
11.059400 1.366000
11.100100 1.359500
11.140700 1.358700
11.181400 1.387300
11.222100 1.712000
11.262700 2.107900
11.303400 1.841600
11.344100 1.990400
11.384700 1.926500
11.425400 1.784700
11.466100 1.617800
11.506700 1.511200
11.547400 1.437700
11.588100 1.792200
11.628700 1.345200
11.669400 1.381900
11.710100 1.444400
11.750700 1.478800
11.791400 1.497400
11.832100 1.521900
11.872700 1.701000
11.913400 1.920300
11.954100 1.688800
11.994700 1.746800
12.035400 1.807500
12.076000 1.841000
12.116700 1.872200
12.157400 1.852600
12.198000 1.863600
12.238700 1.809900
12.279400 1.739500
12.320000 1.689700
12.360700 1.776400
12.401400 1.791900
12.442000 1.869000
12.482700 1.952100
12.523400 1.988100
12.564000 2.006400
12.604700 2.038800
12.645400 1.920900
12.686000 1.869100
12.726700 1.773800
12.767400 1.693100
12.808000 1.620500
12.848700 1.580200
12.889400 1.525800
12.930000 1.448900
12.970700 1.304900
13.011400 1.202400
13.052000 1.152400
13.092700 1.101300
13.133400 1.055200
13.174000 1.024200
13.214700 1.010700
13.255400 0.999500
13.296000 1.020000
13.336700 1.014000
13.377400 1.018500
13.418000 1.037500
13.458700 1.067700
13.499400 1.062100
13.540000 1.100600
13.580700 1.189700
13.621400 1.291700
13.662000 1.400200
13.702700 1.455800
13.743400 1.550900
13.784000 1.570300
13.824700 1.599500
13.865400 1.620100
13.906000 1.616600
13.946700 1.535500
13.987400 1.511100
14.028000 1.476800
14.068700 1.448700
14.109400 1.463400
14.150000 1.490200
14.190700 1.527200
14.231400 1.538800
14.272000 1.480700
14.312700 1.485700
14.353400 1.509400
14.394000 1.532400
14.434700 1.533200
14.475400 1.521800
14.516000 1.535800
14.556700 1.552800
14.597400 1.566600
14.638000 1.534900
14.678700 1.632600
14.719400 1.762300
14.760000 1.980000
14.800700 2.174700
14.841400 2.316700
14.882000 2.261300
14.922700 2.194400
14.963400 2.056100
15.004000 1.962100
15.044700 1.803300
15.085400 1.715600
15.126000 1.397300
15.166700 1.246300
15.207400 1.269500
15.248000 1.103400
15.288700 1.042300
15.329400 0.992100
15.370000 0.984100
15.410700 1.171900
15.451400 1.195900
15.492000 1.181600
15.532700 1.187300
15.573400 1.220600
15.614000 1.270900
15.654700 1.368600
15.695400 1.360100
15.736000 1.371300
15.776700 1.384400
15.817400 1.359500
15.858000 1.373500
15.898700 1.385300
15.939400 1.400100
15.980000 1.442200
16.020700 1.498600
16.061400 1.497300
16.102000 1.550000
16.142700 1.587600
16.183400 1.677100
16.224000 1.691500
16.264700 1.676100
16.305400 1.730600
16.346000 1.813200
16.386700 1.716400
16.427400 1.619400
16.468000 1.634100
16.508700 1.709400
16.549400 1.512100
16.590000 1.476900
16.630700 1.489600
16.671400 1.324000
16.712000 1.299400
16.752700 1.280300
16.793400 1.259600
16.834000 1.244800
16.874700 1.259200
16.915400 1.282700
16.956000 1.314400
16.996700 1.372300
17.037400 1.450300
17.078000 1.582400
17.118700 1.790200
17.159400 1.925700
17.200000 1.782000
17.240700 1.744000
17.281400 1.662500
17.322000 1.660900
17.362700 1.686800
17.403400 2.000100
17.444000 1.924800
17.484700 1.934300
17.525400 2.014700
17.566000 2.033400
17.606700 2.004300
17.647400 1.936000
17.688000 1.866300
17.728700 1.752000
17.769400 1.670400
17.810000 1.657700
17.850700 1.690000
17.891400 1.638100
17.932000 1.704200
17.972700 1.754500
18.013400 1.852900
18.054000 2.010400
18.094700 2.380300
18.135400 2.429200
18.176000 2.323600
18.216700 2.202400
18.257400 2.056600
18.298000 1.922400
18.338700 1.817100
18.379400 1.739200
18.420000 1.714100
18.460700 1.749900
18.501400 1.502500
18.542000 1.389900
18.582700 1.318000
18.623400 1.293400
18.664000 1.257100
18.704700 1.225600
18.745400 1.210200
18.786000 1.356700
18.826700 1.901200
18.867400 1.434400
18.908000 1.477700
18.948700 1.507800
18.989400 1.354200
19.030000 1.352600
19.070700 1.378100
19.111400 1.382400
19.152000 1.354000
19.192700 1.324200
19.233400 1.323800
19.274000 1.330700
19.314700 1.345800
19.355400 1.371700
19.396000 1.455700
19.436700 1.491400
19.477400 1.562700
19.518000 1.695800
19.558700 1.849100
19.599400 2.041900
19.640000 2.211800
19.680700 1.984000
19.721400 1.935200
19.762000 1.890400
19.802700 1.806100
19.843400 1.663600
19.884000 1.556000
19.924700 1.526200
19.965300 1.513100
20.006000 1.522100
20.046700 1.502900
20.087300 1.478300
20.128000 1.517100
20.168700 1.530400
20.209300 1.597300
20.250000 1.650700
20.290700 1.718600
20.331300 1.782600
20.372000 1.869100
20.412700 1.940000
20.453300 1.918900
20.494000 1.821600
20.534700 1.877500
20.575300 2.002400
20.616000 1.961300
20.656700 1.927600
20.697300 1.865600
20.738000 1.843900
20.778700 1.813700
20.819300 1.672500
20.860000 1.624400
20.900700 1.604000
20.941300 1.604900
20.982000 1.601900
21.022700 1.581300
21.063300 1.589200
21.104000 1.652100
21.144700 1.731800
21.185300 1.754000
21.226000 1.888300
21.266700 2.040900
21.307300 2.179900
21.348000 2.459600
21.388700 2.312200
21.429300 2.273500
21.470000 2.253700
21.510700 2.272900
21.551300 2.280700
21.592000 2.286700
21.632700 2.322100
21.673300 2.278200
21.714000 2.325200
21.754700 2.416300
21.795300 2.571100
21.836000 2.993600
21.876700 3.109800
21.917300 2.761300
21.958000 2.542900
21.998700 2.325200
22.039300 2.218200
22.080000 2.123400
22.120700 2.104900
22.161300 2.047800
22.202000 2.045500
22.242700 2.039700
22.283300 2.090700
22.324000 2.266900
22.364700 2.348500
22.405300 2.454000
22.446000 2.547600
22.486700 2.646900
22.527300 2.603600
22.568000 2.704800
22.608700 2.799000
22.649300 2.767900
22.690000 2.511100
22.730700 2.254400
22.771300 2.254400
22.812000 1.987700
22.852700 1.727600
22.893300 1.721300
22.934000 1.738900
22.974700 1.773500
23.015300 1.811700
23.056000 1.909800
23.096700 2.164300
23.137300 1.881300
23.178000 1.807100
23.218700 1.749800
23.259300 1.711200
23.300000 1.680000
23.340700 1.651100
23.381300 1.744500
23.422000 1.779600
23.462700 1.660500
23.503300 1.664900
23.544000 1.712400
23.584700 1.698800
23.625300 1.658000
23.666000 1.650400
23.706700 1.666900
23.747300 1.687200
23.788000 1.704700
23.828700 1.719400
23.869300 1.728000
23.910000 1.735500
23.950700 1.756800
23.991300 1.827600
24.032000 1.825300
24.072700 1.828500
24.113300 1.854400
24.154000 1.890500
24.194700 1.938400
24.235300 1.963100
24.276000 1.909600
24.316700 1.885400
24.357300 1.883800
24.398000 1.881100
24.438700 1.875200
24.479300 1.867300
24.520000 1.863300
24.560700 1.865800
24.601300 1.935300
24.642000 2.014500
24.682700 2.093800
24.723300 2.171400
24.764000 2.146200
24.804700 2.112100
24.845300 2.056000
24.886000 2.012100
24.926700 1.964700
24.967300 1.940800
25.008000 1.985100
25.048700 2.013600
25.089300 1.921600
25.130000 1.954300
25.170700 1.964100
25.211300 1.988900
25.252000 2.063400
25.292700 2.079600
25.333300 2.153500
25.374000 2.212900
25.414700 2.176600
25.455300 2.172600
25.496000 2.161300
25.536700 2.154700
25.577300 2.194400
25.618000 2.172100
25.658700 2.141900
25.699300 2.087200
25.740000 2.029900
25.780700 2.003000
25.821300 1.993400
25.862000 2.025900
25.902700 1.974000
25.943300 1.958200
25.984000 1.939200
26.024700 1.909800
26.065300 1.880000
26.106000 1.862000
26.146700 1.842700
26.187300 1.829200
26.228000 1.823200
26.268700 1.817700
26.309300 1.821100
26.350000 1.828100
26.390700 1.830000
26.431300 1.840700
26.472000 1.844200
26.512700 1.848000
26.553300 1.856300
26.594000 1.869100
26.634700 1.881400
26.675300 1.961600
26.716000 2.063200
26.756700 1.984900
26.797300 1.944600
26.838000 1.913600
26.878700 1.896300
26.919300 1.921600
26.960000 1.886900
27.000700 1.861600
27.041300 1.841500
27.082000 1.843700
27.122700 1.868000
27.163300 1.903400
27.204000 1.903300
27.244700 2.034200
27.285300 2.029100
27.326000 2.001100
27.366700 2.185900
27.407300 1.818400
27.448000 1.807100
27.488700 1.777800
27.529300 1.767500
27.570000 1.757300
27.610700 1.740300
27.651300 1.790900
27.692000 1.809300
27.732700 1.947500
27.773300 1.894900
27.814000 1.906800
27.854600 1.842100
27.895300 1.811300
27.936000 1.794300
27.976600 1.846500
28.017300 1.895300
28.058000 1.831300
28.098600 1.784300
28.139300 1.782600
28.180000 1.783200
28.220600 1.858400
28.261300 1.885000
28.302000 1.920000
28.342600 1.881400
28.383300 1.905000
28.424000 1.931000
28.464600 1.962100
28.505300 2.001200
28.546000 2.041300
28.586600 2.086500
28.627300 2.128000
28.668000 2.165200
28.708600 2.145300
28.749300 2.048600
28.790000 1.935900
28.830600 1.880500
28.871300 1.875000
28.912000 1.879600
28.952600 1.885300
28.993300 1.869500
29.034000 1.854300
29.074600 1.859000
29.115300 1.847500
29.156000 1.798000
29.196600 1.760600
29.237300 1.736800
29.278000 1.736900
29.318600 1.811800
29.359300 1.802500
29.400000 1.797100
29.440600 1.777500
29.481300 1.744800
29.522000 1.665100
29.562600 1.616100
29.603300 1.606300
29.644000 1.571700
29.684600 1.596100
29.725300 1.658800
29.766000 1.682700
29.806600 1.731700
29.847300 1.770200
29.888000 1.821400
29.928600 1.877300
29.969300 1.981900
30.010000 2.176900
30.050600 2.158700
30.091300 2.078000
30.132000 1.992400
30.172600 1.982100
30.213300 1.990900
30.254000 2.039800
30.294600 2.083700
30.335300 2.140000
30.376000 2.189400
30.416600 2.141100
30.457300 2.120700
30.498000 2.110500
30.538600 2.096100
30.579300 2.083500
30.620000 2.081200
30.660600 2.056900
30.701300 1.999200
30.742000 1.972700
30.782600 2.010700
30.823300 1.996200
30.864000 1.974500
30.904600 2.090100
30.945300 2.115900
30.986000 2.007300
31.026600 1.973600
31.067300 2.021400
31.108000 1.907500
31.148600 1.870300
31.189300 1.857100
31.230000 1.857100
31.270600 1.872500
31.311300 1.881900
31.352000 1.898400
31.392600 1.881300
31.433300 1.902500
31.474000 1.937900
31.514600 1.968900
31.555300 2.010600
31.596000 2.041300
31.636600 2.110700
31.677300 2.097300
31.718000 2.111900
31.758600 2.150800
31.799300 2.171500
31.840000 2.154100
31.880600 2.155300
31.921300 2.160200
31.962000 2.177700
32.002600 2.225300
32.043300 2.161200
32.084000 2.115000
32.124600 2.071000
32.165300 2.059200
32.206000 2.021500
32.246600 2.001100
32.287300 1.955900
32.328000 1.964800
32.368600 1.989600
32.409300 2.044900
32.450000 2.141500
32.490600 2.050500
32.531300 1.994500
32.572000 2.001100
32.612600 2.029700
32.653300 2.012900
32.694000 2.010200
32.734600 2.071100
32.775300 2.115800
32.816000 2.142600
32.856600 2.241700
32.897300 2.119200
32.938000 2.028800
32.978600 1.964600
33.019300 1.943600
33.060000 1.920000
33.100600 1.901700
33.141300 1.884200
33.182000 1.864800
33.222600 1.837100
33.263300 1.800400
33.304000 1.839800
33.344600 1.833100
33.385300 1.779600
33.426000 1.753000
33.466600 1.759600
33.507300 1.755600
33.548000 1.766600
33.588600 1.797500
33.629300 1.843700
33.670000 1.887200
33.710600 1.871500
33.751300 1.884800
33.792000 1.883700
33.832600 1.907900
33.873300 1.981700
33.914000 2.070000
33.954600 1.983500
33.995300 2.006400
34.036000 1.999900
34.076600 2.001200
34.117300 2.006500
34.158000 2.018500
34.198600 2.059500
34.239300 2.109400
34.280000 2.203900
34.320600 2.180600
34.361300 2.175700
34.402000 2.232900
34.442600 2.278900
34.483300 2.356000
34.524000 2.337100
34.564600 2.263000
34.605300 2.230300
34.646000 2.194500
34.686600 2.191100
34.727300 2.294500
34.768000 2.229800
34.808600 2.115600
34.849300 1.971800
34.890000 1.936700
34.930600 1.916100
34.971300 1.953900
35.012000 1.983700
35.052600 2.025400
35.093300 2.049800
35.134000 2.036300
35.174600 2.050300
35.215300 2.052100
35.256000 1.984800
35.296600 1.954800
35.337300 1.972900
35.378000 1.981000
35.418600 1.926900
35.459300 1.898400
35.500000 1.867100
35.540600 1.897900
35.581300 1.889000
35.622000 1.860300
35.662600 1.835800
35.703300 1.857900
35.743900 1.844900
35.784600 1.836600
35.825300 1.892400
35.865900 1.728600
35.906600 1.726400
35.947300 1.779900
35.987900 1.704400
36.028600 1.759600
36.069300 1.861800
36.109900 1.983200
36.150600 2.142500
36.191300 2.294600
36.231900 2.468600
36.272600 2.644900
36.313300 2.768200
36.353900 2.829600
36.394600 2.973600
36.435300 2.978400
36.475900 2.898800
36.516600 2.904900
36.557300 2.830400
36.597900 2.706300
36.638600 2.623000
36.679300 2.604300
36.719900 2.695100
36.760600 2.691200
36.801300 2.931300
36.841900 2.933000
36.882600 2.829800
36.923300 2.658600
36.963900 2.610800
37.004600 2.562800
37.045300 2.505800
37.085900 2.506300
37.126600 2.508700
37.167300 2.458800
37.207900 2.426600
37.248600 2.297200
37.289300 2.193800
37.329900 2.132400
37.370600 2.018600
37.411300 1.941500
37.451900 1.936000
37.492600 1.888400
37.533300 1.883700
37.573900 1.944200
37.614600 2.084700
37.655300 2.214500
37.695900 2.289300
37.736600 2.251600
37.777300 2.092300
37.817900 2.065500
37.858600 1.904000
37.899300 1.925300
37.939900 1.958000
37.980600 1.989000
38.021300 2.007400
38.061900 2.006100
38.102600 2.047400
38.143300 2.127700
38.183900 2.294800
38.224600 2.408600
38.265300 2.515400
38.305900 2.383200
38.346600 2.384900
38.387300 2.347400
38.427900 2.194500
38.468600 2.156900
38.509300 2.136500
38.549900 2.139100
38.590600 2.144600
38.631300 2.238400
38.671900 2.270200
38.712600 2.321500
38.753300 2.358200
38.793900 2.357400
38.834600 3.018800
38.875300 2.515200
38.915900 2.653100
38.956600 2.544900
38.997300 2.504000
39.037900 2.468000
39.078600 2.422400
39.119300 2.259400
39.159900 2.107200
39.200600 2.162700
39.241300 2.097100
39.281900 2.127600
39.322600 2.131500
39.363300 2.148500
39.403900 2.200400
39.444600 2.229200
39.485300 2.386800
39.525900 2.336300
39.566600 2.318400
39.607300 2.377600
39.647900 2.396400
39.688600 2.466600
39.729300 2.616200
39.769900 2.364100
39.810600 2.342700
39.851300 2.279200
39.891900 2.255300
39.932600 2.241200
39.973300 2.303400
40.013900 2.497400
40.054600 2.450000
40.095300 2.502800
40.135900 2.504300
40.176600 2.393800
40.217300 2.393500
40.257900 2.451300
40.298600 2.512100
40.339300 2.533400
40.379900 2.562900
40.420600 2.523800
40.461300 2.482400
40.501900 2.385500
40.542600 2.336900
40.583300 2.356200
40.623900 2.413600
40.664600 2.379500
40.705300 2.332300
40.745900 2.284800
40.786600 2.108200
40.827300 2.059800
40.867900 2.010900
40.908600 2.011700
40.949300 2.331100
40.989900 2.464700
41.030600 2.545700
41.071300 2.580600
41.111900 2.693500
41.152600 2.715000
41.193300 2.841900
41.233900 2.943000
41.274600 3.042300
41.315300 3.120500
41.355900 3.146800
41.396600 2.998000
41.437300 2.869700
41.477900 2.771600
41.518600 2.675300
41.559300 2.710000
41.599900 2.586200
41.640600 2.453900
41.681300 2.404400
41.721900 2.445800
41.762600 2.533600
41.803300 2.494400
41.843900 2.542200
41.884600 2.593200
41.925300 2.738900
41.965900 2.776200
42.006600 2.952800
42.047300 2.747000
42.087900 2.650400
42.128600 2.632500
42.169300 2.521400
42.209900 2.322900
42.250600 2.279800
42.291300 2.254400
42.331900 2.139200
42.372600 2.169700
42.413300 2.215000
42.453900 2.285000
42.494600 2.437800
42.535300 2.830500
42.575900 2.959700
42.616600 3.132800
42.657300 3.135800
42.697900 3.087100
42.738600 2.941400
42.779300 2.716200
42.819900 2.559900
42.860600 2.499700
42.901300 2.498000
42.941900 2.642200
42.982600 2.683200
43.023300 2.657300
43.063900 2.623100
43.104600 2.613800
43.145300 2.649800
43.185900 2.651800
43.226600 2.760700
43.267300 2.751100
43.307900 2.660500
43.348600 2.616200
43.389300 2.764600
43.429900 2.683600
43.470600 2.646400
43.511300 2.636000
43.551900 2.635300
43.592600 2.615900
43.633200 2.537500
43.673900 2.520300
43.714600 2.467100
43.755200 2.387600
43.795900 2.350300
43.836600 2.306800
43.877200 2.276000
43.917900 2.205300
43.958600 2.197500
43.999200 2.135100
44.039900 2.106400
44.080600 2.087600
44.121200 2.100900
44.161900 2.123000
44.202600 2.203800
44.243200 2.635100
44.283900 2.575100
44.324600 2.691100
44.365200 2.752800
44.405900 2.803800
44.446600 2.751600
44.487200 2.606600
44.527900 2.525700
44.568600 2.474200
44.609200 2.442900
44.649900 2.324200
44.690600 2.304100
44.731200 2.285600
44.771900 2.368900
44.812600 2.501300
44.853200 2.566300
44.893900 2.511000
44.934600 2.564300
44.975200 2.723600
45.015900 2.583800
45.056600 2.602400
45.097200 2.518500
45.137900 2.510200
45.178600 2.525100
45.219200 2.503600
45.259900 2.469100
45.300600 2.411800
45.341200 2.293600
45.381900 2.207500
45.422600 2.305200
45.463200 2.184200
45.503900 2.213400
45.544600 2.112300
45.585200 2.065100
45.625900 2.226700
45.666600 2.114500
45.707200 2.179800
45.747900 2.263700
45.788600 2.439100
45.829200 2.505200
45.869900 2.451600
45.910600 2.429100
45.951200 2.421200
45.991900 2.238200
46.032600 2.173700
46.073200 2.113900
46.113900 2.046000
46.154600 1.948800
46.195200 1.933000
46.235900 1.852100
46.276600 1.895200
46.317200 1.873800
46.357900 1.878500
46.398600 1.911500
46.439200 1.925100
46.479900 1.836400
46.520600 1.840900
46.561200 1.850200
46.601900 1.865800
46.642600 1.899200
46.683200 2.011500
46.723900 2.038000
46.764600 2.124900
46.805200 2.166000
46.845900 2.121000
46.886600 2.138500
46.927200 2.158000
46.967900 2.202900
47.008600 2.199700
47.049200 2.214900
47.089900 2.213800
47.130600 2.234800
47.171200 2.206600
47.211900 2.113900
47.252600 2.079700
47.293200 2.070100
47.333900 2.048000
47.374600 2.038200
47.415200 2.009300
47.455900 1.995600
47.496600 1.956200
47.537200 1.944300
47.577900 1.935600
47.618600 1.931900
47.659200 1.933200
47.699900 2.018600
47.740600 2.044600
47.781200 1.892100
47.821900 1.798800
47.862600 1.721000
47.903200 1.669900
47.943900 1.648800
47.984600 1.628600
48.025200 1.620300
48.065900 1.630400
48.106600 1.756300
48.147200 1.667900
48.187900 1.583900
48.228600 1.616400
48.269200 1.653700
48.309900 1.666500
48.350600 1.726000
48.391200 1.620400
48.431900 1.584800
48.472600 1.570200
48.513200 1.516100
48.553900 1.490100
48.594600 1.466300
48.635200 1.445000
48.675900 1.426800
48.716600 1.407900
48.757200 1.399800
48.797900 1.398100
48.838600 1.398700
48.879200 1.405400
48.919900 1.405700
48.960600 1.418600
49.001200 1.413200
49.041900 1.413500
49.082600 1.415800
49.123200 1.389700
49.163900 1.387200
49.204600 1.373500
49.245200 1.335900
49.285900 1.272900
49.326600 1.202900
49.367200 1.091700
49.407900 1.017400
49.448600 0.963900
49.489200 0.912000
49.529900 0.866300
49.570600 0.828400
49.611200 0.791700
49.651900 0.773000
49.692600 0.759500
49.733200 0.742300
49.773900 0.740200
49.814600 0.729500
49.855200 0.785200
49.895900 0.736600
49.936600 0.695800
49.977200 0.663600
50.017900 0.654100
50.058600 0.650600
50.099200 0.654400
50.139900 0.662600
50.180600 0.675400
50.221200 0.621000
50.261900 0.610200
50.302600 0.653100
50.343200 0.706000
50.383900 0.718200
50.424600 0.619300
50.465200 0.605100
50.505900 0.591700
50.546600 0.580700
50.587200 0.571800
50.627900 0.550800
50.668600 0.526700
50.709200 0.502500
50.749900 0.478200
50.790600 0.453100
50.831200 0.426900
50.871900 0.401800
50.912600 0.379500
50.953200 0.342500
50.993900 0.343000
51.034600 0.313400
51.075200 0.287900
51.115900 0.270000
51.156600 0.286400
51.197200 0.307400
51.237900 0.326900
51.278600 0.344900
51.319200 0.361300
51.359900 0.345900
51.400600 0.307100
51.441200 0.274700
51.481900 0.244100
51.522500 0.227900
51.563200 0.220800
51.603900 0.214100
51.644500 0.207700
51.685200 0.217400
51.725900 0.205100
51.766500 0.164400
51.807200 0.138600
51.847900 0.118700
51.888500 0.120500
51.929200 0.113800
51.969900 0.107200
52.010500 0.100700
52.051200 0.094400
52.091900 0.088100
52.132500 0.082000
52.173200 0.076100
52.213900 0.070200
52.254500 0.064500
52.295200 0.058900
52.335900 0.053500
52.376500 0.051300
52.417200 0.044400
52.457900 0.031500
52.498500 0.024300
52.539200 0.021500
52.579900 0.018900
52.620500 0.016500
52.661200 0.014200
52.701900 0.012100
52.742500 0.010200
52.783200 0.008400
52.823900 0.006800
52.864500 0.005400
52.905200 0.004100
52.945900 0.003000
52.986500 0.002100
53.027200 0.001300
53.067900 0.000800
53.108500 0.000300
53.149200 0.000100
53.189900 0.000000
53.230500 0.000000
53.271200 0.000000
53.311900 0.000000
53.352500 0.000000
53.393200 0.000000
53.433900 0.000000
53.474500 0.000000
53.515200 0.000000
53.555900 0.000000
53.596500 0.000000
53.637200 0.000000
53.677900 0.000000
53.718500 0.000000
53.759200 0.000000
53.799900 0.000000
53.840500 0.000000
53.881200 0.000000
53.921900 0.000000
53.962500 0.000000
54.003200 0.000000
54.043900 0.000000
54.084500 0.000000
54.125200 0.000000
54.165900 0.000000
54.206500 0.000000
54.247200 0.000000
54.287900 0.000000
54.328500 0.000000
54.369200 0.000000
54.409900 0.000000
54.450500 0.000000
54.491200 0.000000
54.531900 0.000000
54.572500 0.000000
54.613200 0.000000
54.653900 0.000000
54.694500 0.000000
54.735200 0.000000
54.775900 0.000000
54.816500 0.000000
54.857200 0.000000
54.897900 0.000000
54.938500 0.000000
54.979200 0.000000
55.019900 0.000000
55.060500 0.000000
55.101200 0.000000
55.141900 0.000000
55.182500 0.000000
55.223200 0.000000
55.263900 0.000000
55.304500 0.000000
55.345200 0.000000
55.385900 0.000000
55.426500 0.000000
55.467200 0.000000
55.507900 0.000000
55.548500 0.000000
55.589200 0.000000
55.629900 0.000000
55.670500 0.000000
55.711200 0.000000
55.751900 0.000000
55.792500 0.000000
55.833200 0.000000
55.873900 0.000000
55.914500 0.000000
55.955200 0.000000
55.995900 0.000000
56.036500 0.000000
56.077200 0.000000
56.117900 0.000000
56.158500 0.000000
56.199200 0.000000
56.239900 0.000000
56.280500 0.000000
56.321200 0.000000
56.361900 0.000000
56.402500 0.000000
56.443200 0.000000
56.483900 0.000000
56.524500 0.000000
56.565200 0.000000
56.605900 0.000000
56.646500 0.000000
56.687200 0.000000
56.727900 0.000000
56.768500 0.000000
56.809200 0.000000
56.849900 0.000000
56.890500 0.000000
e
