set title 'mp-1183189 - Density of States'
set xlabel 'Energy (eV)'
set ylabel 'DOS (states/eV)'
set grid
set xrange [-10:10]
set yrange [0:16.401]
set xzeroaxis lt -1
set terminal png size 800,600
set output 'mp-1183189_dos_gnuplot.png'
plot '-' using 1:2 with lines title 'DOS'
-5.564800 0.000000
-5.540700 0.000000
-5.516500 0.000000
-5.492300 0.000000
-5.468100 0.000000
-5.443900 0.000000
-5.419700 0.000000
-5.395600 0.000000
-5.371400 0.000000
-5.347200 0.000000
-5.323000 0.000000
-5.298800 0.000000
-5.274700 0.000000
-5.250500 0.000000
-5.226300 0.000000
-5.202100 0.000000
-5.177900 0.000000
-5.153700 0.000000
-5.129600 0.000000
-5.105400 0.000000
-5.081200 0.000000
-5.057000 0.000000
-5.032800 0.000000
-5.008700 0.000000
-4.984500 0.000000
-4.960300 0.000000
-4.936100 0.000000
-4.911900 0.000000
-4.887800 0.000000
-4.863600 0.000000
-4.839400 0.000000
-4.815200 0.000000
-4.791000 0.000000
-4.766800 0.000000
-4.742700 0.000000
-4.718500 0.000000
-4.694300 0.000000
-4.670100 0.000000
-4.645900 0.000000
-4.621800 0.000000
-4.597600 0.000000
-4.573400 0.000000
-4.549200 0.000000
-4.525000 0.000000
-4.500800 0.000000
-4.476700 0.000000
-4.452500 0.000000
-4.428300 0.000000
-4.404100 0.000000
-4.379900 0.000000
-4.355800 0.000000
-4.331600 0.000000
-4.307400 0.000000
-4.283200 0.000000
-4.259000 0.000000
-4.234800 0.000000
-4.210700 0.000000
-4.186500 0.000000
-4.162300 0.000000
-4.138100 0.000000
-4.113900 0.000000
-4.089800 0.000000
-4.065600 0.000000
-4.041400 0.000000
-4.017200 0.000000
-3.993000 0.000000
-3.968800 0.000000
-3.944700 0.000000
-3.920500 0.000000
-3.896300 0.000000
-3.872100 0.000000
-3.847900 0.000000
-3.823800 0.000000
-3.799600 0.000000
-3.775400 0.000000
-3.751200 0.000000
-3.727000 0.000000
-3.702800 0.000000
-3.678700 0.000000
-3.654500 0.000000
-3.630300 0.000000
-3.606100 0.000000
-3.581900 0.000000
-3.557800 0.000000
-3.533600 0.000000
-3.509400 0.000000
-3.485200 0.000000
-3.461000 0.000300
-3.436800 0.001900
-3.412700 0.007500
-3.388500 0.019700
-3.364300 0.037600
-3.340100 0.057000
-3.315900 0.076300
-3.291800 0.104700
-3.267600 0.158500
-3.243400 0.218300
-3.219200 0.222000
-3.195000 0.154400
-3.170800 0.082600
-3.146700 0.074700
-3.122500 0.143300
-3.098300 0.245500
-3.074100 0.318000
-3.049900 0.335800
-3.025800 0.325700
-3.001600 0.335600
-2.977400 0.360300
-2.953200 0.323300
-2.929000 0.208100
-2.904800 0.102900
-2.880700 0.083900
-2.856500 0.155100
-2.832300 0.267200
-2.808100 0.357200
-2.783900 0.398000
-2.759800 0.423300
-2.735600 0.504100
-2.711400 0.614900
-2.687200 0.595900
-2.663000 0.401700
-2.638800 0.197800
-2.614700 0.130400
-2.590500 0.195000
-2.566300 0.298500
-2.542100 0.361700
-2.517900 0.389000
-2.493800 0.450300
-2.469600 0.573100
-2.445400 0.638600
-2.421200 0.516900
-2.397000 0.293000
-2.372900 0.164400
-2.348700 0.221400
-2.324500 0.410500
-2.300300 0.596300
-2.276100 0.675300
-2.251900 0.650700
-2.227800 0.605400
-2.203600 0.595200
-2.179400 0.544200
-2.155200 0.382200
-2.131000 0.209700
-2.106900 0.175100
-2.082700 0.316000
-2.058500 0.536500
-2.034300 0.689300
-2.010100 0.716200
-1.985900 0.701200
-1.961800 0.767900
-1.937600 0.862000
-1.913400 0.770100
-1.889200 0.481100
-1.865000 0.229300
-1.840900 0.163000
-1.816700 0.236400
-1.792500 0.343200
-1.768300 0.438900
-1.744100 0.571900
-1.719900 0.800900
-1.695800 1.016500
-1.671600 0.972200
-1.647400 0.651500
-1.623200 0.342300
-1.599000 0.277600
-1.574900 0.450200
-1.550700 0.706400
-1.526500 0.883900
-1.502300 0.918600
-1.478100 0.893200
-1.453900 0.886700
-1.429800 0.791600
-1.405600 0.544800
-1.381400 0.345900
-1.357200 0.397900
-1.333000 0.643500
-1.308900 0.847300
-1.284700 0.878700
-1.260500 0.830500
-1.236300 0.841600
-1.212100 0.876400
-1.187900 0.766700
-1.163800 0.509100
-1.139600 0.313300
-1.115400 0.312500
-1.091200 0.420000
-1.067000 0.490300
-1.042900 0.548900
-1.018700 0.761700
-0.994500 1.109300
-0.970300 1.274400
-0.946100 1.051300
-0.921900 0.685200
-0.897800 0.594300
-0.873600 0.916100
-0.849400 1.379900
-0.825200 1.574000
-0.801000 1.401100
-0.776900 1.117600
-0.752700 0.897700
-0.728500 0.697900
-0.704300 0.496800
-0.680100 0.372000
-0.655900 0.413800
-0.631800 0.636500
-0.607600 0.929900
-0.583400 1.144200
-0.559200 1.203000
-0.535000 1.081400
-0.510900 0.807500
-0.486700 0.528200
-0.462500 0.401200
-0.438300 0.430500
-0.414100 0.543200
-0.389900 0.739000
-0.365800 0.992900
-0.341600 1.178600
-0.317400 1.251800
-0.293200 1.268000
-0.269000 1.196800
-0.244900 1.024800
-0.220700 0.929100
-0.196500 1.058000
-0.172300 1.291300
-0.148100 1.424200
-0.123900 1.426100
-0.099800 1.380700
-0.075600 1.330500
-0.051400 1.264800
-0.027200 1.171900
-0.003000 1.090200
0.021100 1.080200
0.045300 1.149000
0.069500 1.239300
0.093700 1.313300
0.117900 1.436900
0.142000 1.627300
0.166200 1.761500
0.190400 1.775500
0.214600 1.711200
0.238800 1.619900
0.263000 1.557900
0.287100 1.506900
0.311300 1.360300
0.335500 1.136500
0.359700 1.020800
0.383900 1.104000
0.408000 1.286600
0.432200 1.445800
0.456400 1.491200
0.480600 1.405700
0.504800 1.347800
0.529000 1.477300
0.553100 1.705700
0.577300 1.841800
0.601500 1.854100
0.625700 1.789000
0.649900 1.658100
0.674000 1.543800
0.698200 1.610100
0.722400 1.876200
0.746600 2.083200
0.770800 2.008500
0.795000 1.756700
0.819100 1.520600
0.843300 1.342200
0.867500 1.304900
0.891700 1.553500
0.915900 1.932400
0.940000 2.063300
0.964200 1.853400
0.988400 1.567500
1.012600 1.487700
1.036800 1.694800
1.061000 2.017100
1.085100 2.221300
1.109300 2.332300
1.133500 2.493300
1.157700 2.595500
1.181900 2.438000
1.206000 2.180600
1.230200 2.265700
1.254400 2.855200
1.278600 3.595400
1.302800 3.976700
1.327000 3.842700
1.351100 3.441000
1.375300 3.089800
1.399500 3.077900
1.423700 3.588600
1.447900 4.386700
1.472000 4.900700
1.496200 4.813400
1.520400 4.264800
1.544600 3.528100
1.568800 2.869800
1.593000 2.545900
1.617100 2.595700
1.641300 2.744900
1.665500 2.723400
1.689700 2.611700
1.713900 2.643000
1.738000 2.829000
1.762200 3.077000
1.786400 3.380900
1.810600 3.605700
1.834800 3.497800
1.859000 3.189800
1.883100 3.209500
1.907300 3.809100
1.931500 4.726900
1.955700 5.572800
1.979900 6.184600
2.004000 6.730900
2.028200 7.393400
2.052400 7.932900
2.076600 7.946400
2.100800 7.491200
2.125000 7.052000
2.149100 6.940400
2.173300 7.139200
2.197500 7.648900
2.221700 8.451900
2.245900 9.369400
2.270000 10.448400
2.294200 11.922800
2.318400 13.559100
2.342600 14.721500
2.366800 14.909800
2.391000 13.855700
2.415100 11.656800
2.439300 9.044100
2.463500 6.862800
2.487700 5.312200
2.511900 4.186200
2.536000 3.325600
2.560200 2.651400
2.584400 2.148000
2.608600 1.811400
2.632800 1.635300
2.656900 1.563500
2.681100 1.411000
2.705300 1.109200
2.729500 0.877300
2.753700 0.911800
2.777900 1.172100
2.802000 1.464900
2.826200 1.563600
2.850400 1.398400
2.874600 1.198600
2.898800 1.284400
2.922900 1.738300
2.947100 2.485200
2.971300 3.516100
2.995500 4.595400
3.019700 5.103500
3.043900 4.717100
3.068000 3.796800
3.092200 2.914100
3.116400 2.394100
3.140600 2.185400
3.164800 2.005100
3.188900 1.690100
3.213100 1.344700
3.237300 1.158400
3.261500 1.221100
3.285700 1.528800
3.309900 1.973500
3.334000 2.290400
3.358200 2.305100
3.382400 2.102400
3.406600 1.786900
3.430800 1.424600
3.454900 1.197400
3.479100 1.302300
3.503300 1.688600
3.527500 2.052400
3.551700 2.139800
3.575900 1.962000
3.600000 1.689200
3.624200 1.461100
3.648400 1.353000
3.672600 1.387300
3.696800 1.498500
3.720900 1.584000
3.745100 1.599000
3.769300 1.563600
3.793500 1.501100
3.817700 1.435900
3.841900 1.426600
3.866000 1.447600
3.890200 1.378500
3.914400 1.212400
3.938600 1.069200
3.962800 1.076200
3.986900 1.292200
4.011100 1.623000
4.035300 1.890200
4.059500 1.989400
4.083700 1.941100
4.107900 1.873100
4.132000 1.912300
4.156200 2.058900
4.180400 2.190500
4.204600 2.168500
4.228800 1.934300
4.252900 1.519400
4.277100 1.074700
4.301300 0.851900
4.325500 0.944900
4.349700 1.147700
4.373900 1.294300
4.398000 1.494300
4.422200 1.764600
4.446400 1.885700
4.470600 1.851100
4.494800 1.881700
4.518900 1.955900
4.543100 1.887800
4.567300 1.717200
4.591500 1.563100
4.615700 1.392800
4.639900 1.195900
4.664000 1.088000
4.688200 1.152100
4.712400 1.314500
4.736600 1.410900
4.760800 1.369600
4.784900 1.249900
4.809100 1.131200
4.833300 1.095900
4.857500 1.231000
4.881700 1.498600
4.905900 1.744300
4.930000 1.899500
4.954200 1.929700
4.978400 1.761900
5.002600 1.493600
5.026800 1.314500
5.050900 1.218700
5.075100 1.067700
5.099300 0.821200
5.123500 0.647100
5.147700 0.771800
5.171800 1.137900
5.196000 1.370600
5.220200 1.235300
5.244400 0.956500
5.268600 0.899500
5.292800 1.105100
5.316900 1.314000
5.341100 1.351700
5.365300 1.268700
5.389500 1.149300
5.413700 1.007900
5.437800 0.841300
5.462000 0.686600
5.486200 0.632300
5.510400 0.745400
5.534600 0.938100
5.558800 0.996100
5.582900 0.841200
5.607100 0.646800
5.631300 0.615000
5.655500 0.763000
5.679700 0.970300
5.703800 1.123100
5.728000 1.179200
5.752200 1.179400
5.776400 1.197600
5.800600 1.224200
5.824800 1.202500
5.848900 1.151700
5.873100 1.114600
5.897300 1.089400
5.921500 1.081200
5.945700 1.112000
5.969800 1.143600
5.994000 1.160300
6.018200 1.317200
6.042400 1.739500
6.066600 2.217700
6.090800 2.425900
6.114900 2.316600
6.139100 2.071600
6.163300 1.865700
6.187500 1.727800
6.211700 1.536800
6.235800 1.265700
6.260000 1.107400
6.284200 1.201100
6.308400 1.438800
6.332600 1.643100
6.356800 1.760800
6.380900 1.793800
6.405100 1.731900
6.429300 1.662400
6.453500 1.750900
6.477700 2.040200
6.501800 2.291900
6.526000 2.143200
6.550200 1.588400
6.574400 1.045000
6.598600 0.886400
6.622800 1.170800
6.646900 1.714500
6.671100 2.272000
6.695300 2.635600
6.719500 2.619000
6.743700 2.197900
6.767800 1.668700
6.792000 1.423400
6.816200 1.548800
6.840400 1.758600
6.864600 1.744900
6.888800 1.507200
6.912900 1.303900
6.937100 1.303000
6.961300 1.373600
6.985500 1.343600
7.009700 1.278200
7.033800 1.349500
7.058000 1.581000
7.082200 1.815100
7.106400 1.927900
7.130600 1.951600
7.154800 1.894400
7.178900 1.718000
7.203100 1.533100
7.227300 1.483300
7.251500 1.453200
7.275700 1.215100
7.299800 0.838400
7.324000 0.619700
7.348200 0.722900
7.372400 1.111000
7.396600 1.603100
7.420800 1.907000
7.444900 1.823800
7.469100 1.491700
7.493300 1.246600
7.517500 1.227000
7.541700 1.309300
7.565800 1.361900
7.590000 1.399100
7.614200 1.508500
7.638400 1.690800
7.662600 1.811200
7.686700 1.759000
7.710900 1.621000
7.735100 1.512000
7.759300 1.369300
7.783500 1.176800
7.807700 1.060700
7.831800 1.067300
7.856000 1.141100
7.880200 1.214800
7.904400 1.288800
7.928600 1.476200
7.952700 1.795400
7.976900 2.016400
8.001100 1.935100
8.025300 1.660000
8.049500 1.444200
8.073700 1.374400
8.097800 1.364300
8.122000 1.342600
8.146200 1.322200
8.170400 1.270400
8.194600 1.151100
8.218700 1.077900
8.242900 1.141800
8.267100 1.297600
8.291300 1.517800
8.315500 1.763400
8.339700 1.900200
8.363800 1.874500
8.388000 1.798000
8.412200 1.739500
8.436400 1.649700
8.460600 1.525000
8.484700 1.462800
8.508900 1.565600
8.533100 1.814400
8.557300 2.014800
8.581500 1.967400
8.605700 1.682900
8.629800 1.339200
8.654000 1.108200
8.678200 1.081200
8.702400 1.246600
8.726600 1.449800
8.750700 1.522400
8.774900 1.528800
8.799100 1.627200
8.823300 1.786800
8.847500 1.942300
8.871700 2.107800
8.895800 2.226800
8.920000 2.240400
8.944200 2.175400
8.968400 2.067100
8.992600 1.971300
9.016700 1.948300
9.040900 2.029000
9.065100 2.200800
9.089300 2.327800
9.113500 2.269900
9.137700 2.064200
9.161800 1.830800
9.186000 1.633200
9.210200 1.482000
9.234400 1.376200
9.258600 1.336200
9.282700 1.368800
9.306900 1.445500
9.331100 1.537900
9.355300 1.587700
9.379500 1.533100
9.403700 1.412000
9.427800 1.369100
9.452000 1.501700
9.476200 1.745000
9.500400 1.933300
9.524600 1.946400
9.548700 1.850400
9.572900 1.756100
9.597100 1.641500
9.621300 1.527200
9.645500 1.492800
9.669700 1.499200
9.693800 1.490300
9.718000 1.515200
9.742200 1.645300
9.766400 1.889400
9.790600 2.121000
9.814700 2.122900
9.838900 1.836200
9.863100 1.423800
9.887300 1.061600
9.911500 0.834600
9.935700 0.779000
9.959800 0.897200
9.984000 1.204900
10.008200 1.702100
10.032400 2.190200
10.056600 2.367000
10.080700 2.251300
10.104900 2.159300
10.129100 2.219600
10.153300 2.246200
10.177500 2.063800
10.201600 1.763500
10.225800 1.496900
10.250000 1.249800
10.274200 1.053100
10.298400 1.044100
10.322600 1.247100
10.346700 1.579600
10.370900 1.990100
10.395100 2.411500
10.419300 2.723400
10.443500 2.856400
10.467600 2.779100
10.491800 2.474300
10.516000 2.053500
10.540200 1.673600
10.564400 1.412500
10.588600 1.341400
10.612700 1.498700
10.636900 1.791600
10.661100 2.004400
10.685300 1.961300
10.709500 1.696600
10.733600 1.400700
10.757800 1.230900
10.782000 1.215700
10.806200 1.297200
10.830400 1.420500
10.854600 1.648400
10.878700 2.054100
10.902900 2.452000
10.927100 2.557600
10.951300 2.302300
10.975500 1.811900
10.999600 1.311800
11.023800 1.043700
11.048000 1.108100
11.072200 1.395100
11.096400 1.661000
11.120600 1.743400
11.144700 1.726800
11.168900 1.775900
11.193100 1.866600
11.217300 1.832000
11.241500 1.671900
11.265600 1.608400
11.289800 1.768200
11.314000 2.010200
11.338200 2.100500
11.362400 1.958700
11.386600 1.712300
11.410700 1.546900
11.434900 1.579400
11.459100 1.798300
11.483300 2.053300
11.507500 2.225600
11.531600 2.313600
11.555800 2.284000
11.580000 2.106500
11.604200 1.891900
11.628400 1.788200
11.652600 1.864300
11.676700 2.091200
11.700900 2.362300
11.725100 2.568200
11.749300 2.620500
11.773500 2.463400
11.797600 2.157400
11.821800 1.901600
11.846000 1.823300
11.870200 1.838400
11.894400 1.885500
11.918600 1.993700
11.942700 2.059400
11.966900 1.927000
11.991100 1.649400
12.015300 1.462500
12.039500 1.583700
12.063600 2.022700
12.087800 2.561800
12.112000 2.958300
12.136200 3.021000
12.160400 2.689800
12.184600 2.234900
12.208700 2.002000
12.232900 2.007700
12.257100 2.093900
12.281300 2.212400
12.305500 2.410600
12.329600 2.660300
12.353800 2.773600
12.378000 2.569800
12.402200 2.127400
12.426400 1.740700
12.450600 1.583400
12.474700 1.613700
12.498900 1.740800
12.523100 1.894500
12.547300 2.044900
12.571500 2.214900
12.595600 2.390500
12.619800 2.458700
12.644000 2.359000
12.668200 2.216500
12.692400 2.139900
12.716500 2.065100
12.740700 1.967700
12.764900 1.890700
12.789100 1.777500
12.813300 1.603200
12.837500 1.502600
12.861600 1.579700
12.885800 1.758400
12.910000 1.909100
12.934200 1.978200
12.958400 1.997100
12.982500 2.064500
13.006700 2.235300
13.030900 2.384300
13.055100 2.336000
13.079300 2.074100
13.103500 1.682900
13.127600 1.296300
13.151800 1.094600
13.176000 1.168800
13.200200 1.492100
13.224400 1.997100
13.248500 2.548200
13.272700 2.902700
13.296900 2.876800
13.321100 2.612200
13.345300 2.515600
13.369500 2.820800
13.393600 3.308300
13.417800 3.539800
13.442000 3.292900
13.466200 2.775900
13.490400 2.431200
13.514500 2.379600
13.538700 2.310300
13.562900 2.075700
13.587100 1.897800
13.611300 1.905100
13.635500 1.939400
13.659600 1.850100
13.683800 1.713100
13.708000 1.695600
13.732200 1.780800
13.756400 1.813100
13.780500 1.723100
13.804700 1.529400
13.828900 1.337500
13.853100 1.354000
13.877300 1.690500
13.901500 2.154900
13.925600 2.365400
13.949800 2.143600
13.974000 1.715000
13.998200 1.407600
14.022400 1.299600
14.046500 1.289900
14.070700 1.284100
14.094900 1.238900
14.119100 1.239400
14.143300 1.468300
14.167500 1.924300
14.191600 2.293900
14.215800 2.317200
14.240000 2.124800
14.264200 2.010700
14.288400 2.050700
14.312500 2.059200
14.336700 1.937300
14.360900 1.924600
14.385100 2.199000
14.409300 2.446500
14.433500 2.314100
14.457600 2.010300
14.481800 1.946300
14.506000 2.158400
14.530200 2.471800
14.554400 2.769600
14.578500 2.957600
14.602700 3.064300
14.626900 3.196300
14.651100 3.285500
14.675300 3.221700
14.699500 3.079100
14.723600 2.945800
14.747800 2.712700
14.772000 2.286700
14.796200 1.838700
14.820400 1.576400
14.844500 1.455500
14.868700 1.387800
14.892900 1.488000
14.917100 1.837800
14.941300 2.295500
14.965500 2.674600
14.989600 2.871600
15.013800 2.847600
15.038000 2.643400
15.062200 2.345200
15.086400 2.079600
15.110500 2.006700
15.134700 2.159700
15.158900 2.386000
15.183100 2.497500
15.207300 2.486500
15.231400 2.486900
15.255600 2.464800
15.279800 2.277700
15.304000 1.995200
15.328200 1.796000
15.352400 1.696200
15.376500 1.594300
15.400700 1.492300
15.424900 1.536900
15.449100 1.838400
15.473300 2.275300
15.497400 2.468200
15.521600 2.139000
15.545800 1.524300
15.570000 1.154000
15.594200 1.285100
15.618400 1.731900
15.642500 2.150300
15.666700 2.326000
15.690900 2.230300
15.715100 1.992500
15.739300 1.792500
15.763400 1.692400
15.787600 1.630300
15.811800 1.578800
15.836000 1.654900
15.860200 1.925200
15.884400 2.214000
15.908500 2.352600
15.932700 2.376200
15.956900 2.324600
15.981100 2.184400
16.005300 2.013000
16.029400 1.854400
16.053600 1.741100
16.077800 1.775100
16.102000 1.901000
16.126200 1.899700
16.150400 1.794500
16.174500 1.809800
16.198700 1.972100
16.222900 2.092500
16.247100 2.084600
16.271300 2.127900
16.295400 2.417000
16.319600 2.784900
16.343800 2.868200
16.368000 2.667200
16.392200 2.476400
16.416400 2.409100
16.440500 2.420000
16.464700 2.463500
16.488900 2.428700
16.513100 2.233200
16.537300 1.985400
16.561400 1.856800
16.585600 1.857100
16.609800 1.850500
16.634000 1.740300
16.658200 1.578200
16.682400 1.496600
16.706500 1.593600
16.730700 1.851700
16.754900 2.065600
16.779100 2.037000
16.803300 1.816000
16.827400 1.577400
16.851600 1.483800
16.875800 1.585800
16.900000 1.658100
16.924200 1.468000
16.948400 1.172800
16.972500 1.104600
16.996700 1.287700
17.020900 1.426300
17.045100 1.390500
17.069300 1.449900
17.093400 1.822300
17.117600 2.283700
17.141800 2.483400
17.166000 2.439600
17.190200 2.424700
17.214400 2.490700
17.238500 2.462300
17.262700 2.246400
17.286900 1.894800
17.311100 1.537900
17.335300 1.333700
17.359400 1.340300
17.383600 1.481700
17.407800 1.718100
17.432000 2.070200
17.456200 2.426800
17.480400 2.608800
17.504500 2.610200
17.528700 2.545300
17.552900 2.522300
17.577100 2.569500
17.601300 2.475200
17.625400 2.049000
17.649600 1.509900
17.673800 1.196300
17.698000 1.174200
17.722200 1.316000
17.746300 1.498100
17.770500 1.683200
17.794700 1.920800
17.818900 2.217600
17.843100 2.448400
17.867300 2.483200
17.891400 2.363000
17.915600 2.265500
17.939800 2.305100
17.964000 2.441400
17.988200 2.546900
18.012300 2.528100
18.036500 2.372200
18.060700 2.156800
18.084900 2.082100
18.109100 2.277900
18.133300 2.536600
18.157400 2.591600
18.181600 2.501100
18.205800 2.406200
18.230000 2.312500
18.254200 2.286800
18.278300 2.421000
18.302500 2.565300
18.326700 2.441800
18.350900 2.071800
18.375100 1.839400
18.399300 2.019500
18.423400 2.427200
18.447600 2.618100
18.471800 2.363700
18.496000 1.914200
18.520200 1.689000
18.544300 1.763700
18.568500 1.904400
18.592700 1.947500
18.616900 1.872800
18.641100 1.721700
18.665300 1.586300
18.689400 1.585200
18.713600 1.759400
18.737800 1.986400
18.762000 2.141100
18.786200 2.252000
18.810300 2.325400
18.834500 2.258800
18.858700 2.154500
18.882900 2.265400
18.907100 2.527200
18.931300 2.664800
18.955400 2.596600
18.979600 2.462500
19.003800 2.468800
19.028000 2.608800
19.052200 2.654100
19.076300 2.600200
19.100500 2.653400
19.124700 2.823000
19.148900 2.956400
19.173100 2.943200
19.197300 2.783400
19.221400 2.679400
19.245600 2.830500
19.269800 3.024300
19.294000 2.839300
19.318200 2.313900
19.342300 1.931000
19.366500 1.901600
19.390700 1.991900
19.414900 2.073200
19.439100 2.257600
19.463300 2.523300
19.487400 2.703500
19.511600 2.720300
19.535800 2.644300
19.560000 2.624200
19.584200 2.696700
19.608300 2.780800
19.632500 2.860500
19.656700 2.938900
19.680900 2.977300
19.705100 2.980300
19.729300 2.963100
19.753400 2.884400
19.777600 2.697300
19.801800 2.426900
19.826000 2.156400
19.850200 1.971500
19.874300 1.949800
19.898500 2.113600
19.922700 2.343100
19.946900 2.466700
19.971100 2.432200
19.995200 2.281000
20.019400 2.084800
20.043600 1.905500
20.067800 1.743700
20.092000 1.647800
20.116200 1.761300
20.140300 2.165800
20.164500 2.738600
20.188700 3.192700
20.212900 3.274700
20.237100 2.985800
20.261200 2.639100
20.285400 2.538500
20.309600 2.636600
20.333800 2.719400
20.358000 2.702100
20.382200 2.543800
20.406300 2.269600
20.430500 2.107100
20.454700 2.142800
20.478900 2.119700
20.503100 1.915300
20.527200 1.812100
20.551400 1.990000
20.575600 2.178100
20.599800 2.123200
20.624000 1.935200
20.648200 1.816800
20.672300 1.891600
20.696500 2.218500
20.720700 2.646200
20.744900 2.858200
20.769100 2.735900
20.793200 2.519600
20.817400 2.543300
20.841600 2.818200
20.865800 2.981800
20.890000 2.819000
20.914200 2.641400
20.938300 2.840500
20.962500 3.316100
20.986700 3.619100
21.010900 3.451100
21.035100 2.900300
21.059200 2.300800
21.083400 1.933600
21.107600 1.840400
21.131800 1.854200
21.156000 1.815000
21.180200 1.750100
21.204300 1.794600
21.228500 1.968000
21.252700 2.116100
21.276900 2.170500
21.301100 2.272800
21.325200 2.460500
21.349400 2.541900
21.373600 2.407100
21.397800 2.180500
21.422000 2.033300
21.446200 2.078500
21.470300 2.429900
21.494500 3.051000
21.518700 3.560800
21.542900 3.610100
21.567100 3.365200
21.591200 3.209600
21.615400 3.224100
21.639600 3.175700
21.663800 2.859000
21.688000 2.407200
21.712200 2.122700
21.736300 2.003100
21.760500 1.794500
21.784700 1.538300
21.808900 1.616000
21.833100 2.150900
21.857200 2.745900
21.881400 3.042300
21.905600 3.171900
21.929800 3.300400
21.954000 3.206700
21.978200 2.748100
22.002300 2.230800
22.026500 1.982200
22.050700 1.931000
22.074900 1.830600
22.099100 1.720100
22.123200 1.833700
22.147400 2.116300
22.171600 2.270800
22.195800 2.184100
22.220000 1.990900
22.244200 1.904500
22.268300 2.074400
22.292500 2.440600
22.316700 2.747800
22.340900 2.776300
22.365100 2.602800
22.389200 2.528400
22.413400 2.634100
22.437600 2.697300
22.461800 2.580000
22.486000 2.347500
22.510100 2.139000
22.534300 2.102700
22.558500 2.267300
22.582700 2.475700
22.606900 2.561200
22.631100 2.507700
22.655200 2.387600
22.679400 2.253500
22.703600 2.147700
22.727800 2.115300
22.752000 2.169000
22.776100 2.297500
22.800300 2.458000
22.824500 2.532900
22.848700 2.415100
22.872900 2.227300
22.897100 2.224600
22.921200 2.389500
22.945400 2.505500
22.969600 2.567500
22.993800 2.686600
23.018000 2.840500
23.042100 3.049500
23.066300 3.422900
23.090500 3.873500
23.114700 4.039500
23.138900 3.630400
23.163100 2.848500
23.187200 2.206500
23.211400 1.989600
23.235600 2.186200
23.259800 2.626100
23.284000 2.951300
23.308100 2.847900
23.332300 2.465100
23.356500 2.285600
23.380700 2.532200
23.404900 2.950000
23.429100 3.209100
23.453200 3.353100
23.477400 3.561700
23.501600 3.560200
23.525800 2.975700
23.550000 2.148400
23.574100 1.820600
23.598300 2.238400
23.622500 2.930500
23.646700 3.237500
23.670900 3.016900
23.695100 2.647000
23.719200 2.381000
23.743400 2.156300
23.767600 1.943300
23.791800 1.849900
23.816000 1.910700
23.840100 2.095900
23.864300 2.446900
23.888500 2.876800
23.912700 3.089800
23.936900 2.985000
23.961100 2.742900
23.985200 2.494500
24.009400 2.287300
24.033600 2.221900
24.057800 2.360700
24.082000 2.526500
24.106100 2.464600
24.130300 2.250900
24.154500 2.203400
24.178700 2.486300
24.202900 3.025500
24.227100 3.614200
24.251200 4.000200
24.275400 4.062400
24.299600 3.919600
24.323800 3.765900
24.348000 3.549500
24.372100 3.038400
24.396300 2.365200
24.420500 2.019700
24.444700 2.230700
24.468900 2.715100
24.493100 3.008500
24.517200 2.941700
24.541400 2.738100
24.565600 2.582400
24.589800 2.447000
24.614000 2.345800
24.638100 2.262700
24.662300 2.083700
24.686500 1.884000
24.710700 1.830500
24.734900 1.841300
24.759100 1.809200
24.783200 1.927900
24.807400 2.379100
24.831600 2.955300
24.855800 3.277000
24.880000 3.208800
24.904100 2.930600
24.928300 2.688000
24.952500 2.601500
24.976700 2.642800
25.000900 2.634200
25.025000 2.450900
25.049200 2.245500
25.073400 2.253600
25.097600 2.500600
25.121800 2.767200
25.146000 2.807600
25.170100 2.676500
25.194300 2.635600
25.218500 2.741300
25.242700 2.838900
25.266900 2.877900
25.291000 2.925500
25.315200 2.897500
25.339400 2.698500
25.363600 2.529900
25.387800 2.588300
25.412000 2.787200
25.436100 3.002300
25.460300 3.186900
25.484500 3.254700
25.508700 3.143800
25.532900 3.002700
25.557000 3.045400
25.581200 3.172400
25.605400 3.081800
25.629600 2.809900
25.653800 2.735600
25.678000 2.966500
25.702100 3.181100
25.726300 3.196900
25.750500 3.171700
25.774700 3.144600
25.798900 2.971400
25.823000 2.724300
25.847200 2.646800
25.871400 2.814800
25.895600 3.072600
25.919800 3.172900
25.944000 2.997300
25.968100 2.692900
25.992300 2.473600
26.016500 2.384600
26.040700 2.409700
26.064900 2.592800
26.089000 2.819200
26.113200 2.811400
26.137400 2.620000
26.161600 2.601800
26.185800 2.771000
26.210000 2.783200
26.234100 2.523300
26.258300 2.193000
26.282500 2.061900
26.306700 2.346400
26.330900 2.897900
26.355000 3.180800
26.379200 2.954700
26.403400 2.545700
26.427600 2.329800
26.451800 2.352000
26.476000 2.460000
26.500100 2.579800
26.524300 2.760900
26.548500 3.005700
26.572700 3.238800
26.596900 3.361600
26.621000 3.275900
26.645200 3.052000
26.669400 2.817000
26.693600 2.522400
26.717800 2.205800
26.742000 2.047900
26.766100 2.036200
26.790300 1.999200
26.814500 1.926400
26.838700 1.970300
26.862900 2.181900
26.887000 2.476900
26.911200 2.744400
26.935400 2.907600
26.959600 3.034100
26.983800 3.281900
27.008000 3.624800
27.032100 3.826800
27.056300 3.770100
27.080500 3.526600
27.104700 3.155800
27.128900 2.717600
27.153000 2.316200
27.177200 2.072500
27.201400 2.085000
27.225600 2.328700
27.249800 2.676500
27.274000 3.039200
27.298100 3.404700
27.322300 3.667900
27.346500 3.572300
27.370700 3.064200
27.394900 2.542200
27.419000 2.382700
27.443200 2.418300
27.467400 2.350300
27.491600 2.307800
27.515800 2.535500
27.539900 2.937000
27.564100 3.295800
27.588300 3.564300
27.612500 3.648500
27.636700 3.388900
27.660900 2.942700
27.685000 2.714600
27.709200 2.895700
27.733400 3.237500
27.757600 3.272400
27.781800 2.850000
27.805900 2.402000
27.830100 2.420700
27.854300 2.853900
27.878500 3.320200
27.902700 3.588200
27.926900 3.600000
27.951000 3.367100
27.975200 3.041800
27.999400 2.836100
28.023600 2.803400
28.047800 2.819700
28.071900 2.750100
28.096100 2.625700
28.120300 2.570000
28.144500 2.637100
28.168700 2.813900
28.192900 2.943500
28.217000 2.816500
28.241200 2.551700
28.265400 2.500600
28.289600 2.672200
28.313800 2.701100
28.337900 2.419100
28.362100 2.021900
28.386300 1.701900
28.410500 1.553200
28.434700 1.695300
28.458900 2.096900
28.483000 2.448900
28.507200 2.481400
28.531400 2.254300
28.555600 1.970200
28.579800 1.778800
28.603900 1.837800
28.628100 2.168400
28.652300 2.550600
28.676500 2.836300
28.700700 3.032900
28.724900 3.116000
28.749000 3.155900
28.773200 3.286400
28.797400 3.430400
28.821600 3.419000
28.845800 3.258700
28.869900 3.105300
28.894100 3.114000
28.918300 3.265200
28.942500 3.347400
28.966700 3.320800
28.990900 3.386700
29.015000 3.535800
29.039200 3.530500
29.063400 3.262200
29.087600 2.803600
29.111800 2.375200
29.135900 2.207800
29.160100 2.276000
29.184300 2.384700
29.208500 2.449900
29.232700 2.462600
29.256900 2.327700
29.281000 2.040900
29.305200 1.861800
29.329400 2.063700
29.353600 2.622800
29.377800 3.177900
29.401900 3.399800
29.426100 3.354500
29.450300 3.264200
29.474500 3.146500
29.498700 2.896900
29.522900 2.586600
29.547000 2.435800
29.571200 2.526300
29.595400 2.780900
29.619600 3.146600
29.643800 3.567200
29.667900 3.765100
29.692100 3.442100
29.716300 2.792500
29.740500 2.363800
29.764700 2.460700
29.788900 2.928900
29.813000 3.378200
29.837200 3.541100
29.861400 3.404000
29.885600 3.106600
29.909800 2.900000
29.933900 2.980700
29.958100 3.199800
29.982300 3.233800
30.006500 3.084300
30.030700 2.961700
30.054800 2.832900
30.079000 2.612600
30.103200 2.499500
30.127400 2.718700
30.151600 3.155400
30.175800 3.418200
30.199900 3.313300
30.224100 3.108200
30.248300 3.110900
30.272500 3.313200
30.296700 3.600900
30.320800 3.938600
30.345000 4.260400
30.369200 4.373500
30.393400 4.084800
30.417600 3.465500
30.441800 2.877400
30.465900 2.640900
30.490100 2.733100
30.514300 2.853200
30.538500 2.784300
30.562700 2.630200
30.586800 2.622400
30.611000 2.806100
30.635200 3.029400
30.659400 3.137300
30.683600 3.060600
30.707800 2.840700
30.731900 2.670400
30.756100 2.760800
30.780300 3.123900
30.804500 3.524800
30.828700 3.576500
30.852800 3.091700
30.877000 2.367800
30.901200 1.876000
30.925400 1.830000
30.949600 2.130400
30.973800 2.512700
30.997900 2.781200
31.022100 2.989700
31.046300 3.237900
31.070500 3.370200
31.094700 3.242300
31.118800 3.059600
31.143000 3.069300
31.167200 3.263500
31.191400 3.558600
31.215600 3.832600
31.239800 3.831500
31.263900 3.490400
31.288100 3.127000
31.312300 2.999200
31.336500 3.004300
31.360700 2.958500
31.384800 2.838000
31.409000 2.688400
31.433200 2.599300
31.457400 2.700200
31.481600 2.910100
31.505800 2.950700
31.529900 2.698100
31.554100 2.270600
31.578300 1.910700
31.602500 1.811900
31.626700 1.912600
31.650800 2.000900
31.675000 1.987700
31.699200 1.951200
31.723400 1.973000
31.747600 2.052300
31.771800 2.202100
31.795900 2.416400
31.820100 2.567200
31.844300 2.538400
31.868500 2.357500
31.892700 2.153900
31.916800 2.075800
31.941000 2.143900
31.965200 2.176600
31.989400 2.011500
32.013600 1.753000
32.037800 1.635100
32.061900 1.708200
32.086100 1.823400
32.110300 1.844600
32.134500 1.849000
32.158700 2.083500
32.182800 2.605800
32.207000 3.146500
32.231200 3.387300
32.255400 3.197300
32.279600 2.682000
32.303800 2.148800
32.327900 1.844400
32.352100 1.735000
32.376300 1.701700
32.400500 1.723900
32.424700 1.812600
32.448800 1.952700
32.473000 2.094000
32.497200 2.142000
32.521400 2.044800
32.545600 1.874700
32.569700 1.748900
32.593900 1.719900
32.618100 1.694700
32.642300 1.525000
32.666500 1.298500
32.690700 1.302300
32.714800 1.601400
32.739000 1.898800
32.763200 1.888200
32.787400 1.580300
32.811600 1.226200
32.835700 1.042200
32.859900 1.079600
32.884100 1.303500
32.908300 1.685300
32.932500 2.157000
32.956700 2.485200
32.980800 2.453700
33.005000 2.205200
33.029200 2.002200
33.053400 1.851100
33.077600 1.695000
33.101700 1.638900
33.125900 1.761200
33.150100 1.949600
33.174300 2.056400
33.198500 2.026100
33.222700 1.856200
33.246800 1.658800
33.271000 1.660700
33.295200 1.971000
33.319400 2.444200
33.343600 2.797800
33.367700 2.859800
33.391900 2.738300
33.416100 2.733400
33.440300 2.992100
33.464500 3.238600
33.488700 3.130700
33.512800 2.813000
33.537000 2.611700
33.561200 2.504300
33.585400 2.401200
33.609600 2.348000
33.633700 2.310300
33.657900 2.273300
33.682100 2.323000
33.706300 2.450100
33.730500 2.595700
33.754700 2.794100
33.778800 3.023600
33.803000 3.140500
33.827200 3.059600
33.851400 2.791700
33.875600 2.373300
33.899700 1.932500
33.923900 1.666700
33.948100 1.638700
33.972300 1.772000
33.996500 2.031000
34.020700 2.409700
34.044800 2.763600
34.069000 2.927700
34.093200 2.877100
34.117400 2.625700
34.141600 2.361700
34.165700 2.392100
34.189900 2.629600
34.214100 2.696100
34.238300 2.514400
34.262500 2.367400
34.286700 2.478700
34.310800 2.729400
34.335000 2.831700
34.359200 2.675800
34.383400 2.405700
34.407600 2.243500
34.431700 2.268200
34.455900 2.359100
34.480100 2.362800
34.504300 2.209700
34.528500 1.929500
34.552700 1.668800
34.576800 1.600000
34.601000 1.766300
34.625200 2.042100
34.649400 2.286600
34.673600 2.520900
34.697700 2.866500
34.721900 3.329500
34.746100 3.628200
34.770300 3.400900
34.794500 2.772800
34.818700 2.308000
34.842800 2.312800
34.867000 2.546000
34.891200 2.623400
34.915400 2.515000
34.939600 2.432900
34.963700 2.434700
34.987900 2.426500
35.012100 2.350300
35.036300 2.224700
35.060500 2.136500
35.084600 2.179900
35.108800 2.330200
35.133000 2.540900
35.157200 2.874300
35.181400 3.266500
35.205600 3.474500
35.229700 3.410700
35.253900 3.262200
35.278100 3.294100
35.302300 3.504900
35.326500 3.580800
35.350600 3.375100
35.374800 3.060600
35.399000 2.823400
35.423200 2.756000
35.447400 2.816800
35.471600 2.860800
35.495700 2.909000
35.519900 3.068700
35.544100 3.171000
35.568300 2.965000
35.592500 2.556900
35.616600 2.282400
35.640800 2.294700
35.665000 2.473600
35.689200 2.598600
35.713400 2.530600
35.737600 2.288900
35.761700 2.043200
35.785900 2.039700
35.810100 2.421700
35.834300 3.031700
35.858500 3.444200
35.882600 3.437100
35.906800 3.299700
35.931000 3.304000
35.955200 3.267600
35.979400 3.084000
36.003600 3.065000
36.027700 3.375800
36.051900 3.697600
36.076100 3.694800
36.100300 3.505100
36.124500 3.475200
36.148600 3.528300
36.172800 3.277600
36.197000 2.733300
36.221200 2.405800
36.245400 2.598300
36.269600 2.978800
36.293700 3.063700
36.317900 2.804100
36.342100 2.439200
36.366300 2.104700
36.390500 1.895500
36.414600 1.972000
36.438800 2.338700
36.463000 2.799100
36.487200 3.241900
36.511400 3.668400
36.535600 3.906600
36.559700 3.808400
36.583900 3.670300
36.608100 3.773500
36.632300 3.929200
36.656500 3.883500
36.680600 3.592700
36.704800 3.201200
36.729000 2.968100
36.753200 2.938300
36.777400 2.905400
36.801600 2.850200
36.825700 2.989900
36.849900 3.296100
36.874100 3.411700
36.898300 3.176000
36.922500 2.804200
36.946600 2.529900
36.970800 2.508100
36.995000 2.842000
37.019200 3.322600
37.043400 3.587100
37.067600 3.645000
37.091700 3.691000
37.115900 3.599000
37.140100 3.228600
37.164300 2.840900
37.188500 2.686000
37.212600 2.713500
37.236800 2.879200
37.261000 3.144800
37.285200 3.365200
37.309400 3.532400
37.333600 3.853200
37.357700 4.428300
37.381900 4.892500
37.406100 4.769600
37.430300 4.250000
37.454500 3.892900
37.478600 3.730100
37.502800 3.391000
37.527000 2.817200
37.551200 2.356400
37.575400 2.280800
37.599500 2.478600
37.623700 2.651800
37.647900 2.653200
37.672100 2.534900
37.696300 2.518700
37.720500 2.865300
37.744600 3.388900
37.768800 3.552000
37.793000 3.284100
37.817200 2.993000
37.841400 2.856500
37.865500 2.723900
37.889700 2.538700
37.913900 2.543800
37.938100 3.002600
37.962300 3.695900
37.986500 4.093300
38.010600 4.078500
38.034800 3.902400
38.059000 3.606800
38.083200 3.108200
38.107400 2.514400
38.131500 2.023700
38.155700 1.797300
38.179900 1.913800
38.204100 2.224000
38.228300 2.410600
38.252500 2.375600
38.276600 2.327700
38.300800 2.358400
38.325000 2.321200
38.349200 2.217900
38.373400 2.290600
38.397500 2.622600
38.421700 3.009000
38.445900 3.241400
38.470100 3.180600
38.494300 2.791300
38.518500 2.289600
38.542600 1.928000
38.566800 1.737100
38.591000 1.618900
38.615200 1.550000
38.639400 1.621400
38.663500 1.865200
38.687700 2.204600
38.711900 2.514500
38.736100 2.648200
38.760300 2.636700
38.784500 2.635300
38.808600 2.597900
38.832800 2.446700
38.857000 2.303400
38.881200 2.246200
38.905400 2.158400
38.929500 1.922600
38.953700 1.592500
38.977900 1.370300
39.002100 1.456900
39.026300 1.798800
39.050500 2.104100
39.074600 2.213700
39.098800 2.135200
39.123000 1.862100
39.147200 1.491800
39.171400 1.272800
39.195500 1.360900
39.219700 1.628900
39.243900 1.822500
39.268100 1.851100
39.292300 1.806900
39.316500 1.767200
39.340600 1.661300
39.364800 1.402700
39.389000 1.111500
39.413200 0.940700
39.437400 0.816200
39.461500 0.632900
39.485700 0.456200
39.509900 0.370400
39.534100 0.399900
39.558300 0.598100
39.582500 0.937400
39.606600 1.189000
39.630800 1.149800
39.655000 0.908500
39.679200 0.715400
39.703400 0.642300
39.727500 0.548600
39.751700 0.364800
39.775900 0.186400
39.800100 0.094700
39.824300 0.069600
39.848500 0.069200
39.872600 0.092200
39.896800 0.144700
39.921000 0.200300
39.945200 0.230000
39.969400 0.231200
39.993500 0.211800
40.017700 0.178500
40.041900 0.131900
40.066100 0.078000
40.090300 0.041700
40.114400 0.044300
40.138600 0.077300
40.162800 0.102100
40.187000 0.087400
40.211200 0.047900
40.235400 0.017800
40.259500 0.008800
40.283700 0.014200
40.307900 0.023800
40.332100 0.029100
40.356300 0.032000
40.380400 0.041400
40.404600 0.051900
40.428800 0.047100
40.453000 0.028000
40.477200 0.010700
40.501400 0.002800
40.525500 0.001800
40.549700 0.005700
40.573900 0.014500
40.598100 0.023700
40.622300 0.024700
40.646400 0.016400
40.670600 0.006900
40.694800 0.001900
40.719000 0.000300
40.743200 0.000000
40.767400 0.000000
40.791500 0.000000
40.815700 0.000000
40.839900 0.000000
40.864100 0.000000
40.888300 0.000000
40.912400 0.000000
40.936600 0.000000
40.960800 0.000000
40.985000 0.000000
41.009200 0.000000
41.033400 0.000000
41.057500 0.000000
41.081700 0.000000
41.105900 0.000000
41.130100 0.000000
41.154300 0.000000
41.178400 0.000000
41.202600 0.000000
41.226800 0.000000
41.251000 0.000000
41.275200 0.000000
41.299400 0.000000
41.323500 0.000000
41.347700 0.000000
41.371900 0.000000
41.396100 0.000000
41.420300 0.000000
41.444400 0.000000
41.468600 0.000000
41.492800 0.000000
41.517000 0.000000
41.541200 0.000000
41.565400 0.000000
41.589500 0.000000
41.613700 0.000000
41.637900 0.000000
41.662100 0.000000
41.686300 0.000000
41.710400 0.000000
41.734600 0.000000
41.758800 0.000000
41.783000 0.000000
41.807200 0.000000
41.831400 0.000000
41.855500 0.000000
41.879700 0.000000
41.903900 0.000000
41.928100 0.000000
41.952300 0.000000
41.976400 0.000000
42.000600 0.000000
42.024800 0.000000
42.049000 0.000000
42.073200 0.000000
42.097400 0.000000
42.121500 0.000000
42.145700 0.000000
42.169900 0.000000
42.194100 0.000000
42.218300 0.000000
42.242400 0.000000
42.266600 0.000000
42.290800 0.000000
42.315000 0.000000
42.339200 0.000000
42.363400 0.000000
42.387500 0.000000
42.411700 0.000000
42.435900 0.000000
42.460100 0.000000
42.484300 0.000000
42.508400 0.000000
42.532600 0.000000
42.556800 0.000000
42.581000 0.000000
42.605200 0.000000
42.629300 0.000000
42.653500 0.000000
42.677700 0.000000
42.701900 0.000000
42.726100 0.000000
42.750300 0.000000
42.774400 0.000000
42.798600 0.000000
e
