set title 'mp-1184478 - Density of States'
set xlabel 'Energy (eV)'
set ylabel 'DOS (states/eV)'
set grid
set xrange [-10:10]
set yrange [0:82.220]
set xzeroaxis lt -1
set terminal png size 800,600
set output 'mp-1184478_dos_gnuplot.png'
plot '-' using 1:2 with lines title 'DOS'
-12.026600 0.000000
-11.982000 0.000000
-11.937400 0.000000
-11.892700 0.000000
-11.848100 0.000000
-11.803500 0.000000
-11.758800 0.000000
-11.714200 0.000000
-11.669600 0.000000
-11.624900 0.000000
-11.580300 0.000000
-11.535700 0.000000
-11.491000 0.000000
-11.446400 0.000000
-11.401700 0.000000
-11.357100 0.000000
-11.312500 0.000000
-11.267800 0.000000
-11.223200 0.000000
-11.178600 0.000000
-11.133900 0.000000
-11.089300 0.000000
-11.044700 0.000000
-11.000000 0.000000
-10.955400 0.000000
-10.910800 0.000000
-10.866100 0.000000
-10.821500 0.000000
-10.776900 0.000000
-10.732200 0.000000
-10.687600 0.000000
-10.642900 0.000000
-10.598300 0.000000
-10.553700 0.000000
-10.509000 0.000000
-10.464400 0.000000
-10.419800 0.000000
-10.375100 0.000000
-10.330500 0.000000
-10.285900 0.000000
-10.241200 0.000000
-10.196600 0.000000
-10.152000 0.000000
-10.107300 0.000000
-10.062700 0.000000
-10.018100 0.000000
-9.973400 0.000000
-9.928800 0.000000
-9.884100 0.000000
-9.839500 0.000000
-9.794900 0.000000
-9.750200 0.000000
-9.705600 0.000000
-9.661000 0.000000
-9.616300 0.000000
-9.571700 0.000000
-9.527100 0.000000
-9.482400 0.000000
-9.437800 0.000000
-9.393200 0.000000
-9.348500 0.000000
-9.303900 0.000000
-9.259300 0.000000
-9.214600 0.000000
-9.170000 0.000000
-9.125300 0.000000
-9.080700 0.000000
-9.036100 0.000000
-8.991400 0.000000
-8.946800 0.000000
-8.902200 0.000000
-8.857500 0.000000
-8.812900 0.000000
-8.768300 0.000000
-8.723600 0.000000
-8.679000 0.000000
-8.634400 0.000000
-8.589700 0.000000
-8.545100 0.000000
-8.500500 0.000000
-8.455800 0.000000
-8.411200 0.000000
-8.366500 0.000000
-8.321900 0.000000
-8.277300 0.000000
-8.232600 0.000000
-8.188000 0.000000
-8.143400 0.000000
-8.098700 0.000000
-8.054100 0.000000
-8.009500 0.000000
-7.964800 3.054200
-7.920200 27.667600
-7.875600 33.361300
-7.830900 29.929500
-7.786300 6.533700
-7.741700 13.550300
-7.697000 28.343500
-7.652400 74.745600
-7.607700 14.677900
-7.563100 17.821400
-7.518500 4.782700
-7.473800 0.000000
-7.429200 0.000000
-7.384600 0.000000
-7.339900 0.000000
-7.295300 0.000000
-7.250700 0.000000
-7.206000 0.000000
-7.161400 0.000000
-7.116800 0.000000
-7.072100 0.000000
-7.027500 0.000000
-6.982900 0.000000
-6.938200 0.000000
-6.893600 0.000000
-6.849000 0.000000
-6.804300 0.000000
-6.759700 0.000000
-6.715000 0.000000
-6.670400 0.000000
-6.625800 0.000000
-6.581100 0.000000
-6.536500 0.000000
-6.491900 0.000000
-6.447200 0.000000
-6.402600 0.000000
-6.358000 0.000000
-6.313300 0.000000
-6.268700 0.000000
-6.224100 0.000000
-6.179400 0.000000
-6.134800 0.000000
-6.090200 0.000000
-6.045500 0.000000
-6.000900 0.000000
-5.956200 0.000000
-5.911600 0.000000
-5.867000 0.000000
-5.822300 0.000000
-5.777700 0.000000
-5.733100 0.000000
-5.688400 0.000000
-5.643800 0.000000
-5.599200 0.000000
-5.554500 0.000000
-5.509900 0.000000
-5.465300 0.000000
-5.420600 0.000000
-5.376000 0.000000
-5.331400 0.000000
-5.286700 0.000000
-5.242100 0.000000
-5.197400 0.000000
-5.152800 0.000000
-5.108200 0.000000
-5.063500 0.000000
-5.018900 0.000000
-4.974300 0.000000
-4.929600 0.000000
-4.885000 0.000000
-4.840400 0.000000
-4.795700 0.000000
-4.751100 0.000000
-4.706500 0.000000
-4.661800 0.000000
-4.617200 0.000000
-4.572600 0.000000
-4.527900 0.000000
-4.483300 0.000000
-4.438600 0.000000
-4.394000 0.000000
-4.349400 0.000000
-4.304700 0.000000
-4.260100 0.000000
-4.215500 0.000000
-4.170800 0.000000
-4.126200 0.000000
-4.081600 0.000000
-4.036900 0.000000
-3.992300 0.000000
-3.947700 0.000000
-3.903000 0.000000
-3.858400 0.000000
-3.813800 0.000000
-3.769100 0.000000
-3.724500 0.000000
-3.679800 0.000000
-3.635200 0.000000
-3.590600 0.000000
-3.545900 0.000000
-3.501300 0.000000
-3.456700 0.000000
-3.412000 0.000000
-3.367400 0.000000
-3.322800 0.000000
-3.278100 0.000000
-3.233500 0.000000
-3.188900 0.000000
-3.144200 0.000000
-3.099600 0.000000
-3.055000 0.000000
-3.010300 0.000000
-2.965700 0.000000
-2.921000 0.000000
-2.876400 0.000000
-2.831800 0.000000
-2.787100 0.000000
-2.742500 0.000000
-2.697900 0.000000
-2.653200 0.000000
-2.608600 0.000000
-2.564000 0.000000
-2.519300 0.000000
-2.474700 0.000000
-2.430100 0.000000
-2.385400 0.000000
-2.340800 0.000000
-2.296200 0.000000
-2.251500 0.000000
-2.206900 0.034800
-2.162200 0.048500
-2.117600 0.067900
-2.073000 0.069200
-2.028300 0.078000
-1.983700 0.087400
-1.939100 0.097300
-1.894400 0.104600
-1.849800 0.111000
-1.805200 0.114700
-1.760500 0.117300
-1.715900 0.122100
-1.671300 0.128700
-1.626600 0.135800
-1.582000 0.143300
-1.537400 0.146500
-1.492700 0.148900
-1.448100 0.151800
-1.403400 0.155200
-1.358800 0.159000
-1.314200 0.163100
-1.269500 0.167300
-1.224900 0.171800
-1.180300 0.176600
-1.135600 0.181000
-1.091000 0.184600
-1.046400 0.186900
-1.001700 0.189400
-0.957100 0.192300
-0.912500 0.194900
-0.867800 0.197300
-0.823200 0.200400
-0.778600 0.204300
-0.733900 0.208200
-0.689300 0.211400
-0.644600 0.214700
-0.600000 0.217900
-0.555400 0.221000
-0.510700 0.224000
-0.466100 0.226000
-0.421500 0.228300
-0.376800 0.230800
-0.332200 0.233500
-0.287600 0.236300
-0.242900 0.239100
-0.198300 0.241700
-0.153700 0.244300
-0.109000 0.246800
-0.064400 0.248900
-0.019800 0.251700
0.024900 0.254800
0.069500 0.257700
0.114200 0.260600
0.158800 0.263600
0.203400 0.266000
0.248100 0.268100
0.292700 0.270200
0.337300 0.272300
0.382000 0.274500
0.426600 0.277000
0.471200 0.279700
0.515900 0.282400
0.560500 0.284600
0.605100 0.286900
0.649800 0.289100
0.694400 0.291300
0.739000 0.293700
0.783700 0.296100
0.828300 0.298600
0.873000 0.301100
0.917600 0.303900
0.962200 0.306900
1.006900 0.309700
1.051500 0.311800
1.096100 0.314200
1.140800 0.316600
1.185400 0.319000
1.230000 0.321500
1.274700 0.323700
1.319300 0.325800
1.363900 0.328000
1.408600 0.330300
1.453200 0.332800
1.497800 0.335400
1.542500 0.338100
1.587100 0.340900
1.631800 0.343800
1.676400 0.346800
1.721000 0.349900
1.765700 0.353000
1.810300 0.356300
1.854900 0.359600
1.899600 0.362900
1.944200 0.366000
1.988800 0.369200
2.033500 0.372900
2.078100 0.377000
2.122700 0.381300
2.167400 0.386000
2.212000 0.391100
2.256600 0.396500
2.301300 0.402600
2.345900 0.409100
2.390600 0.416500
2.435200 0.424700
2.479800 0.433900
2.524500 0.444000
2.569100 0.462900
2.613700 0.477700
2.658400 0.492100
2.703000 0.520300
2.747600 0.526500
2.792300 0.529700
2.836900 0.529900
2.881500 0.517700
2.926200 0.500700
2.970800 0.489200
3.015400 0.486000
3.060100 0.486400
3.104700 0.489800
3.149400 0.521200
3.194000 0.479900
3.238600 0.462300
3.283300 0.443600
3.327900 0.433400
3.372500 0.424400
3.417200 0.416500
3.461800 0.409700
3.506400 0.404400
3.551100 0.392000
3.595700 0.383100
3.640300 0.372000
3.685000 0.360100
3.729600 0.356300
3.774200 0.400700
3.818900 0.370900
3.863500 0.355600
3.908100 0.280800
3.952800 0.257600
3.997400 0.230500
4.042100 0.218100
4.086700 0.223500
4.131300 0.222800
4.176000 0.225200
4.220600 0.232500
4.265200 0.241600
4.309900 0.215000
4.354500 0.226100
4.399100 0.246700
4.443800 0.287800
4.488400 0.271900
4.533000 0.275700
4.577700 0.279000
4.622300 0.281900
4.666900 0.287400
4.711600 0.292600
4.756200 0.298600
4.800900 0.318800
4.845500 0.331200
4.890100 0.338100
4.934800 0.330000
4.979400 0.336100
5.024000 0.365200
5.068700 0.372800
5.113300 0.382200
5.157900 0.391300
5.202600 0.391900
5.247200 0.401600
5.291800 0.413100
5.336500 0.430500
5.381100 0.450400
5.425700 0.466200
5.470400 0.482900
5.515000 0.522200
5.559700 0.532300
5.604300 0.544100
5.648900 0.552300
5.693600 0.559400
5.738200 0.565500
5.782800 0.608100
5.827500 0.571200
5.872100 0.603200
5.916700 0.574200
5.961400 0.546200
6.006000 0.527900
6.050600 0.528500
6.095300 0.524800
6.139900 0.520000
6.184500 0.515000
6.229200 0.505700
6.273800 0.512400
6.318500 0.473700
6.363100 0.448300
6.407700 0.442100
6.452400 0.439100
6.497000 0.438900
6.541600 0.445300
6.586300 0.449600
6.630900 0.469100
6.675500 0.471900
6.720200 0.474200
6.764800 0.483600
6.809400 0.490600
6.854100 0.496900
6.898700 0.498400
6.943300 0.497100
6.988000 0.487900
7.032600 0.489600
7.077300 0.489800
7.121900 0.487700
7.166500 0.497600
7.211200 0.500500
7.255800 0.504300
7.300400 0.508700
7.345100 0.519100
7.389700 0.525800
7.434300 0.528600
7.479000 0.530700
7.523600 0.533300
7.568200 0.536200
7.612900 0.555200
7.657500 0.545700
7.702100 0.539500
7.746800 0.548900
7.791400 0.552800
7.836100 0.562200
7.880700 0.573900
7.925300 0.580400
7.970000 0.586000
8.014600 0.591300
8.059200 0.600100
8.103900 0.599100
8.148500 0.602200
8.193100 0.604200
8.237800 0.604400
8.282400 0.603600
8.327000 0.588000
8.371700 0.587200
8.416300 0.586700
8.460900 0.583100
8.505600 0.579300
8.550200 0.577900
8.594900 0.577000
8.639500 0.576700
8.684100 0.576200
8.728800 0.576600
8.773400 0.576400
8.818000 0.575600
8.862700 0.575100
8.907300 0.581200
8.951900 0.582500
8.996600 0.583800
9.041200 0.582900
9.085800 0.581100
9.130500 0.580800
9.175100 0.576400
9.219700 0.574500
9.264400 0.573800
9.309000 0.570800
9.353700 0.569900
9.398300 0.569400
9.442900 0.569300
9.487600 0.569500
9.532200 0.570100
9.576800 0.570500
9.621500 0.570500
9.666100 0.570300
9.710700 0.571100
9.755400 0.573700
9.800000 0.575500
9.844600 0.576000
9.889300 0.581900
9.933900 0.581900
9.978500 0.581600
10.023200 0.582800
10.067800 0.583000
10.112500 0.582800
10.157100 0.585200
10.201700 0.584500
10.246400 0.584000
10.291000 0.581400
10.335600 0.576600
10.380300 0.574600
10.424900 0.573900
10.469500 0.573300
10.514200 0.573200
10.558800 0.573400
10.603400 0.577700
10.648100 0.584100
10.692700 0.588200
10.737300 0.590000
10.782000 0.592100
10.826600 0.595100
10.871300 0.602100
10.915900 0.605200
10.960500 0.602900
11.005200 0.604600
11.049800 0.606100
11.094400 0.606700
11.139100 0.606500
11.183700 0.605400
11.228300 0.600000
11.273000 0.600800
11.317600 0.601200
11.362200 0.602000
11.406900 0.603100
11.451500 0.604600
11.496100 0.610000
11.540800 0.616300
11.585400 0.619200
11.630100 0.619700
11.674700 0.624600
11.719300 0.625200
11.764000 0.626400
11.808600 0.629400
11.853200 0.633800
11.897900 0.644000
11.942500 0.702000
11.987100 0.648100
12.031800 0.644300
12.076400 0.649700
12.121000 0.653600
12.165700 0.656400
12.210300 0.660200
12.254900 0.675800
12.299600 0.686200
12.344200 0.674900
12.388900 0.672000
12.433500 0.666500
12.478100 0.669500
12.522800 0.670800
12.567400 0.678800
12.612000 0.687400
12.656700 0.692600
12.701300 0.699400
12.745900 0.708600
12.790600 0.716000
12.835200 0.723600
12.879800 0.731500
12.924500 0.739400
12.969100 0.745600
13.013700 0.756100
13.058400 0.767300
13.103000 0.786200
13.147700 0.807400
13.192300 0.831600
13.236900 0.864600
13.281600 0.899000
13.326200 0.932900
13.370800 0.971700
13.415500 1.025200
13.460100 1.076500
13.504700 1.125500
13.549400 1.112900
13.594000 1.105400
13.638600 1.081300
13.683300 1.058600
13.727900 1.030400
13.772500 0.986900
13.817200 0.953100
13.861800 0.917100
13.906500 0.882100
13.951100 0.863300
13.995700 0.846600
14.040400 0.827400
14.085000 0.801200
14.129600 0.766000
14.174300 0.719100
14.218900 0.662800
14.263500 0.607500
14.308200 0.550300
14.352800 0.534100
14.397400 0.491900
14.442100 0.454300
14.486700 0.445000
14.531300 0.440200
14.576000 0.434200
14.620600 0.429300
14.665200 0.427100
14.709900 0.413900
14.754500 0.403500
14.799200 0.392300
14.843800 0.382900
14.888400 0.376600
14.933100 0.371600
14.977700 0.368000
15.022300 0.363800
15.067000 0.361000
15.111600 0.358800
15.156200 0.356600
15.200900 0.354100
15.245500 0.351600
15.290100 0.359500
15.334800 0.348400
15.379400 0.344700
15.424000 0.334600
15.468700 0.329200
15.513300 0.327700
15.558000 0.325800
15.602600 0.324200
15.647200 0.322700
15.691900 0.321500
15.736500 0.320500
15.781100 0.319800
15.825800 0.319300
15.870400 0.319200
15.915000 0.319400
15.959700 0.321200
16.004300 0.332400
16.048900 0.323900
16.093600 0.324800
16.138200 0.326100
16.182800 0.328000
16.227500 0.332100
16.272100 0.334900
16.316800 0.338500
16.361400 0.341100
16.406000 0.344200
16.450700 0.349400
16.495300 0.357400
16.539900 0.393300
16.584600 0.498900
16.629200 0.548600
16.673800 0.610100
16.718500 0.678800
16.763100 0.742300
16.807700 0.817000
16.852400 0.927100
16.897000 1.047900
16.941600 1.080000
16.986300 1.091200
17.030900 1.082800
17.075600 1.050300
17.120200 1.017400
17.164800 0.975600
17.209500 0.941400
17.254100 0.904600
17.298700 0.841800
17.343400 0.786000
17.388000 0.739800
17.432600 0.699500
17.477300 0.673600
17.521900 0.664100
17.566500 0.651000
17.611200 0.641200
17.655800 0.632000
17.700400 0.629800
17.745100 0.638700
17.789700 0.658400
17.834400 0.686500
17.879000 0.724400
17.923600 0.781400
17.968300 0.800700
18.012900 0.840100
18.057500 0.881400
18.102200 0.927900
18.146800 0.978900
18.191400 1.040200
18.236100 1.102300
18.280700 1.150100
18.325300 1.195400
18.370000 1.220300
18.414600 1.158400
18.459200 1.134900
18.503900 1.118000
18.548500 1.096100
18.593200 1.084800
18.637800 1.070200
18.682400 1.114400
18.727100 1.133500
18.771700 1.149300
18.816300 1.121600
18.861000 1.068400
18.905600 1.016300
18.950200 0.907000
18.994900 0.865100
19.039500 0.823600
19.084100 0.783700
19.128800 0.748200
19.173400 0.730000
19.218000 0.795100
19.262700 0.824800
19.307300 0.871600
19.352000 0.924400
19.396600 0.970700
19.441200 0.991800
19.485900 1.005400
19.530500 1.000100
19.575100 1.002000
19.619800 0.999000
19.664400 0.996900
19.709000 1.004100
19.753700 1.007400
19.798300 1.006600
19.842900 1.013300
19.887600 0.981900
19.932200 0.979500
19.976800 0.965100
20.021500 0.955400
20.066100 0.932800
20.110800 0.930600
20.155400 0.939700
20.200000 0.968000
20.244700 0.939700
20.289300 0.912300
20.333900 0.895400
20.378600 0.888300
20.423200 0.872700
20.467800 0.868200
20.512500 0.865300
20.557100 0.862300
20.601700 0.865300
20.646400 0.865400
20.691000 0.863800
20.735600 0.855500
20.780300 0.854800
20.824900 0.850800
20.869600 0.842800
20.914200 0.833200
20.958800 0.826800
21.003500 0.820300
21.048100 0.820600
21.092700 0.825600
21.137400 0.829300
21.182000 0.821300
21.226600 0.826900
21.271300 0.836600
21.315900 0.848800
21.360500 0.851800
21.405200 0.848900
21.449800 0.811200
21.494400 0.796100
21.539100 0.790300
21.583700 0.793600
21.628400 0.803200
21.673000 0.815500
21.717600 0.824900
21.762300 0.994800
21.806900 0.848600
21.851500 0.835000
21.896200 0.839100
21.940800 0.844700
21.985400 0.842400
22.030100 0.854000
22.074700 0.876300
22.119300 0.869000
22.164000 0.860400
22.208600 0.867300
22.253200 0.874600
22.297900 0.884400
22.342500 0.901400
22.387200 0.920900
22.431800 0.935600
22.476400 0.961800
22.521100 0.992800
22.565700 1.028900
22.610300 1.078300
22.655000 1.120600
22.699600 1.119600
22.744200 1.091200
22.788900 1.089600
22.833500 1.097900
22.878100 1.102100
22.922800 1.118800
22.967400 1.111100
23.012000 1.083100
23.056700 1.086000
23.101300 1.092800
23.146000 1.098700
23.190600 1.109700
23.235200 1.133600
23.279900 1.204800
23.324500 1.172600
23.369100 1.205900
23.413800 1.258300
23.458400 1.290700
23.503000 1.310300
23.547700 1.328800
23.592300 1.341400
23.636900 1.329900
23.681600 1.301200
23.726200 1.289700
23.770800 1.275800
23.815500 1.274000
23.860100 1.231700
23.904800 1.197700
23.949400 1.181700
23.994000 1.173900
24.038700 1.164900
24.083300 1.178100
24.127900 1.173900
24.172600 1.172400
24.217200 1.108200
24.261800 1.046800
24.306500 1.011400
24.351100 0.988200
24.395700 0.961300
24.440400 0.949300
24.485000 0.948600
24.529600 0.967300
24.574300 0.978300
24.618900 0.965800
24.663600 0.956000
24.708200 0.943300
24.752800 0.926700
24.797500 0.907300
24.842100 0.897400
24.886700 0.901600
24.931400 0.889200
24.976000 0.880100
25.020600 0.868300
25.065300 0.855700
25.109900 0.852600
25.154500 0.847300
25.199200 0.840900
25.243800 0.835400
25.288400 0.826300
25.333100 0.819200
25.377700 0.794900
25.422300 0.788300
25.467000 0.785800
25.511600 0.784800
25.556300 0.786100
25.600900 0.781500
25.645500 0.784000
25.690200 0.787000
25.734800 0.790400
25.779400 0.796100
25.824100 0.801700
25.868700 0.771900
25.913300 0.769000
25.958000 0.776400
26.002600 0.780300
26.047200 0.785000
26.091900 0.802200
26.136500 0.798600
26.181100 0.811800
26.225800 0.836800
26.270400 0.823900
26.315100 0.828500
26.359700 0.836200
26.404300 0.847300
26.449000 0.862000
26.493600 0.879200
26.538200 0.897300
26.582900 0.917600
26.627500 0.970500
26.672100 0.992700
26.716800 1.019500
26.761400 1.053300
26.806000 1.089500
26.850700 1.155500
26.895300 1.211600
26.939900 1.323300
26.984600 1.211500
27.029200 1.190800
27.073900 1.179600
27.118500 1.171200
27.163100 1.165700
27.207800 1.444900
27.252400 1.098400
27.297000 1.065800
27.341700 1.050400
27.386300 1.038600
27.430900 1.049800
27.475600 1.041900
27.520200 1.049500
27.564800 1.052700
27.609500 1.060500
27.654100 1.083300
27.698700 1.095700
27.743400 1.056000
27.788000 1.053900
27.832700 1.019100
27.877300 0.973500
27.921900 0.955400
27.966600 0.953700
28.011200 0.957300
28.055800 0.966100
28.100500 0.959300
28.145100 0.947600
28.189700 0.958300
28.234400 1.020900
28.279000 1.062600
28.323600 1.101800
28.368300 1.140000
28.412900 1.166400
28.457500 1.183800
28.502200 1.211100
28.546800 1.259600
28.591500 1.312100
28.636100 1.382700
28.680700 1.483800
28.725400 1.545200
28.770000 1.568900
28.814600 1.465100
28.859300 1.421100
28.903900 1.393300
28.948500 1.595200
28.993200 1.323500
29.037800 1.292600
29.082400 1.266600
29.127100 1.238300
29.171700 1.219100
29.216300 1.202700
29.261000 1.184200
29.305600 1.178100
29.350300 1.174700
29.394900 1.179400
29.439500 1.191700
29.484200 1.212700
29.528800 1.218700
29.573400 1.219900
29.618100 1.227500
29.662700 1.236000
29.707300 1.247500
29.752000 1.252600
29.796600 1.263500
29.841200 1.282700
29.885900 1.297100
29.930500 1.320300
29.975100 1.340200
30.019800 1.365600
30.064400 1.339800
30.109100 1.311000
30.153700 1.284900
30.198300 1.253900
30.243000 1.223800
30.287600 1.189700
30.332200 1.168100
30.376900 1.156700
30.421500 1.147200
30.466100 1.141900
30.510800 1.153100
30.555400 1.110000
30.600000 1.086800
30.644700 1.064500
30.689300 1.070600
30.733900 1.076600
30.778600 1.072400
30.823200 1.059000
30.867900 1.063100
30.912500 1.061100
30.957100 1.055000
31.001800 1.061900
31.046400 1.081600
31.091000 1.090600
31.135700 1.105900
31.180300 1.116100
31.224900 1.123900
31.269600 1.139900
31.314200 1.157800
31.358800 1.176700
31.403500 1.214900
31.448100 1.287000
31.492700 1.310500
31.537400 1.352000
31.582000 1.435800
31.626700 1.468400
31.671300 1.464500
31.715900 1.497600
31.760600 1.494500
31.805200 1.506100
31.849800 1.516200
31.894500 1.537700
31.939100 1.574600
31.983700 1.613100
32.028400 1.657700
32.073000 1.699600
32.117600 1.733800
32.162300 1.760600
32.206900 1.761500
32.251500 1.744100
32.296200 1.713400
32.340800 1.617500
32.385500 1.545300
32.430100 1.501100
32.474700 1.470500
32.519400 1.424300
32.564000 1.385800
32.608600 1.330200
32.653300 1.268100
32.697900 1.299000
32.742500 1.298000
32.787200 1.270500
32.831800 1.251800
32.876400 1.242400
32.921100 1.247500
32.965700 1.292500
33.010300 1.310800
33.055000 1.330500
33.099600 1.384500
33.144300 1.422800
33.188900 1.426500
33.233500 1.443900
33.278200 1.466700
33.322800 1.481500
33.367400 1.519900
33.412100 1.588500
33.456700 1.581400
33.501300 1.457900
33.546000 1.414400
33.590600 1.443600
33.635200 1.387000
33.679900 1.300600
33.724500 1.241700
33.769100 1.270700
33.813800 1.217500
33.858400 1.219200
33.903100 1.227700
33.947700 1.253000
33.992300 1.245000
34.037000 1.150800
34.081600 1.116300
34.126200 1.094200
34.170900 1.076300
34.215500 1.064200
34.260100 1.061900
34.304800 1.031200
34.349400 1.002800
34.394000 0.993400
34.438700 0.997700
34.483300 0.967000
34.527900 0.983800
34.572600 1.027600
34.617200 1.036700
34.661900 1.018500
34.706500 1.037000
34.751100 1.017900
34.795800 0.988500
34.840400 0.985700
34.885000 0.987300
34.929700 0.994300
34.974300 0.999400
35.018900 1.023500
35.063600 1.018400
35.108200 1.025500
35.152800 1.031700
35.197500 1.036600
35.242100 1.040300
35.286700 1.037400
35.331400 1.048200
35.376000 1.053700
35.420700 1.066100
35.465300 1.092700
35.509900 1.106200
35.554600 1.115500
35.599200 1.244800
35.643800 1.094100
35.688500 1.026600
35.733100 0.985900
35.777700 0.962000
35.822400 0.945300
35.867000 0.982700
35.911600 0.994300
35.956300 1.024900
36.000900 1.069200
36.045500 1.135500
36.090200 1.181400
36.134800 1.218600
36.179400 1.208800
36.224100 1.211600
36.268700 1.226600
36.313400 1.243400
36.358000 1.272200
36.402600 1.278100
36.447300 1.274500
36.491900 1.275500
36.536500 1.269400
36.581200 1.266000
36.625800 1.294400
36.670400 1.266200
36.715100 1.223300
36.759700 1.143800
36.804300 1.083600
36.849000 1.077800
36.893600 1.083100
36.938200 1.083500
36.982900 1.088900
37.027500 1.096500
37.072200 1.100700
37.116800 1.127300
37.161400 1.207700
37.206100 1.249900
37.250700 1.230400
37.295300 1.213200
37.340000 1.172500
37.384600 1.159800
37.429200 1.151900
37.473900 1.148200
37.518500 1.157900
37.563100 1.176100
37.607800 1.208100
37.652400 1.255800
37.697000 1.301200
37.741700 1.354500
37.786300 1.375800
37.831000 1.397000
37.875600 1.405100
37.920200 1.443000
37.964900 1.441100
38.009500 1.434800
38.054100 1.423400
38.098800 1.365400
38.143400 1.350800
38.188000 1.329100
38.232700 1.314300
38.277300 1.299600
38.321900 1.302200
38.366600 1.422000
38.411200 1.615700
38.455800 1.837000
38.500500 1.718700
38.545100 1.764600
38.589800 1.684200
38.634400 1.635300
38.679000 1.569100
38.723700 1.500400
38.768300 1.439600
38.812900 1.432300
38.857600 1.454400
38.902200 1.473800
38.946800 1.407800
38.991500 1.311700
39.036100 1.296100
39.080700 1.321500
39.125400 1.393400
39.170000 1.466400
39.214600 1.535000
39.259300 1.583300
39.303900 1.616700
39.348600 1.613600
39.393200 1.567300
39.437800 1.537700
39.482500 1.560200
39.527100 1.575700
39.571700 1.573500
39.616400 1.576000
39.661000 1.680800
39.705600 1.300500
39.750300 1.236200
39.794900 1.220900
39.839500 1.251800
39.884200 1.198500
39.928800 1.203100
39.973400 1.198300
40.018100 1.194500
40.062700 1.235800
40.107400 1.326200
40.152000 1.475200
40.196600 1.487900
40.241300 1.502700
40.285900 1.498400
40.330500 1.490400
40.375200 1.491900
40.419800 1.500700
40.464400 1.513600
40.509100 1.528500
40.553700 1.552500
40.598300 1.526100
40.643000 1.503700
40.687600 1.496600
40.732200 1.461600
40.776900 1.435300
40.821500 1.424400
40.866200 1.425000
40.910800 1.431400
40.955400 1.459600
41.000100 1.528900
41.044700 1.590600
41.089300 1.651900
41.134000 1.701800
41.178600 1.748600
41.223200 1.804700
41.267900 1.876800
41.312500 1.936400
41.357100 1.979600
41.401800 1.778700
41.446400 1.660300
41.491000 1.633400
41.535700 1.732900
41.580300 2.144500
41.625000 2.308200
41.669600 2.313700
41.714200 2.354000
41.758900 2.561400
41.803500 2.722400
41.848100 2.919200
41.892800 3.192100
41.937400 2.964000
41.982000 2.782300
42.026700 2.573300
42.071300 2.666500
42.115900 2.833300
42.160600 3.339800
42.205200 4.055700
42.249800 3.801700
42.294500 3.387400
42.339100 3.474400
42.383800 3.437800
42.428400 3.524500
42.473000 3.071000
42.517700 2.818000
42.562300 2.332100
42.606900 2.222000
42.651600 2.201100
42.696200 2.149600
42.740800 1.979800
42.785500 1.806500
42.830100 1.624900
42.874700 1.502100
42.919400 1.464400
42.964000 1.305400
43.008600 1.217700
43.053300 1.125900
43.097900 1.075500
43.142600 1.014700
43.187200 0.950000
43.231800 0.920000
43.276500 0.906100
43.321100 0.897700
43.365700 0.905600
43.410400 0.916000
43.455000 0.936800
43.499600 0.966000
43.544300 1.013000
43.588900 1.071300
43.633500 1.139400
43.678200 1.216300
43.722800 1.304100
43.767400 1.381400
43.812100 1.483800
43.856700 1.605600
43.901400 1.653800
43.946000 1.575800
43.990600 1.395100
44.035300 1.328200
44.079900 1.253700
44.124500 1.182300
44.169200 1.127200
44.213800 1.082600
44.258400 1.047200
44.303100 1.071400
44.347700 1.116800
44.392300 1.186800
44.437000 1.213600
44.481600 1.251700
44.526200 1.287400
44.570900 1.276400
44.615500 1.229800
44.660200 1.203900
44.704800 1.200200
44.749400 1.196800
44.794100 1.193800
44.838700 1.211400
44.883300 1.200700
44.928000 1.199300
44.972600 1.200200
45.017200 1.201200
45.061900 1.201200
45.106500 1.192900
45.151100 1.187800
45.195800 1.189000
45.240400 1.191900
45.285000 1.194100
45.329700 1.205100
45.374300 1.218100
45.419000 1.230300
45.463600 1.248200
45.508200 1.242100
45.552900 1.243800
45.597500 1.240700
45.642100 1.248200
45.686800 1.258100
45.731400 1.247200
45.776000 1.239300
45.820700 1.257000
45.865300 1.255800
45.909900 1.253000
45.954600 1.255000
45.999200 1.305100
46.043800 1.279400
46.088500 1.273600
46.133100 1.273400
46.177800 1.276500
46.222400 1.275600
46.267000 1.282100
46.311700 1.291900
46.356300 1.308300
46.400900 1.313800
46.445600 1.323900
46.490200 1.349000
46.534800 1.358500
46.579500 1.346500
46.624100 1.339500
46.668700 1.341300
46.713400 1.326300
46.758000 1.365200
46.802600 1.315700
46.847300 1.294700
46.891900 1.319000
46.936500 1.408500
46.981200 1.513600
47.025800 1.666100
47.070500 1.815300
47.115100 1.905300
47.159700 1.751900
47.204400 1.681200
47.249000 1.593900
47.293600 1.519700
47.338300 1.483800
47.382900 1.462700
47.427500 1.449400
47.472200 1.466300
47.516800 1.498200
47.561400 1.532100
47.606100 1.543100
47.650700 1.546100
47.695300 1.587500
47.740000 1.679500
47.784600 1.697400
47.829300 1.696800
47.873900 1.682200
47.918500 1.616300
47.963200 1.590700
48.007800 1.579500
48.052400 1.613400
48.097100 1.751100
48.141700 1.781000
48.186300 1.779200
48.231000 1.709600
48.275600 1.684700
48.320200 1.666700
48.364900 1.639100
48.409500 1.615400
48.454100 1.541300
48.498800 1.539600
48.543400 1.522400
48.588100 1.534000
48.632700 1.534300
48.677300 1.529800
48.722000 1.559500
48.766600 1.607300
48.811200 1.652500
48.855900 1.685500
48.900500 1.705700
48.945100 1.761900
48.989800 1.875900
49.034400 1.838400
49.079000 1.767500
49.123700 1.725100
49.168300 1.691600
49.212900 1.668900
49.257600 1.706800
49.302200 1.687400
49.346900 1.682800
49.391500 1.702500
49.436100 1.631300
49.480800 1.634300
49.525400 1.699900
49.570000 1.721500
49.614700 1.782500
49.659300 1.838400
49.703900 1.801100
49.748600 1.755000
49.793200 1.742000
49.837800 1.712700
49.882500 1.714400
49.927100 1.698000
49.971700 1.682700
50.016400 1.684000
50.061000 1.659600
50.105700 1.738600
50.150300 1.562700
50.194900 1.699500
50.239600 1.778200
50.284200 1.803700
50.328800 1.724700
50.373500 1.782100
50.418100 1.801100
50.462700 1.688300
50.507400 1.591900
50.552000 1.538000
50.596600 1.505700
50.641300 1.479800
50.685900 1.504200
50.730500 1.483900
50.775200 1.470300
50.819800 1.454900
50.864500 1.326400
50.909100 1.231300
50.953700 1.214600
50.998400 1.220700
51.043000 1.259500
51.087600 1.255300
51.132300 1.261000
51.176900 1.278700
51.221500 1.327600
51.266200 1.326200
51.310800 1.320600
51.355400 1.307700
51.400100 1.309100
51.444700 1.240500
51.489300 1.185000
51.534000 1.165000
51.578600 1.164900
51.623300 1.133900
51.667900 1.137100
51.712500 1.143200
51.757200 1.130200
51.801800 1.145700
51.846400 1.168700
51.891100 1.221700
51.935700 1.248300
51.980300 1.257000
52.025000 1.275300
52.069600 1.449800
52.114200 1.634400
52.158900 1.833400
52.203500 2.015900
52.248100 2.133900
52.292800 2.195800
52.337400 2.182900
52.382100 2.097100
52.426700 1.960200
52.471300 1.819000
52.516000 1.732400
52.560600 1.650900
52.605200 1.588600
52.649900 1.500400
52.694500 1.438300
52.739100 1.364100
52.783800 1.344400
52.828400 1.374100
52.873000 1.592600
52.917700 1.806100
52.962300 1.832800
53.006900 1.892700
53.051600 1.946600
53.096200 1.964500
53.140900 1.991000
53.185500 2.067200
53.230100 2.153000
53.274800 2.280400
53.319400 2.231900
53.364000 2.094900
53.408700 1.975700
53.453300 1.856700
53.497900 1.708500
53.542600 1.568800
53.587200 1.469700
53.631800 1.380800
53.676500 1.326300
53.721100 1.289000
53.765700 1.234600
53.810400 1.219300
53.855000 1.168000
53.899700 1.183700
53.944300 1.194000
53.988900 1.203500
54.033600 1.230200
54.078200 1.285900
54.122800 1.314600
54.167500 1.354600
54.212100 1.423100
54.256700 1.597700
54.301400 1.760200
54.346000 1.791400
54.390600 1.796500
54.435300 1.754600
54.479900 1.701000
54.524500 1.657600
54.569200 1.613500
54.613800 1.565000
54.658500 1.522800
54.703100 1.454600
54.747700 1.461900
54.792400 1.500200
54.837000 1.494100
54.881600 1.468600
54.926300 1.455300
54.970900 1.458400
55.015500 1.446800
55.060200 1.474100
55.104800 1.507900
55.149400 1.523100
55.194100 1.533700
55.238700 1.534700
55.283300 1.526200
55.328000 1.491400
55.372600 1.460000
55.417300 1.475400
55.461900 1.419800
55.506500 1.354800
55.551200 1.308600
55.595800 1.274800
55.640400 1.254600
55.685100 1.233900
55.729700 1.220100
55.774300 1.214300
55.819000 1.219600
55.863600 1.234800
55.908200 1.269100
55.952900 1.311300
55.997500 1.349800
56.042100 1.338500
56.086800 1.338500
56.131400 1.392200
56.176100 1.332700
56.220700 1.304000
56.265300 1.279100
56.310000 1.265500
56.354600 1.250400
56.399200 1.239200
56.443900 1.242100
56.488500 1.248100
56.533100 1.250100
56.577800 1.254800
56.622400 1.299700
56.667000 1.280900
56.711700 1.280100
56.756300 1.283200
56.800900 1.305000
56.845600 1.310700
56.890200 1.407400
56.934900 1.335500
56.979500 1.343800
57.024100 1.369400
57.068800 1.414400
57.113400 1.457000
57.158000 1.496300
57.202700 1.524300
57.247300 1.562300
57.291900 1.623200
57.336600 1.712900
57.381200 1.781100
57.425800 1.820200
57.470500 1.833300
57.515100 1.752700
57.559700 1.659100
57.604400 1.607200
57.649000 1.568400
57.693600 1.502200
57.738300 1.463700
57.782900 1.475700
57.827600 1.475800
57.872200 1.487400
57.916800 1.463300
57.961500 1.451700
58.006100 1.469600
58.050700 1.525300
58.095400 1.554000
58.140000 1.629100
58.184600 1.734200
58.229300 1.846000
58.273900 1.963600
58.318500 2.090300
58.363200 2.232000
58.407800 2.335200
58.452400 2.404000
58.497100 2.473300
58.541700 2.521800
58.586400 2.578600
58.631000 2.499400
58.675600 2.401600
58.720300 2.260100
58.764900 2.117000
58.809500 1.991400
58.854200 1.891400
58.898800 1.811200
58.943400 1.805200
58.988100 1.773300
59.032700 1.837900
59.077300 1.791800
59.122000 1.744400
59.166600 1.710900
59.211200 1.691500
59.255900 1.656900
59.300500 1.611200
59.345200 1.578400
59.389800 1.534900
59.434400 1.520600
59.479100 1.566400
59.523700 1.552000
59.568300 1.547000
59.613000 1.565800
59.657600 1.575000
59.702200 1.612500
59.746900 1.673600
59.791500 1.660900
59.836100 1.660800
59.880800 1.666000
59.925400 1.657800
59.970000 1.734200
60.014700 1.606900
60.059300 1.542400
60.104000 1.507200
60.148600 1.487800
60.193200 1.454300
60.237900 1.433000
60.282500 1.438500
60.327100 1.451100
60.371800 1.467500
60.416400 1.511800
60.461000 1.493500
60.505700 1.496500
60.550300 1.507700
60.594900 1.515100
60.639600 1.521900
60.684200 1.531200
60.728800 1.532500
60.773500 1.523700
60.818100 1.495100
60.862800 1.467600
60.907400 1.453700
60.952000 1.544700
60.996700 1.633800
61.041300 1.627600
61.085900 1.616100
61.130600 1.585200
61.175200 1.565300
61.219800 1.528900
61.264500 1.491000
61.309100 1.435700
61.353700 1.345300
61.398400 1.277300
61.443000 1.229000
61.487600 1.200000
61.532300 1.141600
61.576900 1.124400
61.621600 1.105300
61.666200 1.078500
61.710800 1.109200
61.755500 1.108600
61.800100 1.111500
61.844700 1.098600
61.889400 1.116800
61.934000 1.188700
61.978600 1.289500
62.023300 1.467200
62.067900 1.692100
62.112500 1.915100
62.157200 2.031400
62.201800 2.071600
62.246400 2.103400
62.291100 2.208800
62.335700 2.205300
62.380400 2.169100
62.425000 2.129300
62.469600 2.034000
62.514300 1.699700
62.558900 1.455100
62.603500 1.242500
62.648200 1.043800
62.692800 0.970000
62.737400 0.818100
62.782100 0.770700
62.826700 0.777600
62.871300 0.794200
62.916000 0.856200
62.960600 0.942800
63.005200 1.040300
63.049900 1.160100
63.094500 1.258800
63.139200 1.286200
63.183800 1.409400
63.228400 1.524200
63.273100 1.636200
63.317700 1.748200
63.362300 1.863400
63.407000 1.996900
63.451600 2.178800
63.496200 2.174600
63.540900 2.079200
63.585500 1.989100
63.630100 1.865500
63.674800 1.747200
63.719400 1.634400
63.764000 1.519000
63.808700 1.444700
63.853300 1.376900
63.898000 1.318500
63.942600 1.247800
63.987200 1.262600
64.031900 1.278900
64.076500 1.320100
64.121100 1.385800
64.165800 1.468200
64.210400 1.566300
64.255000 1.609600
64.299700 1.688800
64.344300 1.763100
64.388900 1.757900
64.433600 1.771000
64.478200 1.784400
64.522800 1.792900
64.567500 1.830700
64.612100 1.858500
64.656800 1.811200
64.701400 1.747200
64.746000 1.766600
64.790700 1.766100
64.835300 1.757100
64.879900 1.756300
64.924600 1.856800
64.969200 1.838900
65.013800 1.797500
65.058500 1.681300
65.103100 1.462700
65.147700 1.325000
65.192400 1.354100
65.237000 1.415300
65.281600 1.448300
65.326300 1.491800
65.370900 1.551700
65.415600 1.594000
65.460200 1.513200
65.504800 1.413700
65.549500 1.439300
65.594100 1.478100
65.638700 1.529400
65.683400 1.573000
65.728000 1.630600
65.772600 1.675800
65.817300 1.773200
65.861900 1.874600
65.906500 1.905700
65.951200 1.958200
65.995800 2.019300
66.040400 2.069800
66.085100 2.107200
66.129700 2.198500
66.174400 2.182200
66.219000 2.189200
66.263600 2.246200
66.308300 2.288300
66.352900 2.298500
66.397500 2.341200
66.442200 2.400300
66.486800 2.623800
66.531400 2.467600
66.576100 2.451100
66.620700 2.379200
66.665300 2.352700
66.710000 2.838500
66.754600 3.494400
66.799200 2.757900
66.843900 2.199900
66.888500 2.005000
66.933200 1.860000
66.977800 1.785500
67.022400 1.742200
67.067100 1.732500
67.111700 1.771900
67.156300 1.874200
67.201000 2.107400
67.245600 2.031400
67.290200 1.886900
67.334900 1.932000
67.379500 1.935800
67.424100 1.878500
67.468800 1.776900
67.513400 1.719900
67.558000 1.744000
67.602700 1.808700
67.647300 1.918100
67.692000 2.002500
67.736600 1.884000
67.781200 1.871200
67.825900 1.892000
67.870500 2.163200
67.915100 2.284800
67.959800 2.246600
68.004400 2.396100
68.049000 2.148500
68.093700 2.172200
68.138300 2.157100
68.182900 2.148400
68.227600 2.142300
68.272200 2.160900
68.316800 2.163700
68.361500 2.178600
68.406100 2.111000
68.450700 2.094800
68.495400 2.090900
68.540000 2.085700
68.584700 2.075200
68.629300 2.049400
68.673900 2.054800
68.718600 2.116500
68.763200 2.233600
68.807800 2.360600
68.852500 2.348500
68.897100 2.249000
68.941700 2.246600
68.986400 2.174200
69.031000 2.085700
69.075600 2.013100
69.120300 1.953000
69.164900 1.917500
69.209500 1.896900
69.254200 1.843400
69.298800 1.828000
69.343500 1.835200
69.388100 1.698500
69.432700 1.621300
69.477400 1.528300
69.522000 1.444500
69.566600 1.393700
69.611300 1.378200
69.655900 1.379300
69.700500 1.413100
69.745200 1.511000
69.789800 1.754300
69.834400 1.972500
69.879100 2.018700
69.923700 2.104200
69.968300 2.205600
70.013000 2.253700
70.057600 2.377700
70.102300 2.265000
70.146900 2.164100
70.191500 2.076400
70.236200 1.977600
70.280800 1.860500
70.325400 1.788400
70.370100 1.691500
70.414700 1.623700
70.459300 1.603300
70.504000 1.586100
70.548600 1.563200
70.593200 1.382000
70.637900 1.380600
70.682500 1.380700
70.727100 1.242900
70.771800 1.151600
70.816400 1.053800
70.861100 0.975500
70.905700 0.883500
70.950300 0.721300
70.995000 0.635500
71.039600 0.582500
71.084200 0.543800
71.128900 0.511800
71.173500 0.495700
71.218100 0.468900
71.262800 0.401500
71.307400 0.362500
71.352000 0.334200
71.396700 0.309600
71.441300 0.287200
71.485900 0.267100
71.530600 0.249300
71.575200 0.248500
71.619900 0.210300
71.664500 0.179700
71.709100 0.172500
71.753800 0.166600
71.798400 0.161700
71.843000 0.157400
71.887700 0.153800
71.932300 0.151000
71.976900 0.148900
72.021600 0.147500
72.066200 0.146900
72.110800 0.147200
72.155500 0.148300
72.200100 0.150000
72.244700 0.154100
72.289400 0.155900
72.334000 0.156300
72.378700 0.170700
72.423300 0.172100
72.467900 0.175300
72.512600 0.177200
72.557200 0.180700
72.601800 0.185500
72.646500 0.191500
72.691100 0.200000
72.735700 0.207700
72.780400 0.223400
72.825000 0.308500
72.869600 0.362800
72.914300 0.339800
72.958900 0.402800
73.003500 0.102400
73.048200 0.099100
73.092800 0.086300
73.137500 0.064200
73.182100 0.005600
73.226700 0.000000
73.271400 0.000000
73.316000 0.000000
73.360600 0.000000
73.405300 0.000000
73.449900 0.000000
73.494500 0.000000
73.539200 0.000000
73.583800 0.000000
73.628400 0.000000
73.673100 0.000000
73.717700 0.000000
73.762300 0.000000
73.807000 0.000000
73.851600 0.000000
73.896300 0.000000
73.940900 0.000000
73.985500 0.000000
74.030200 0.000000
74.074800 0.000000
74.119400 0.000000
74.164100 0.000000
74.208700 0.000000
74.253300 0.000000
74.298000 0.000000
74.342600 0.000000
74.387200 0.000000
74.431900 0.000000
74.476500 0.000000
74.521100 0.000000
74.565800 0.000000
74.610400 0.000000
74.655100 0.000000
74.699700 0.000000
74.744300 0.000000
74.789000 0.000000
74.833600 0.000000
74.878200 0.000000
74.922900 0.000000
74.967500 0.000000
75.012100 0.000000
75.056800 0.000000
75.101400 0.000000
75.146000 0.000000
75.190700 0.000000
75.235300 0.000000
75.279900 0.000000
75.324600 0.000000
75.369200 0.000000
75.413900 0.000000
75.458500 0.000000
75.503100 0.000000
75.547800 0.000000
75.592400 0.000000
75.637000 0.000000
75.681700 0.000000
75.726300 0.000000
75.770900 0.000000
75.815600 0.000000
75.860200 0.000000
75.904800 0.000000
75.949500 0.000000
75.994100 0.000000
76.038700 0.000000
76.083400 0.000000
76.128000 0.000000
76.172700 0.000000
76.217300 0.000000
76.261900 0.000000
76.306600 0.000000
76.351200 0.000000
76.395800 0.000000
76.440500 0.000000
76.485100 0.000000
76.529700 0.000000
76.574400 0.000000
76.619000 0.000000
76.663600 0.000000
76.708300 0.000000
76.752900 0.000000
76.797500 0.000000
76.842200 0.000000
76.886800 0.000000
76.931500 0.000000
76.976100 0.000000
77.020700 0.000000
77.065400 0.000000
77.110000 0.000000
77.154600 0.000000
77.199300 0.000000
77.243900 0.000000
e
