set title 'mp-556516 - Density of States'
set xlabel 'Energy (eV)'
set ylabel 'DOS (states/eV)'
set grid
set xrange [-10:10]
set yrange [0:2192.490]
set xzeroaxis lt -1
set terminal png size 800,600
set output 'mp-556516_dos_gnuplot.png'
plot '-' using 1:2 with lines title 'DOS'
-9.794100 0.000000
-9.780900 0.000000
-9.767600 0.000000
-9.754400 0.000000
-9.741100 0.000000
-9.727900 0.000000
-9.714600 0.000000
-9.701400 0.000000
-9.688100 0.000000
-9.674900 0.000000
-9.661600 0.000000
-9.648400 0.000000
-9.635100 0.000000
-9.621900 0.000000
-9.608600 0.000000
-9.595400 0.000000
-9.582100 0.000000
-9.568900 0.000000
-9.555600 0.000000
-9.542400 0.000000
-9.529100 0.000000
-9.515900 0.000000
-9.502600 0.000000
-9.489400 0.000000
-9.476100 0.000000
-9.462900 0.000000
-9.449600 0.000000
-9.436400 0.000000
-9.423100 0.000000
-9.409900 0.000000
-9.396600 0.000000
-9.383400 0.000000
-9.370100 0.000000
-9.356900 0.000000
-9.343700 0.000000
-9.330400 0.000000
-9.317200 0.000000
-9.303900 0.000000
-9.290700 0.000000
-9.277400 0.000000
-9.264200 0.000000
-9.250900 0.000000
-9.237700 0.000000
-9.224400 0.000000
-9.211200 0.000000
-9.197900 0.000000
-9.184700 0.000000
-9.171400 0.000000
-9.158200 0.000000
-9.144900 0.000000
-9.131700 0.000000
-9.118400 0.000000
-9.105200 0.000000
-9.091900 0.000000
-9.078700 0.000000
-9.065400 0.000000
-9.052200 0.000000
-9.038900 0.000000
-9.025700 0.000000
-9.012400 0.000000
-8.999200 0.000000
-8.985900 0.000000
-8.972700 0.000000
-8.959400 0.000000
-8.946200 0.000000
-8.932900 0.000000
-8.919700 0.000000
-8.906400 0.000000
-8.893200 0.000000
-8.879900 0.000000
-8.866700 0.000000
-8.853400 0.000000
-8.840200 0.000000
-8.826900 0.000000
-8.813700 0.000000
-8.800400 0.000000
-8.787200 0.000000
-8.773900 0.000000
-8.760700 0.000000
-8.747400 0.000000
-8.734200 0.000000
-8.720900 0.000000
-8.707700 0.000000
-8.694400 0.000000
-8.681200 0.000000
-8.667900 0.000000
-8.654700 0.000000
-8.641400 0.000000
-8.628200 0.000000
-8.614900 0.000000
-8.601700 0.000000
-8.588400 0.113400
-8.575200 16.332300
-8.561900 107.848000
-8.548700 0.000000
-8.535400 244.374800
-8.522200 76.203300
-8.508900 191.516500
-8.495700 285.405100
-8.482500 0.000000
-8.469200 208.113500
-8.456000 0.000000
-8.442700 0.000000
-8.429500 0.000000
-8.416200 0.000000
-8.403000 0.000000
-8.389700 0.000000
-8.376500 0.000000
-8.363200 0.000000
-8.350000 0.000000
-8.336700 0.000000
-8.323500 0.000000
-8.310200 0.000000
-8.297000 0.000000
-8.283700 0.000000
-8.270500 0.000000
-8.257200 0.000000
-8.244000 0.000000
-8.230700 0.000000
-8.217500 0.000000
-8.204200 0.000000
-8.191000 0.000000
-8.177700 0.000000
-8.164500 0.000000
-8.151200 0.000000
-8.138000 0.000000
-8.124700 0.000000
-8.111500 0.000000
-8.098200 0.000000
-8.085000 0.000000
-8.071700 0.000000
-8.058500 0.000000
-8.045200 0.000000
-8.032000 0.000000
-8.018700 0.000000
-8.005500 0.000000
-7.992200 0.000000
-7.979000 0.000000
-7.965700 0.000000
-7.952500 0.000000
-7.939200 0.000000
-7.926000 0.000000
-7.912700 0.000000
-7.899500 0.000000
-7.886200 0.000000
-7.873000 0.000000
-7.859700 0.000000
-7.846500 0.000000
-7.833200 0.000000
-7.820000 0.000000
-7.806700 0.000000
-7.793500 0.000000
-7.780200 0.000000
-7.767000 0.000000
-7.753700 0.000000
-7.740500 0.000000
-7.727200 0.000000
-7.714000 0.000000
-7.700700 0.000000
-7.687500 0.000000
-7.674200 0.000000
-7.661000 0.000000
-7.647700 0.000000
-7.634500 0.000000
-7.621300 0.000000
-7.608000 0.000000
-7.594800 0.000000
-7.581500 0.000000
-7.568300 0.000000
-7.555000 0.000000
-7.541800 0.000000
-7.528500 0.000000
-7.515300 0.000000
-7.502000 0.000000
-7.488800 0.000000
-7.475500 0.000000
-7.462300 0.000000
-7.449000 0.000000
-7.435800 0.000000
-7.422500 0.000000
-7.409300 0.000000
-7.396000 0.000000
-7.382800 0.000000
-7.369500 0.000000
-7.356300 0.000000
-7.343000 0.000000
-7.329800 0.000000
-7.316500 0.000000
-7.303300 110.993000
-7.290000 446.811300
-7.276800 589.896900
-7.263500 257.290000
-7.250300 1993.172800
-7.237000 691.545200
-7.223800 675.153600
-7.210500 744.897100
-7.197300 189.104100
-7.184000 414.244500
-7.170800 383.655800
-7.157500 1030.115000
-7.144300 542.545800
-7.131000 957.538600
-7.117800 644.052900
-7.104500 940.369500
-7.091300 763.563300
-7.078000 47.876600
-7.064800 34.171100
-7.051500 20.441500
-7.038300 6.688100
-7.025000 11.186600
-7.011800 36.148300
-6.998500 54.792000
-6.985300 22.313600
-6.972000 11.580700
-6.958800 12.472600
-6.945500 13.363300
-6.932300 14.252700
-6.919000 15.140800
-6.905800 16.027700
-6.892500 16.913400
-6.879300 17.797900
-6.866000 19.473900
-6.852800 40.495500
-6.839500 45.043400
-6.826300 34.310100
-6.813000 23.649900
-6.799800 14.781400
-6.786500 10.652900
-6.773300 10.771800
-6.760100 12.196600
-6.746800 13.622200
-6.733600 15.037600
-6.720300 16.442700
-6.707100 17.837700
-6.693800 19.540700
-6.680600 25.274300
-6.667300 80.743400
-6.654100 141.229700
-6.640800 19.199000
-6.627600 22.880900
-6.614300 40.218200
-6.601100 45.697100
-6.587800 0.000000
-6.574600 0.000000
-6.561300 0.000000
-6.548100 64.147400
-6.534800 80.495400
-6.521600 59.424500
-6.508300 36.350500
-6.495100 23.012100
-6.481800 13.628200
-6.468600 7.168400
-6.455300 3.764100
-6.442100 0.979600
-6.428800 0.000000
-6.415600 0.000000
-6.402300 0.000000
-6.389100 0.000000
-6.375800 0.000000
-6.362600 0.000000
-6.349300 0.000000
-6.336100 0.000000
-6.322800 0.000000
-6.309600 0.000000
-6.296300 0.000000
-6.283100 0.000000
-6.269800 0.000000
-6.256600 0.000000
-6.243300 0.000000
-6.230100 0.000000
-6.216800 0.000000
-6.203600 0.000000
-6.190300 0.000000
-6.177100 0.000000
-6.163800 0.000000
-6.150600 0.000000
-6.137300 0.000000
-6.124100 0.000000
-6.110800 0.000000
-6.097600 0.000000
-6.084300 0.000000
-6.071100 0.000000
-6.057800 0.000000
-6.044600 0.000000
-6.031300 0.000000
-6.018100 0.000000
-6.004800 0.000000
-5.991600 0.000000
-5.978300 0.000000
-5.965100 0.000000
-5.951800 0.000000
-5.938600 0.000000
-5.925300 0.000000
-5.912100 0.000000
-5.898800 0.000000
-5.885600 0.000000
-5.872400 0.000000
-5.859100 0.000000
-5.845900 0.000000
-5.832600 0.000000
-5.819400 0.000000
-5.806100 0.000000
-5.792900 0.000000
-5.779600 0.000000
-5.766400 0.000000
-5.753100 0.000000
-5.739900 0.000000
-5.726600 0.000000
-5.713400 0.000000
-5.700100 0.000000
-5.686900 0.000000
-5.673600 0.000000
-5.660400 0.000000
-5.647100 0.000000
-5.633900 0.000000
-5.620600 0.000000
-5.607400 0.000000
-5.594100 0.000000
-5.580900 0.000000
-5.567600 0.000000
-5.554400 0.000000
-5.541100 0.000000
-5.527900 0.000000
-5.514600 0.000000
-5.501400 0.000000
-5.488100 0.000000
-5.474900 0.000000
-5.461600 0.000000
-5.448400 0.000000
-5.435100 0.000000
-5.421900 0.000000
-5.408600 0.000000
-5.395400 0.000000
-5.382100 0.000000
-5.368900 0.000000
-5.355600 0.000000
-5.342400 0.000000
-5.329100 0.000000
-5.315900 0.000000
-5.302600 0.000000
-5.289400 0.000000
-5.276100 0.000000
-5.262900 0.000000
-5.249600 0.000000
-5.236400 0.000000
-5.223100 0.000000
-5.209900 0.000000
-5.196600 0.000000
-5.183400 0.000000
-5.170100 0.000000
-5.156900 0.000000
-5.143600 0.000000
-5.130400 0.000000
-5.117100 0.000000
-5.103900 0.000000
-5.090600 0.000000
-5.077400 0.000000
-5.064100 0.000000
-5.050900 0.000000
-5.037600 0.000000
-5.024400 0.000000
-5.011200 0.000000
-4.997900 0.000000
-4.984700 0.000000
-4.971400 0.000000
-4.958200 0.000000
-4.944900 0.000000
-4.931700 0.000000
-4.918400 0.000000
-4.905200 0.000000
-4.891900 0.000000
-4.878700 0.000000
-4.865400 0.000000
-4.852200 0.000000
-4.838900 0.000000
-4.825700 0.000000
-4.812400 0.000000
-4.799200 0.000000
-4.785900 0.000000
-4.772700 0.000000
-4.759400 0.000000
-4.746200 0.000000
-4.732900 0.000000
-4.719700 0.000000
-4.706400 0.000000
-4.693200 0.000000
-4.679900 0.000000
-4.666700 0.000000
-4.653400 0.000000
-4.640200 0.000000
-4.626900 0.000000
-4.613700 0.000000
-4.600400 0.000000
-4.587200 0.000000
-4.573900 0.000000
-4.560700 0.000000
-4.547400 0.000000
-4.534200 0.000000
-4.520900 0.000000
-4.507700 0.000000
-4.494400 0.000000
-4.481200 0.000000
-4.467900 0.000000
-4.454700 0.000000
-4.441400 0.000000
-4.428200 0.000000
-4.414900 0.000000
-4.401700 0.000000
-4.388400 0.000000
-4.375200 0.000000
-4.361900 0.000000
-4.348700 0.000000
-4.335400 0.000000
-4.322200 0.000000
-4.308900 0.000000
-4.295700 0.000000
-4.282400 0.000000
-4.269200 0.000000
-4.255900 0.000000
-4.242700 0.000000
-4.229400 0.000000
-4.216200 0.000000
-4.202900 0.000000
-4.189700 0.000000
-4.176400 0.000000
-4.163200 0.000000
-4.150000 0.000000
-4.136700 0.000000
-4.123500 0.000000
-4.110200 0.000000
-4.097000 0.000000
-4.083700 0.000000
-4.070500 0.000000
-4.057200 0.000000
-4.044000 0.000000
-4.030700 0.000000
-4.017500 0.000000
-4.004200 0.000000
-3.991000 0.000000
-3.977700 0.000000
-3.964500 0.000000
-3.951200 0.000000
-3.938000 0.000000
-3.924700 0.000000
-3.911500 0.000000
-3.898200 0.000000
-3.885000 0.000000
-3.871700 0.000000
-3.858500 0.000000
-3.845200 0.000000
-3.832000 0.000000
-3.818700 0.000000
-3.805500 0.000000
-3.792200 0.000000
-3.779000 0.000000
-3.765700 0.000000
-3.752500 0.000000
-3.739200 0.000000
-3.726000 0.000000
-3.712700 0.000000
-3.699500 0.000000
-3.686200 0.000000
-3.673000 0.000000
-3.659700 0.000000
-3.646500 0.000000
-3.633200 0.000000
-3.620000 0.000000
-3.606700 0.000000
-3.593500 0.000000
-3.580200 0.000000
-3.567000 0.000000
-3.553700 0.000000
-3.540500 0.000000
-3.527200 0.000000
-3.514000 0.000000
-3.500700 0.000000
-3.487500 0.000000
-3.474200 0.000000
-3.461000 0.000000
-3.447700 0.000000
-3.434500 0.000000
-3.421200 0.000000
-3.408000 0.000000
-3.394700 0.000000
-3.381500 0.000000
-3.368200 0.000000
-3.355000 0.000000
-3.341700 0.000000
-3.328500 0.000000
-3.315200 0.000000
-3.302000 0.000000
-3.288800 0.000000
-3.275500 0.000000
-3.262300 0.000000
-3.249000 0.000000
-3.235800 0.000000
-3.222500 0.000000
-3.209300 0.000000
-3.196000 0.000000
-3.182800 0.000000
-3.169500 0.000000
-3.156300 0.000000
-3.143000 0.000000
-3.129800 0.000000
-3.116500 0.000000
-3.103300 0.000000
-3.090000 0.000000
-3.076800 0.000000
-3.063500 0.000000
-3.050300 0.000000
-3.037000 0.000000
-3.023800 4.666400
-3.010500 4.068600
-2.997300 1.834000
-2.984000 1.977500
-2.970800 2.126000
-2.957500 2.279500
-2.944300 2.438000
-2.931000 2.601500
-2.917800 2.770000
-2.904500 2.943500
-2.891300 3.122000
-2.878000 3.305600
-2.864800 3.494100
-2.851500 3.687600
-2.838300 3.886200
-2.825000 4.089700
-2.811800 4.298300
-2.798500 4.511800
-2.785300 4.730400
-2.772000 4.953900
-2.758800 5.182500
-2.745500 5.416000
-2.732300 5.654600
-2.719000 4.940300
-2.705800 5.872700
-2.692500 8.178100
-2.679300 10.003800
-2.666000 10.446600
-2.652800 10.625100
-2.639500 10.765500
-2.626300 10.867900
-2.613000 10.932300
-2.599800 10.958700
-2.586500 10.947000
-2.573300 10.897400
-2.560000 10.809800
-2.546800 10.684100
-2.533500 10.520400
-2.520300 10.318800
-2.507000 10.079100
-2.493800 9.638100
-2.480500 8.993000
-2.467300 7.576800
-2.454000 5.553000
-2.440800 10.223900
-2.427600 22.363700
-2.414300 41.496000
-2.401100 43.576700
-2.387800 22.962800
-2.374600 9.306700
-2.361300 5.481300
-2.348100 5.480200
-2.334800 6.789700
-2.321600 8.003600
-2.308300 9.828300
-2.295100 12.143400
-2.281800 14.421200
-2.268600 22.686800
-2.255300 28.184700
-2.242100 44.911700
-2.228800 54.952400
-2.215600 23.756900
-2.202300 26.909400
-2.189100 31.542600
-2.175800 64.502800
-2.162600 14.047900
-2.149300 16.712900
-2.136100 18.769200
-2.122800 23.282200
-2.109600 27.949300
-2.096300 26.385000
-2.083100 26.428000
-2.069800 26.815000
-2.056600 27.283600
-2.043300 27.833900
-2.030100 29.094000
-2.016800 50.252400
-2.003600 16.842600
-1.990300 19.706600
-1.977100 19.473600
-1.963800 18.266500
-1.950600 19.098500
-1.937300 21.729400
-1.924100 18.203700
-1.910800 14.792700
-1.897600 11.496400
-1.884300 8.640200
-1.871100 6.487900
-1.857800 5.031800
-1.844600 4.680900
-1.831300 4.330600
-1.818100 3.981000
-1.804800 3.632000
-1.791600 3.283800
-1.778300 2.936200
-1.765100 2.589200
-1.751800 2.260600
-1.738600 1.990900
-1.725300 1.804800
-1.712100 1.710700
-1.698800 1.708700
-1.685600 1.798800
-1.672300 1.981000
-1.659100 2.255300
-1.645800 30.168000
-1.632600 45.249200
-1.619300 14.917200
-1.606100 14.696300
-1.592800 15.638700
-1.579600 16.775700
-1.566300 18.072300
-1.553100 19.548700
-1.539900 18.371700
-1.526600 16.845900
-1.513400 16.113500
-1.500100 17.603100
-1.486900 19.143400
-1.473600 22.085700
-1.460400 22.425200
-1.447100 21.746600
-1.433900 20.601900
-1.420600 18.991200
-1.407400 16.914400
-1.394100 14.371600
-1.380900 12.331600
-1.367600 11.398400
-1.354400 11.183900
-1.341100 11.786200
-1.327900 12.727900
-1.314600 14.014800
-1.301400 15.408200
-1.288100 16.030100
-1.274900 16.862000
-1.261600 17.903700
-1.248400 19.155400
-1.235100 20.588000
-1.221900 22.623900
-1.208600 24.521300
-1.195400 23.180100
-1.182100 20.985200
-1.168900 15.362200
-1.155600 11.302300
-1.142400 34.481300
-1.129100 29.118400
-1.115900 32.663700
-1.102600 28.473700
-1.089400 27.101900
-1.076100 22.676400
-1.062900 17.993500
-1.049600 15.004400
-1.036400 12.529700
-1.023100 13.085000
-1.009900 14.810700
-0.996600 18.316000
-0.983400 21.814100
-0.970100 23.662000
-0.956900 23.862800
-0.943600 22.942900
-0.930400 34.936700
-0.917100 39.673300
-0.903900 35.063400
-0.890600 13.443100
-0.877400 1.012600
-0.864100 1.152200
-0.850900 1.300700
-0.837600 1.911300
-0.824400 2.759700
-0.811100 3.533900
-0.797900 4.233700
-0.784600 4.859200
-0.771400 5.410400
-0.758100 6.305800
-0.744900 7.245200
-0.731600 7.891700
-0.718400 8.245200
-0.705100 8.305800
-0.691900 8.073500
-0.678700 12.112400
-0.665400 10.657400
-0.652200 9.289400
-0.638900 8.008300
-0.625700 6.814000
-0.612400 5.706700
-0.599200 4.686200
-0.585900 3.752600
-0.572700 2.905900
-0.559400 2.146100
-0.546200 1.473200
-0.532900 0.887200
-0.519700 0.388100
-0.506400 0.000000
-0.493200 0.000000
-0.479900 0.000000
-0.466700 0.000000
-0.453400 0.000000
-0.440200 0.000000
-0.426900 0.000000
-0.413700 0.000000
-0.400400 0.000000
-0.387200 0.000000
-0.373900 0.000000
-0.360700 0.000000
-0.347400 0.000000
-0.334200 0.000000
-0.320900 0.000000
-0.307700 0.000000
-0.294400 0.000000
-0.281200 0.000000
-0.267900 0.000000
-0.254700 0.000000
-0.241400 0.000000
-0.228200 0.000000
-0.214900 0.000000
-0.201700 0.000000
-0.188400 0.000000
-0.175200 0.000000
-0.161900 0.000000
-0.148700 0.000000
-0.135400 0.000000
-0.122200 0.000000
-0.108900 0.000000
-0.095700 0.000000
-0.082400 0.000000
-0.069200 0.000000
-0.055900 0.000000
-0.042700 0.000000
-0.029400 0.000000
-0.016200 0.000000
-0.002900 0.000000
0.010300 0.000000
0.023600 0.000000
0.036800 0.000000
0.050100 0.000000
0.063300 0.000000
0.076600 0.000000
0.089800 0.000000
0.103100 0.000000
0.116300 0.000000
0.129600 0.000000
0.142800 0.000000
0.156100 0.000000
0.169300 0.000000
0.182500 0.000000
0.195800 0.000000
0.209000 0.000000
0.222300 0.000000
0.235500 0.000000
0.248800 0.000000
0.262000 0.000000
0.275300 0.000000
0.288500 0.000000
0.301800 0.000000
0.315000 0.000000
0.328300 0.000000
0.341500 0.000000
0.354800 0.000000
0.368000 0.000000
0.381300 0.000000
0.394500 0.000000
0.407800 0.000000
0.421000 0.000000
0.434300 0.000000
0.447500 0.000000
0.460800 0.000000
0.474000 0.000000
0.487300 0.000000
0.500500 0.000000
0.513800 0.000000
0.527000 0.000000
0.540300 0.000000
0.553500 0.000000
0.566800 0.000000
0.580000 0.000000
0.593300 0.000000
0.606500 0.000000
0.619800 0.000000
0.633000 0.000000
0.646300 0.000000
0.659500 0.000000
0.672800 0.000000
0.686000 0.000000
0.699300 0.000000
0.712500 0.000000
0.725800 0.000000
0.739000 0.000000
0.752300 0.000000
0.765500 0.000000
0.778800 1.326400
0.792000 5.128800
0.805300 7.476100
0.818500 8.368300
0.831800 7.805400
0.845000 17.803100
0.858300 11.542500
0.871500 12.035800
0.884800 12.538700
0.898000 13.051400
0.911300 13.573700
0.924500 14.105700
0.937800 14.647400
0.951000 15.198800
0.964300 15.759900
0.977500 16.330600
0.990800 16.911100
1.004000 13.378900
1.017300 14.878500
1.030500 17.735500
1.043700 19.654800
1.057000 20.886900
1.070200 21.198700
1.083500 52.696900
1.096700 33.078600
1.110000 31.326500
1.123200 32.170100
1.136500 32.610800
1.149700 32.648400
1.163000 31.154300
1.176200 27.691400
1.189500 25.752600
1.202700 23.279200
1.216000 21.046700
1.229200 19.020800
1.242500 17.201600
1.255700 15.589100
1.269000 14.183300
1.282200 13.116700
1.295500 12.303300
1.308700 11.753900
1.322000 11.255900
1.335200 10.733400
1.348500 10.209200
1.361700 9.805800
1.375000 9.388900
1.388200 8.958500
1.401500 8.338300
1.414700 7.419500
1.428000 6.883700
1.441200 6.860200
1.454500 8.124100
1.467700 10.064600
1.481000 12.676100
1.494200 15.538200
1.507500 18.224100
1.520700 20.639700
1.534000 21.966200
1.547200 31.290200
1.560500 20.409000
1.573700 19.358600
1.587000 15.002400
1.600200 12.603400
1.613500 13.606700
1.626700 16.423100
1.640000 18.398000
1.653200 20.072200
1.666500 22.177400
1.679700 41.158200
1.693000 28.126200
1.706200 25.297100
1.719500 32.299600
1.732700 27.917100
1.746000 35.752200
1.759200 31.502600
1.772500 33.762400
1.785700 34.125800
1.799000 37.676800
1.812200 37.829700
1.825500 38.838500
1.838700 35.637500
1.852000 33.460700
1.865200 33.387700
1.878500 33.251500
1.891700 34.581200
1.904900 43.333500
1.918200 38.898000
1.931400 41.714300
1.944700 40.940500
1.957900 34.201400
1.971200 32.999600
1.984400 32.678300
1.997700 30.800300
2.010900 29.547400
2.024200 27.465800
2.037400 23.235300
2.050700 18.902700
2.063900 16.011500
2.077200 17.350300
2.090400 19.489700
2.103700 22.069700
2.116900 24.891000
2.130200 28.600600
2.143400 30.334500
2.156700 28.102600
2.169900 29.787800
2.183200 32.541400
2.196400 35.763200
2.209700 37.475500
2.222900 37.678100
2.236200 36.371200
2.249400 34.676400
2.262700 38.267700
2.275900 37.773900
2.289200 30.335500
2.302400 20.803800
2.315700 17.596900
2.328900 14.729400
2.342200 11.357200
2.355400 11.144700
2.368700 8.417900
2.381900 1.979100
2.395200 0.000000
2.408400 15.183000
2.421700 14.017100
2.434900 16.884300
2.448200 20.669300
2.461400 23.428300
2.474700 25.562600
2.487900 26.845200
2.501200 27.232800
2.514400 27.666100
2.527700 27.807700
2.540900 28.273600
2.554200 32.071600
2.567400 38.047100
2.580700 41.727800
2.593900 38.772500
2.607200 22.380300
2.620400 29.161300
2.633700 39.189000
2.646900 44.180600
2.660200 13.533000
2.673400 14.361000
2.686700 15.194400
2.699900 15.924200
2.713200 16.564400
2.726400 17.509900
2.739700 18.509800
2.752900 19.380400
2.766100 17.023200
2.779400 12.427900
2.792600 13.103900
2.805900 14.085200
2.819100 15.018700
2.832400 17.183300
2.845600 21.177600
2.858900 24.061100
2.872100 25.833900
2.885400 19.341700
2.898600 11.291500
2.911900 37.712200
2.925100 7.698600
2.938400 7.972100
2.951600 8.245600
2.964900 8.519000
2.978100 8.792400
2.991400 9.065600
3.004600 9.338800
3.017900 9.611900
3.031100 12.124700
3.044400 16.381400
3.057600 19.300600
3.070900 20.882200
3.084100 17.647800
3.097400 10.282300
3.110600 20.844800
3.123900 61.887700
3.137100 28.087900
3.150400 9.694900
3.163600 3.840700
3.176900 3.212500
3.190100 2.856700
3.203400 2.547100
3.216600 2.250900
3.229900 1.968100
3.243100 1.698700
3.256400 1.442700
3.269600 1.200000
3.282900 0.970800
3.296100 0.754900
3.309400 4.350400
3.322600 7.610200
3.335900 9.198800
3.349100 9.777600
3.362400 10.680000
3.375600 11.207900
3.388900 11.335700
3.402100 11.063400
3.415400 10.391100
3.428600 9.519800
3.441900 8.622000
3.455100 7.518300
3.468400 6.626600
3.481600 5.954000
3.494900 5.270000
3.508100 4.574800
3.521400 3.868400
3.534600 3.150600
3.547900 2.601800
3.561100 2.175500
3.574400 1.787400
3.587600 1.437300
3.600900 1.125400
3.614100 0.851600
3.627400 0.615800
3.640600 0.418200
3.653800 0.258800
3.667100 0.137400
3.680300 0.054100
3.693600 0.008900
3.706800 0.000000
3.720100 0.000000
3.733300 0.000000
3.746600 0.000000
3.759800 0.000000
3.773100 0.000000
3.786300 0.000000
3.799600 0.000000
3.812800 0.000000
3.826100 0.000000
3.839300 0.000000
3.852600 0.000000
3.865800 0.000000
3.879100 0.000000
3.892300 0.000000
3.905600 0.000000
3.918800 0.000000
3.932100 0.000000
3.945300 0.000000
3.958600 0.000000
3.971800 0.000000
3.985100 0.000000
3.998300 0.000000
4.011600 0.000000
4.024800 0.000000
4.038100 0.000000
4.051300 0.000000
4.064600 0.000000
4.077800 0.000000
4.091100 0.000000
4.104300 0.000000
4.117600 0.000000
4.130800 0.000000
4.144100 0.000000
4.157300 0.000000
4.170600 0.000000
4.183800 0.000000
4.197100 0.000000
4.210300 0.000000
4.223600 0.000000
4.236800 0.000000
4.250100 0.000000
4.263300 0.000000
4.276600 0.000000
4.289800 0.000000
4.303100 0.000000
4.316300 0.000000
4.329600 0.000000
4.342800 0.000000
4.356100 0.000000
4.369300 0.000000
4.382600 0.000000
4.395800 0.000000
4.409100 0.000000
4.422300 0.000000
4.435600 0.000000
4.448800 0.000000
4.462100 0.000000
4.475300 0.000000
4.488600 0.000000
4.501800 0.000000
4.515000 0.000000
4.528300 0.000000
4.541500 0.000000
4.554800 0.000000
4.568000 0.000000
4.581300 0.000000
4.594500 0.000000
4.607800 0.744400
4.621000 2.188600
4.634300 3.402400
4.647500 4.385800
4.660800 5.138800
4.674000 5.661400
4.687300 6.145000
4.700500 6.752300
4.713800 7.228500
4.727000 7.573400
4.740300 7.787000
4.753500 7.869500
4.766800 7.820800
4.780000 7.640800
4.793300 7.329600
4.806500 6.937200
4.819800 6.944000
4.833000 6.813500
4.846300 10.251400
4.859500 10.770300
4.872800 9.422300
4.886000 8.389900
4.899300 8.018900
4.912500 8.885900
4.925800 9.955200
4.939000 11.006700
4.952300 12.040200
4.965500 13.055800
4.978800 14.053400
4.992000 15.033100
5.005300 15.994900
5.018500 16.938800
5.031800 17.877200
5.045000 21.588800
5.058300 27.833200
5.071500 33.054000
5.084800 24.033500
5.098000 15.437400
5.111300 16.926800
5.124500 12.727300
5.137800 3.973400
5.151000 2.930700
5.164300 2.061000
5.177500 2.208600
5.190800 3.585600
5.204000 5.646700
5.217300 7.464200
5.230500 9.024300
5.243800 10.412600
5.257000 12.075600
5.270300 14.575100
5.283500 17.630200
5.296800 18.717500
5.310000 13.813100
5.323300 14.554200
5.336500 14.912900
5.349800 14.693600
5.363000 14.468200
5.376200 14.236700
5.389500 13.999000
5.402700 13.779400
5.416000 13.655100
5.429200 13.519000
5.442500 13.420500
5.455700 13.345200
5.469000 13.258100
5.482200 14.024300
5.495500 15.265100
5.508700 16.801700
5.522000 18.959900
5.535200 21.386000
5.548500 24.089700
5.561700 27.054200
5.575000 27.974100
5.588200 23.041400
5.601500 15.004100
5.614700 7.724100
5.628000 14.099400
5.641200 18.876900
5.654500 22.056700
5.667700 23.638600
5.681000 28.487600
5.694200 41.243600
5.707500 39.278400
5.720700 34.489700
5.734000 38.759000
5.747200 36.224500
5.760500 32.560000
5.773700 28.892600
5.787000 25.222300
5.800200 21.549200
5.813500 18.363800
5.826700 10.671200
5.840000 5.098300
5.853200 5.537700
5.866500 8.445300
5.879700 10.865200
5.893000 14.339700
5.906200 18.868800
5.919500 19.964800
5.932700 21.693800
5.946000 24.131500
5.959200 26.462000
5.972500 25.937100
5.985700 22.758400
5.999000 19.633800
6.012200 18.156300
6.025500 16.652100
6.038700 14.847000
6.052000 12.826800
6.065200 10.740300
6.078500 13.117600
6.091700 13.195500
6.105000 13.333700
6.118200 14.465500
6.131500 15.460800
6.144700 16.287100
6.158000 16.944300
6.171200 17.432400
6.184500 17.751400
6.197700 17.901300
6.211000 17.882100
6.224200 17.693800
6.237400 17.773800
6.250700 17.969900
6.263900 18.061200
6.277200 14.618500
6.290400 13.213200
6.303700 13.462700
6.316900 13.151100
6.330200 8.775900
6.343400 9.541200
6.356700 11.061600
6.369900 13.201600
6.383200 14.737900
6.396400 15.670500
6.409700 17.111500
6.422900 20.297100
6.436200 21.348400
6.449400 20.294400
6.462700 15.715400
6.475900 12.534400
6.489200 14.365500
6.502400 16.276000
6.515700 17.498800
6.528900 18.228900
6.542200 18.546000
6.555400 18.422400
6.568700 18.164500
6.581900 17.564500
6.595200 16.740100
6.608400 15.998700
6.621700 15.340100
6.634900 14.764500
6.648200 14.271700
6.661400 13.861900
6.674700 14.881600
6.687900 16.637900
6.701200 18.064000
6.714400 19.152200
6.727700 19.691700
6.740900 21.326000
6.754200 25.753500
6.767400 22.172300
6.780700 15.665100
6.793900 11.079600
6.807200 15.493600
6.820400 22.181200
6.833700 30.102500
6.846900 27.925100
6.860200 18.401300
6.873400 14.645500
6.886700 11.194000
6.899900 8.046800
6.913200 5.203800
6.926400 3.753500
6.939700 7.833800
6.952900 12.076200
6.966200 12.882200
6.979400 10.251700
6.992700 9.614800
7.005900 9.737000
7.019200 9.722800
7.032400 9.572100
7.045700 9.285000
7.058900 9.046800
7.072200 9.410000
7.085400 10.041600
7.098600 11.219000
7.111900 13.945100
7.125100 14.907500
7.138400 14.255400
7.151600 12.595700
7.164900 12.563900
7.178100 13.715700
7.191400 13.919000
7.204600 14.013300
7.217900 14.076500
7.231100 14.019200
7.244400 13.851300
7.257600 13.699800
7.270900 13.600200
7.284100 13.552800
7.297400 13.557300
7.310600 13.614000
7.323900 13.722600
7.337100 13.883300
7.350400 14.553800
7.363600 15.392100
7.376900 16.638200
7.390100 18.204300
7.403400 19.702400
7.416600 20.878400
7.429900 21.813400
7.443100 20.026600
7.456400 23.146900
7.469600 17.723000
7.482900 18.136100
7.496100 18.812900
7.509400 18.951600
7.522600 18.552200
7.535900 17.396800
7.549100 14.809500
7.562400 12.640100
7.575600 10.888700
7.588900 10.563200
7.602100 10.407600
7.615400 10.240000
7.628600 10.181000
7.641900 10.190900
7.655100 10.066200
7.668400 9.806900
7.681600 9.411100
7.694900 9.182200
7.708100 9.215200
7.721400 9.276100
7.734600 9.364800
7.747900 9.859700
7.761100 10.005900
7.774400 9.684900
7.787600 14.881900
7.800900 15.090800
7.814100 6.918400
7.827400 5.306000
7.840600 3.899400
7.853900 5.518500
7.867100 26.291100
7.880400 28.058000
7.893600 34.580500
7.906900 40.401400
7.920100 42.383300
7.933400 34.358200
7.946600 43.646900
7.959900 28.596100
7.973100 14.714200
7.986300 12.179400
7.999600 21.265100
8.012800 33.167600
8.026100 52.345200
8.039300 11.800300
8.052600 20.020400
8.065800 22.279800
8.079100 20.941400
8.092300 37.236200
8.105600 31.774400
8.118800 28.860200
8.132100 28.935900
8.145300 29.591400
8.158600 30.434000
8.171800 31.463700
8.185100 32.818300
8.198300 35.292800
8.211600 27.462200
8.224800 21.641400
8.238100 27.210000
8.251300 32.383400
8.264600 34.602200
8.277800 33.649100
8.291100 30.668800
8.304300 25.109900
8.317600 15.490800
8.330800 10.903500
8.344100 27.429100
8.357300 48.324100
8.370600 50.707400
8.383800 8.420600
8.397100 7.907100
8.410300 7.455500
8.423600 7.065800
8.436800 20.540700
8.450100 29.335200
8.463300 31.030300
8.476600 26.069600
8.489800 22.077400
8.503100 12.606800
8.516300 18.146000
8.529600 25.282700
8.542800 34.041700
8.556100 81.830800
8.569300 8.589300
8.582600 20.705500
8.595800 30.812700
8.609100 32.844600
8.622300 29.099100
8.635600 23.987900
8.648800 19.137900
8.662100 15.347200
8.675300 12.682400
8.688600 11.217500
8.701800 59.179900
8.715100 27.429000
8.728300 22.796200
8.741600 21.903100
8.754800 23.547100
8.768100 24.380700
8.781300 23.832900
8.794600 18.945400
8.807800 20.185600
8.821100 22.510300
8.834300 27.053100
8.847500 26.873400
8.860800 21.178800
8.874000 14.043000
8.887300 13.815400
8.900500 12.374000
8.913800 12.439700
8.927000 13.190000
8.940300 14.816500
8.953500 16.701300
8.966800 16.752400
8.980000 16.386500
8.993300 16.197200
9.006500 25.294400
9.019800 31.986700
9.033000 34.809300
9.046300 36.211700
9.059500 31.898400
9.072800 17.052700
9.086000 15.092600
9.099300 16.509800
9.112500 20.420800
9.125800 22.012500
9.139000 23.720400
9.152300 26.186200
9.165500 27.981700
9.178800 28.819800
9.192000 50.885800
9.205300 40.599200
9.218500 33.286700
9.231800 38.068600
9.245000 28.858300
9.258300 14.422600
9.271500 14.759800
9.284800 58.274100
9.298000 19.259300
9.311300 6.818400
9.324500 8.659800
9.337800 11.003000
9.351000 13.435100
9.364300 15.998000
9.377500 23.799100
9.390800 31.057500
9.404000 27.594100
9.417300 21.722500
9.430500 17.889200
9.443800 24.615100
9.457000 28.568700
9.470300 1.408700
9.483500 1.227800
9.496800 1.059300
9.510000 2.727200
9.523300 6.524100
9.536500 10.082400
9.549800 14.541800
9.563000 28.935500
9.576300 30.615800
9.589500 26.741300
9.602800 23.101600
9.616000 21.454900
9.629300 21.972600
9.642500 22.982000
9.655800 27.896100
9.669000 37.592400
9.682300 32.983700
9.695500 29.663500
9.708700 29.084600
9.722000 28.206600
9.735200 26.618000
9.748500 24.454300
9.761700 21.520200
9.775000 19.398800
9.788200 17.336600
9.801500 15.187100
9.814700 12.985800
9.828000 11.891700
9.841200 10.599300
9.854500 9.108700
9.867700 7.904000
9.881000 6.855100
9.894200 5.918700
9.907500 5.083000
9.920700 15.043200
9.934000 18.980200
9.947200 18.103500
9.960500 18.040400
9.973700 23.876100
9.987000 29.086400
10.000200 28.664400
10.013500 28.859700
10.026700 28.807400
10.040000 24.017700
10.053200 23.290200
10.066500 22.445800
10.079700 21.417200
10.093000 20.552500
10.106200 18.138300
10.119500 15.591700
10.132700 15.005900
10.146000 14.718400
10.159200 14.729400
10.172500 19.478000
10.185700 21.236800
10.199000 22.871800
10.212200 9.961100
10.225500 0.814800
10.238700 3.311400
10.252000 5.349300
10.265200 7.713000
10.278500 9.390200
10.291700 10.381000
10.305000 11.294000
10.318200 11.538500
10.331500 11.927600
10.344700 12.866300
10.358000 13.820700
10.371200 14.587400
10.384500 15.166400
10.397700 15.109000
10.411000 15.051200
10.424200 14.997500
10.437500 14.948000
10.450700 14.902800
10.464000 14.861700
10.477200 14.824800
10.490500 14.792000
10.503700 14.807100
10.517000 16.151400
10.530200 17.124600
10.543500 17.851200
10.556700 17.933300
10.569900 17.358800
10.583200 16.993600
10.596400 16.195900
10.609700 14.088500
10.622900 11.518200
10.636200 9.708200
10.649400 8.515500
10.662700 7.805000
10.675900 7.404300
10.689200 6.288300
10.702400 5.136800
10.715700 6.005100
10.728900 6.853100
10.742200 7.686200
10.755400 8.042500
10.768700 7.914400
10.781900 6.977400
10.795200 7.639300
10.808400 8.629200
10.821700 9.532200
10.834900 10.348400
10.848200 11.077900
10.861400 11.219600
10.874700 11.177500
10.887900 11.079900
10.901200 10.926800
10.914400 10.747000
10.927700 10.804400
10.940900 10.892100
10.954200 11.142700
10.967400 11.804200
10.980700 11.894200
10.993900 11.460000
11.007200 11.110900
11.020400 10.765200
11.033700 10.423000
11.046900 10.084100
11.060200 9.748700
11.073400 9.423200
11.086700 9.134600
11.099900 8.848300
11.113200 8.564400
11.126400 8.282700
11.139700 8.003400
11.152900 7.726400
11.166200 7.451700
11.179400 7.179400
11.192700 6.952000
11.205900 6.728200
11.219200 6.507800
11.232400 6.290700
11.245700 6.155200
11.258900 6.148500
11.272200 6.146200
11.285400 6.374100
11.298700 7.968100
11.311900 11.163600
11.325200 15.351200
11.338400 17.403100
11.351700 19.431300
11.364900 21.500500
11.378200 20.442900
11.391400 18.441900
11.404700 17.084500
11.417900 16.785500
11.431100 15.787900
11.444400 14.047600
11.457600 13.458400
11.470900 15.430500
11.484100 16.625800
11.497400 17.576900
11.510600 18.610200
11.523900 19.743900
11.537100 20.634300
11.550400 21.245900
11.563600 21.609800
11.576900 21.975700
11.590100 23.201500
11.603400 24.269600
11.616600 24.725000
11.629900 24.153700
11.643100 23.352700
11.656400 22.468900
11.669600 22.029700
11.682900 22.075300
11.696100 22.016500
11.709400 21.853400
11.722600 21.578200
11.735900 20.202300
11.749100 19.038700
11.762400 18.328600
11.775600 17.684900
11.788900 17.046800
11.802100 16.645200
11.815400 15.952800
11.828600 14.752500
11.841900 13.529600
11.855100 13.437700
11.868400 13.393600
11.881600 13.207100
11.894900 12.878300
11.908100 11.804000
11.921400 10.226900
11.934600 8.978000
11.947900 7.508300
11.961100 6.761300
11.974400 5.936200
11.987600 4.918500
12.000900 4.150200
12.014100 4.180800
12.027400 4.211800
12.040600 4.243400
12.053900 4.275400
12.067100 4.308000
12.080400 4.341100
12.093600 5.834600
12.106900 8.026500
12.120100 10.451300
12.133400 10.561700
12.146600 10.580400
12.159900 10.661500
12.173100 11.631700
12.186400 12.488200
12.199600 13.231100
12.212900 13.860400
12.226100 14.376000
12.239400 14.778000
12.252600 14.852900
12.265900 14.325400
12.279100 15.119100
12.292300 16.527900
12.305600 16.853500
12.318800 16.024800
12.332100 14.446000
12.345300 14.429800
12.358600 16.084900
12.371800 16.721400
12.385100 17.031200
12.398300 17.212500
12.411600 17.295600
12.424800 17.280600
12.438100 17.192300
12.451300 17.019300
12.464600 16.757500
12.477800 16.406900
12.491100 15.967500
12.504300 15.560800
12.517600 16.123700
12.530800 16.222100
12.544100 19.286200
12.557300 22.416200
12.570600 25.456100
12.583800 28.081100
12.597100 21.374200
12.610300 15.562700
12.623600 14.775400
12.636800 14.249700
12.650100 13.722900
12.663300 13.652000
12.676600 20.687300
12.689800 24.567700
12.703100 25.086500
12.716300 25.502000
12.729600 25.814200
12.742800 26.023000
12.756100 25.507800
12.769300 25.157500
12.782600 25.054200
12.795800 23.817800
12.809100 22.331300
12.822300 20.754200
12.835600 25.811000
12.848800 17.825900
12.862100 18.309700
12.875300 17.644000
12.888600 15.698000
12.901800 15.489000
12.915100 15.238000
12.928300 14.945000
12.941600 14.610100
12.954800 14.233100
12.968100 13.854600
12.981300 13.512500
12.994600 13.172900
13.007800 12.840000
13.021100 11.133000
13.034300 9.748900
13.047600 10.190000
13.060800 10.499400
13.074100 12.750200
13.087300 12.482900
13.100600 12.551100
13.113800 12.600400
13.127100 12.471200
13.140300 12.163600
13.153600 11.677500
13.166800 11.012900
13.180000 10.300400
13.193300 9.867700
13.206500 9.267000
13.219800 8.533100
13.233000 20.660200
13.246300 18.215100
13.259500 16.866200
13.272800 15.845000
13.286000 14.742300
13.299300 16.970100
13.312500 18.436300
13.325800 19.425800
13.339000 20.147500
13.352300 20.332200
13.365500 19.854000
13.378800 19.321800
13.392000 18.400400
13.405300 17.089900
13.418500 16.749900
13.431800 22.323700
13.445000 24.382600
13.458300 24.969700
13.471500 43.787100
13.484800 31.847000
13.498000 28.232600
13.511300 27.129900
13.524500 25.721400
13.537800 24.279000
13.551000 22.627300
13.564300 21.281300
13.577500 19.847500
13.590800 19.482800
13.604000 19.997900
13.617300 21.909200
13.630500 24.049800
13.643800 25.433900
13.657000 24.611300
13.670300 21.150500
13.683500 16.883400
13.696800 18.197700
13.710000 21.041000
13.723300 20.907800
13.736500 20.229800
13.749800 19.006900
13.763000 17.555300
13.776300 20.313000
13.789500 22.116300
13.802800 36.131900
13.816000 30.998800
13.829300 22.334700
13.842500 16.510100
13.855800 13.734100
13.869000 13.646900
13.882300 14.541400
13.895500 14.896900
13.908800 14.934900
13.922000 15.192400
13.935300 15.283400
13.948500 15.208100
13.961800 14.966300
13.975000 14.602900
13.988300 14.128400
14.001500 14.239500
14.014800 16.051200
14.028000 21.746300
14.041200 27.510600
14.054500 29.251400
14.067700 29.720800
14.081000 28.056300
14.094200 24.592000
14.107500 19.893800
14.120700 20.199800
14.134000 19.998000
14.147200 17.797300
14.160500 14.973800
14.173700 17.921300
14.187000 21.723300
14.200200 19.805600
14.213500 17.396100
14.226700 15.529800
14.240000 19.349200
14.253200 40.302400
14.266500 36.434900
14.279700 32.969300
14.293000 28.532700
14.306200 25.238800
14.319500 21.497800
14.332700 20.185700
14.346000 20.422100
14.359200 18.304300
14.372500 14.781800
14.385700 12.274400
14.399000 37.941500
14.412200 35.008500
14.425500 35.516500
14.438700 32.555100
14.452000 23.896200
14.465200 14.194300
14.478500 10.088000
14.491700 16.540800
14.505000 27.657800
14.518200 40.983300
14.531500 46.107900
14.544700 33.219700
14.558000 17.022000
14.571200 18.534200
14.584500 19.780200
14.597700 20.760100
14.611000 21.474000
14.624200 26.161100
14.637500 35.439200
14.650700 39.544900
14.664000 31.314100
14.677200 31.481100
14.690500 12.889100
14.703700 20.509000
14.717000 18.542600
14.730200 15.606700
14.743500 13.109000
14.756700 14.904800
14.770000 16.870500
14.783200 19.006100
14.796500 21.311700
14.809700 23.787200
14.823000 27.563900
14.836200 14.975800
14.849500 12.944100
14.862700 12.121300
14.876000 10.716700
14.889200 27.131700
14.902400 35.410900
14.915700 34.327200
14.928900 25.376800
14.942200 21.888300
14.955400 20.229600
14.968700 24.731500
14.981900 30.746200
14.995200 34.658600
15.008400 32.698200
15.021700 39.015600
15.034900 37.821300
15.048200 41.048200
15.061400 39.057300
15.074700 30.559800
15.087900 25.206900
15.101200 22.547000
15.114400 20.753800
15.127700 18.318600
15.140900 22.784800
15.154200 27.055600
15.167400 26.591100
15.180700 24.618400
15.193900 22.873700
15.207200 24.859700
15.220400 31.453200
15.233700 41.953200
15.246900 41.482100
15.260200 25.862500
15.273400 11.549900
15.286700 10.896700
15.299900 10.031800
15.313200 8.905700
15.326400 7.518400
15.339700 5.869700
15.352900 3.959900
15.366200 2.241200
15.379400 1.819000
15.392700 1.440900
15.405900 1.106700
15.419200 0.816600
15.432400 0.570400
15.445700 0.368400
15.458900 0.210300
15.472200 0.096200
15.485400 0.026200
15.498700 0.000200
15.511900 0.000000
15.525200 0.000000
15.538400 0.000000
15.551700 0.000000
15.564900 0.000000
15.578200 0.000000
15.591400 0.000000
15.604700 0.000000
15.617900 0.000000
15.631200 0.000000
15.644400 0.000000
15.657700 0.000000
15.670900 0.000000
15.684200 0.000000
15.697400 0.000000
15.710700 0.000000
15.723900 0.000000
15.737200 0.000000
15.750400 0.000000
15.763600 0.000000
15.776900 0.000000
15.790100 0.000000
15.803400 0.000000
15.816600 0.000000
15.829900 0.000000
15.843100 0.000000
15.856400 0.000000
15.869600 0.000000
15.882900 0.000000
15.896100 0.000000
15.909400 0.000000
15.922600 0.000000
15.935900 0.000000
15.949100 0.000000
15.962400 0.000000
15.975600 0.000000
15.988900 0.000000
16.002100 0.000000
16.015400 0.000000
16.028600 0.000000
16.041900 0.000000
16.055100 0.000000
16.068400 0.000000
16.081600 0.000000
16.094900 0.000000
16.108100 0.000000
16.121400 0.000000
16.134600 0.000000
16.147900 0.000000
16.161100 0.000000
16.174400 0.000000
16.187600 0.000000
16.200900 0.000000
16.214100 0.000000
16.227400 0.000000
16.240600 0.000000
16.253900 0.000000
16.267100 0.000000
16.280400 0.000000
16.293600 0.000000
16.306900 0.000000
16.320100 0.000000
16.333400 0.000000
16.346600 0.000000
16.359900 0.000000
16.373100 0.000000
16.386400 0.000000
16.399600 0.000000
16.412900 0.000000
16.426100 0.000000
16.439400 0.000000
16.452600 0.000000
16.465900 0.000000
16.479100 0.000000
16.492400 0.000000
16.505600 0.000000
16.518900 0.000000
16.532100 0.000000
16.545400 0.000000
16.558600 0.000000
16.571900 0.000000
16.585100 0.000000
16.598400 0.000000
16.611600 0.000000
16.624800 0.000000
16.638100 0.000000
16.651300 0.000000
16.664600 0.000000
16.677800 0.000000
16.691100 0.000000
16.704300 0.000000
e
