set title 'mp-568746 - Density of States'
set xlabel 'Energy (eV)'
set ylabel 'DOS (states/eV)'
set grid
set xrange [-10:10]
set yrange [0:20.687]
set xzeroaxis lt -1
set terminal png size 800,600
set output 'mp-568746_dos_gnuplot.png'
plot '-' using 1:2 with lines title 'DOS'
-8.078600 0.000000
-8.063500 0.000000
-8.048300 0.000000
-8.033200 0.000000
-8.018100 0.000000
-8.003000 0.000000
-7.987800 0.000000
-7.972700 0.000000
-7.957600 0.000000
-7.942500 0.000000
-7.927300 0.000000
-7.912200 0.000000
-7.897100 0.000000
-7.882000 0.000000
-7.866800 0.000000
-7.851700 0.000000
-7.836600 0.000000
-7.821500 0.000000
-7.806400 0.000000
-7.791200 0.000000
-7.776100 0.000000
-7.761000 0.000000
-7.745900 0.000000
-7.730700 0.000000
-7.715600 0.000000
-7.700500 0.000000
-7.685400 0.000000
-7.670200 0.000000
-7.655100 0.000000
-7.640000 0.000000
-7.624900 0.000000
-7.609700 0.000000
-7.594600 0.000000
-7.579500 0.000000
-7.564400 0.000000
-7.549200 0.000000
-7.534100 0.000000
-7.519000 0.000000
-7.503900 0.000000
-7.488800 0.000000
-7.473600 0.000000
-7.458500 0.000000
-7.443400 0.000000
-7.428300 0.000000
-7.413100 0.000000
-7.398000 0.000000
-7.382900 0.000000
-7.367800 0.000000
-7.352600 0.000000
-7.337500 0.000000
-7.322400 0.000000
-7.307300 0.000000
-7.292100 0.000000
-7.277000 0.000000
-7.261900 0.000000
-7.246800 0.000000
-7.231600 0.000000
-7.216500 0.000000
-7.201400 0.000000
-7.186300 0.000000
-7.171200 0.000000
-7.156000 0.000000
-7.140900 0.000000
-7.125800 0.000000
-7.110700 0.000000
-7.095500 0.000000
-7.080400 0.000000
-7.065300 0.000000
-7.050200 0.000000
-7.035000 0.000000
-7.019900 0.000000
-7.004800 0.000000
-6.989700 0.000000
-6.974500 0.000000
-6.959400 0.000000
-6.944300 0.000000
-6.929200 0.000000
-6.914000 0.000000
-6.898900 0.000000
-6.883800 0.000000
-6.868700 0.000000
-6.853600 0.000000
-6.838400 0.000000
-6.823300 0.000000
-6.808200 0.000000
-6.793100 0.000000
-6.777900 0.000000
-6.762800 0.000000
-6.747700 0.000000
-6.732600 0.000000
-6.717400 0.000000
-6.702300 0.016800
-6.687200 0.104000
-6.672100 0.155800
-6.656900 0.211900
-6.641800 0.272100
-6.626700 0.336600
-6.611600 0.402600
-6.596400 0.449400
-6.581300 0.475400
-6.566200 0.488900
-6.551100 0.501600
-6.536000 0.520600
-6.520800 0.541900
-6.505700 0.566400
-6.490600 0.594100
-6.475500 0.622500
-6.460300 0.651000
-6.445200 0.678200
-6.430100 0.703700
-6.415000 0.727000
-6.399800 0.744500
-6.384700 0.762500
-6.369600 0.782800
-6.354500 0.804800
-6.339300 0.828700
-6.324200 0.852800
-6.309100 0.877100
-6.294000 0.900000
-6.278800 0.916700
-6.263700 0.936400
-6.248600 0.955600
-6.233500 0.975400
-6.218400 0.994500
-6.203200 1.012900
-6.188100 1.031400
-6.173000 1.050200
-6.157900 1.068100
-6.142700 1.085700
-6.127600 1.103000
-6.112500 1.121300
-6.097400 1.143700
-6.082200 1.168800
-6.067100 1.196800
-6.052000 1.228000
-6.036900 1.253000
-6.021700 1.274400
-6.006600 1.294800
-5.991500 1.314200
-5.976400 1.332700
-5.961200 1.351900
-5.946100 1.372200
-5.931000 1.393600
-5.915900 1.418500
-5.900800 1.449300
-5.885600 1.475100
-5.870500 1.483800
-5.855400 1.480100
-5.840300 1.525500
-5.825100 1.559800
-5.810000 1.559900
-5.794900 1.569400
-5.779800 1.582300
-5.764600 1.659200
-5.749500 1.744000
-5.734400 1.729400
-5.719300 1.721100
-5.704100 1.718300
-5.689000 1.734500
-5.673900 1.765800
-5.658800 1.808700
-5.643700 1.846600
-5.628500 1.876900
-5.613400 1.900500
-5.598300 1.922500
-5.583200 1.944900
-5.568000 1.990800
-5.552900 2.044800
-5.537800 2.075600
-5.522700 2.108500
-5.507500 2.146600
-5.492400 2.157300
-5.477300 2.176100
-5.462200 2.200700
-5.447000 2.245000
-5.431900 2.339300
-5.416800 2.466800
-5.401700 2.652300
-5.386500 2.604800
-5.371400 2.581200
-5.356300 2.634400
-5.341200 2.698100
-5.326100 2.771400
-5.310900 2.869600
-5.295800 2.649000
-5.280700 2.545500
-5.265600 2.401600
-5.250400 2.346200
-5.235300 2.341500
-5.220200 2.337500
-5.205100 2.327800
-5.189900 2.302400
-5.174800 2.276800
-5.159700 2.252500
-5.144600 2.238200
-5.129400 2.245700
-5.114300 2.258300
-5.099200 2.273000
-5.084100 2.283300
-5.068900 2.294800
-5.053800 2.309500
-5.038700 2.327900
-5.023600 2.349800
-5.008500 2.377200
-4.993300 2.409200
-4.978200 2.438100
-4.963100 2.478300
-4.948000 2.537600
-4.932800 2.602700
-4.917700 2.684200
-4.902600 2.886800
-4.887500 3.158700
-4.872300 3.305100
-4.857200 3.576800
-4.842100 3.575600
-4.827000 3.539900
-4.811800 3.732500
-4.796700 4.005500
-4.781600 4.376000
-4.766500 4.700000
-4.751300 4.700400
-4.736200 4.521100
-4.721100 5.048300
-4.706000 3.726100
-4.690900 3.130600
-4.675700 2.989800
-4.660600 3.033200
-4.645500 3.057100
-4.630400 3.145600
-4.615200 3.352000
-4.600100 3.644600
-4.585000 4.084500
-4.569900 5.335600
-4.554700 6.109700
-4.539600 6.538700
-4.524500 6.479100
-4.509400 5.707200
-4.494200 5.207500
-4.479100 4.821600
-4.464000 4.523800
-4.448900 4.403200
-4.433700 4.345000
-4.418600 4.590300
-4.403500 4.643500
-4.388400 4.636400
-4.373300 4.691300
-4.358100 4.837500
-4.343000 4.830900
-4.327900 4.788300
-4.312800 4.891900
-4.297600 5.281200
-4.282500 5.575200
-4.267400 5.215500
-4.252300 4.600700
-4.237100 4.569200
-4.222000 4.597900
-4.206900 4.601200
-4.191800 4.480400
-4.176600 4.262400
-4.161500 4.180600
-4.146400 4.329600
-4.131300 3.992700
-4.116100 3.896300
-4.101000 3.891200
-4.085900 3.955000
-4.070800 3.504500
-4.055700 3.346300
-4.040500 3.466400
-4.025400 3.539100
-4.010300 3.585400
-3.995200 3.686500
-3.980000 3.919800
-3.964900 4.140300
-3.949800 4.363300
-3.934700 4.557000
-3.919500 4.792200
-3.904400 4.725200
-3.889300 4.876000
-3.874200 4.894800
-3.859000 4.874800
-3.843900 4.824500
-3.828800 4.667800
-3.813700 4.313600
-3.798500 3.732600
-3.783400 2.596100
-3.768300 2.332200
-3.753200 2.120800
-3.738100 1.911500
-3.722900 1.705900
-3.707800 1.509600
-3.692700 1.439100
-3.677600 1.416800
-3.662400 1.347400
-3.647300 1.280500
-3.632200 1.085600
-3.617100 0.843200
-3.601900 0.503300
-3.586800 0.196900
-3.571700 0.036200
-3.556600 0.000000
-3.541400 0.000000
-3.526300 0.000000
-3.511200 0.000000
-3.496100 0.000000
-3.480900 0.000000
-3.465800 0.000000
-3.450700 0.000000
-3.435600 0.000000
-3.420500 0.000000
-3.405300 0.000000
-3.390200 0.000000
-3.375100 0.000000
-3.360000 0.000000
-3.344800 0.000000
-3.329700 0.000000
-3.314600 0.000000
-3.299500 0.000000
-3.284300 0.000000
-3.269200 0.000000
-3.254100 0.000000
-3.239000 0.000000
-3.223800 0.000000
-3.208700 0.000000
-3.193600 0.000000
-3.178500 0.000000
-3.163300 0.000000
-3.148200 0.000000
-3.133100 0.000000
-3.118000 0.000000
-3.102900 0.000000
-3.087700 0.000000
-3.072600 0.000000
-3.057500 0.000000
-3.042400 0.000000
-3.027200 0.000000
-3.012100 0.000000
-2.997000 0.000000
-2.981900 0.000000
-2.966700 0.000000
-2.951600 0.000000
-2.936500 0.000000
-2.921400 0.000000
-2.906200 0.000000
-2.891100 0.000000
-2.876000 0.000000
-2.860900 0.000000
-2.845700 0.000000
-2.830600 0.000000
-2.815500 0.000000
-2.800400 0.000000
-2.785300 0.000000
-2.770100 0.000000
-2.755000 0.000000
-2.739900 0.000000
-2.724800 0.000000
-2.709600 0.000000
-2.694500 0.000000
-2.679400 0.000000
-2.664300 0.000000
-2.649100 0.000000
-2.634000 0.000000
-2.618900 0.000000
-2.603800 0.000000
-2.588600 0.000000
-2.573500 0.000000
-2.558400 0.000000
-2.543300 0.000000
-2.528100 0.000000
-2.513000 0.000000
-2.497900 0.000000
-2.482800 0.000000
-2.467700 0.000000
-2.452500 0.000000
-2.437400 0.000000
-2.422300 0.000000
-2.407200 0.000000
-2.392000 0.000000
-2.376900 0.000000
-2.361800 0.000000
-2.346700 0.000000
-2.331500 0.000000
-2.316400 0.000000
-2.301300 0.000000
-2.286200 0.000000
-2.271000 0.000000
-2.255900 0.000000
-2.240800 0.000000
-2.225700 0.000000
-2.210500 0.000000
-2.195400 0.000000
-2.180300 0.000000
-2.165200 0.000000
-2.150100 0.000000
-2.134900 0.000000
-2.119800 0.000000
-2.104700 0.000000
-2.089600 0.000000
-2.074400 0.000000
-2.059300 0.000000
-2.044200 0.000000
-2.029100 0.000000
-2.013900 0.000000
-1.998800 0.000000
-1.983700 0.000000
-1.968600 0.000000
-1.953400 0.000000
-1.938300 0.000000
-1.923200 0.000000
-1.908100 0.000000
-1.892900 0.000000
-1.877800 0.000000
-1.862700 0.000000
-1.847600 0.000000
-1.832500 0.000000
-1.817300 0.000000
-1.802200 0.000000
-1.787100 0.000000
-1.772000 0.000000
-1.756800 0.000000
-1.741700 0.000000
-1.726600 0.000000
-1.711500 0.000000
-1.696300 0.000000
-1.681200 0.000000
-1.666100 0.000000
-1.651000 0.000000
-1.635800 0.000000
-1.620700 0.000000
-1.605600 0.000000
-1.590500 0.000000
-1.575300 0.000000
-1.560200 0.000000
-1.545100 0.000000
-1.530000 0.000000
-1.514900 0.000000
-1.499700 0.000000
-1.484600 0.000000
-1.469500 0.000000
-1.454400 0.000000
-1.439200 0.000000
-1.424100 0.000000
-1.409000 0.000000
-1.393900 0.000000
-1.378700 0.000000
-1.363600 0.000000
-1.348500 0.000000
-1.333400 0.000000
-1.318200 0.000000
-1.303100 0.000000
-1.288000 0.000000
-1.272900 0.000000
-1.257800 0.000000
-1.242600 0.000000
-1.227500 0.000000
-1.212400 0.000000
-1.197300 0.000000
-1.182100 0.000000
-1.167000 0.000000
-1.151900 0.000000
-1.136800 0.000000
-1.121600 0.000000
-1.106500 0.000000
-1.091400 0.000000
-1.076300 0.000000
-1.061100 0.000000
-1.046000 0.000000
-1.030900 0.000000
-1.015800 0.000000
-1.000600 0.000000
-0.985500 0.000000
-0.970400 0.000000
-0.955300 0.000000
-0.940200 0.000000
-0.925000 0.000000
-0.909900 0.000000
-0.894800 0.000000
-0.879700 0.000000
-0.864500 0.000000
-0.849400 0.000000
-0.834300 0.000000
-0.819200 0.000000
-0.804000 0.000000
-0.788900 0.000000
-0.773800 0.000000
-0.758700 0.000000
-0.743500 0.000000
-0.728400 0.000000
-0.713300 0.000000
-0.698200 0.000000
-0.683000 0.000000
-0.667900 0.000000
-0.652800 0.000000
-0.637700 0.000000
-0.622600 0.000000
-0.607400 0.000000
-0.592300 0.000000
-0.577200 0.000000
-0.562100 0.000000
-0.546900 0.000000
-0.531800 0.000000
-0.516700 0.000000
-0.501600 0.000000
-0.486400 0.000000
-0.471300 0.000000
-0.456200 0.000000
-0.441100 0.000000
-0.425900 0.000000
-0.410800 0.000000
-0.395700 0.000000
-0.380600 0.000000
-0.365400 0.000000
-0.350300 0.000000
-0.335200 0.000000
-0.320100 0.000000
-0.305000 0.000000
-0.289800 0.000000
-0.274700 0.000000
-0.259600 0.000000
-0.244500 0.000000
-0.229300 0.000000
-0.214200 0.000000
-0.199100 0.000000
-0.184000 0.000000
-0.168800 0.000000
-0.153700 0.000000
-0.138600 0.000000
-0.123500 0.000000
-0.108300 0.000000
-0.093200 0.000000
-0.078100 0.000000
-0.063000 0.000000
-0.047800 0.000000
-0.032700 0.000000
-0.017600 0.000000
-0.002500 0.000000
0.012600 0.000000
0.027800 0.000000
0.042900 0.000000
0.058000 0.000000
0.073100 0.000000
0.088300 0.000000
0.103400 0.000000
0.118500 0.000000
0.133600 0.000000
0.148800 0.000000
0.163900 0.000000
0.179000 0.000000
0.194100 0.000000
0.209300 0.000000
0.224400 0.000000
0.239500 0.000000
0.254600 0.000000
0.269800 0.000000
0.284900 0.000000
0.300000 0.000000
0.315100 0.000000
0.330200 0.000000
0.345400 0.000000
0.360500 0.000000
0.375600 0.000000
0.390700 0.000000
0.405900 0.000000
0.421000 0.000000
0.436100 0.000000
0.451200 0.000000
0.466400 0.000000
0.481500 0.000000
0.496600 0.000000
0.511700 0.000000
0.526900 0.000000
0.542000 0.000000
0.557100 0.000000
0.572200 0.000000
0.587400 0.000000
0.602500 0.000000
0.617600 0.000000
0.632700 0.000000
0.647800 0.000000
0.663000 0.000000
0.678100 0.000000
0.693200 0.016500
0.708300 0.089500
0.723500 0.192300
0.738600 0.380900
0.753700 0.605100
0.768800 0.869800
0.784000 0.994800
0.799100 1.110500
0.814200 1.211800
0.829300 1.247500
0.844500 1.274100
0.859600 1.293500
0.874700 1.318600
0.889800 1.323200
0.905000 1.343200
0.920100 1.378900
0.935200 1.431000
0.950300 1.496300
0.965400 1.565100
0.980600 1.639300
0.995700 1.728000
1.010800 1.832100
1.025900 1.946200
1.041100 2.058900
1.056200 2.167400
1.071300 2.271800
1.086400 2.349900
1.101600 2.429400
1.116700 2.521200
1.131800 2.667500
1.146900 2.842400
1.162100 3.064600
1.177200 3.408600
1.192300 3.376700
1.207400 3.264800
1.222600 3.155300
1.237700 3.081900
1.252800 3.066500
1.267900 3.061700
1.283000 3.065400
1.298200 3.208400
1.313300 3.525300
1.328400 4.281800
1.343500 4.993000
1.358700 5.295600
1.373800 5.187000
1.388900 5.199500
1.404000 5.281400
1.419200 5.457000
1.434300 5.642400
1.449400 5.800600
1.464500 6.026500
1.479700 6.229800
1.494800 6.430700
1.509900 6.416900
1.525000 6.430000
1.540200 6.545200
1.555300 6.711500
1.570400 8.620100
1.585500 7.141300
1.600600 6.491000
1.615800 5.864700
1.630900 5.513800
1.646000 5.342100
1.661100 5.070500
1.676300 4.964800
1.691400 4.906900
1.706500 5.025900
1.721600 5.338200
1.736800 5.330100
1.751900 5.165100
1.767000 5.046600
1.782100 4.965500
1.797300 5.442800
1.812400 5.553900
1.827500 5.606400
1.842600 5.458600
1.857800 5.157800
1.872900 5.432100
1.888000 5.725700
1.903100 5.793200
1.918200 5.826800
1.933400 5.922000
1.948500 5.947100
1.963600 5.891900
1.978700 5.816600
1.993900 5.787500
2.009000 5.512400
2.024100 5.308100
2.039200 5.480500
2.054400 5.884000
2.069500 6.142300
2.084600 6.425700
2.099700 6.982000
2.114900 7.777900
2.130000 8.484400
2.145100 9.017100
2.160200 8.414100
2.175400 8.359300
2.190500 7.821800
2.205600 7.473700
2.220700 6.377000
2.235800 5.828300
2.251000 6.309800
2.266100 6.679900
2.281200 6.582400
2.296300 7.604000
2.311500 9.302200
2.326600 9.278300
2.341700 9.292300
2.356800 9.367200
2.372000 9.601400
2.387100 9.335200
2.402200 9.377800
2.417300 10.349400
2.432500 12.056200
2.447600 13.041300
2.462700 15.408600
2.477800 18.806500
2.493000 11.736000
2.508100 11.682200
2.523200 13.299900
2.538300 12.622700
2.553400 10.574200
2.568600 9.414700
2.583700 7.814000
2.598800 6.877000
2.613900 6.759900
2.629100 7.482700
2.644200 7.938400
2.659300 8.270100
2.674400 8.944700
2.689600 9.537300
2.704700 8.849700
2.719800 7.884500
2.734900 7.699100
2.750100 4.467200
2.765200 3.149700
2.780300 2.014600
2.795400 1.627600
2.810600 2.455300
2.825700 3.541600
2.840800 7.704200
2.855900 8.005200
2.871000 8.531300
2.886200 9.281300
2.901300 11.424800
2.916400 10.933900
2.931500 9.872900
2.946700 9.206100
2.961800 9.403700
2.976900 9.776600
2.992000 9.946300
3.007200 12.629500
3.022300 12.661400
3.037400 12.213100
3.052500 12.455400
3.067700 12.378000
3.082800 11.138300
3.097900 10.384500
3.113000 10.180300
3.128200 9.876500
3.143300 7.525900
3.158400 6.804700
3.173500 6.865800
3.188600 7.499200
3.203800 7.466000
3.218900 7.284000
3.234000 7.049300
3.249100 6.969800
3.264300 7.062900
3.279400 7.258300
3.294500 7.297300
3.309600 7.854700
3.324800 8.394400
3.339900 9.005100
3.355000 9.753300
3.370100 11.184700
3.385300 13.179300
3.400400 12.323000
3.415500 11.198000
3.430600 11.139500
3.445700 12.640200
3.460900 13.064200
3.476000 10.954000
3.491100 10.489400
3.506200 9.486900
3.521400 8.514100
3.536500 6.839200
3.551600 7.477600
3.566700 8.605300
3.581900 9.936600
3.597000 10.187700
3.612100 9.844500
3.627200 9.532000
3.642400 9.513300
3.657500 9.707500
3.672600 9.732700
3.687700 9.968600
3.702900 10.669000
3.718000 12.072500
3.733100 11.093400
3.748200 10.396700
3.763300 9.724100
3.778500 9.871100
3.793600 10.645500
3.808700 10.067700
3.823800 10.516400
3.839000 9.802700
3.854100 9.317200
3.869200 9.051700
3.884300 9.192000
3.899500 9.120700
3.914600 8.910900
3.929700 8.063800
3.944800 7.803200
3.960000 7.681000
3.975100 7.889600
3.990200 8.688100
4.005300 10.045100
4.020500 11.759900
4.035600 12.953300
4.050700 9.704300
4.065800 8.340000
4.080900 7.806800
4.096100 7.284500
4.111200 6.535700
4.126300 5.988000
4.141400 5.564700
4.156600 5.313000
4.171700 5.387700
4.186800 5.544700
4.201900 5.779100
4.217100 5.885900
4.232200 5.785000
4.247300 5.690800
4.262400 5.556900
4.277600 5.369500
4.292700 5.210600
4.307800 5.004100
4.322900 4.794400
4.338100 4.638100
4.353200 4.265400
4.368300 3.971300
4.383400 3.863500
4.398500 3.892900
4.413700 3.991400
4.428800 4.022500
4.443900 3.997400
4.459000 4.031900
4.474200 4.086000
4.489300 4.157400
4.504400 4.269500
4.519500 4.117900
4.534700 3.991000
4.549800 4.035200
4.564900 4.068300
4.580000 4.185100
4.595200 4.250000
4.610300 4.161600
4.625400 3.964400
4.640500 3.955800
4.655700 3.998100
4.670800 4.137400
4.685900 4.349000
4.701000 4.717500
4.716100 4.982900
4.731300 5.243800
4.746400 5.021900
4.761500 5.008600
4.776600 4.895700
4.791800 4.703100
4.806900 4.568300
4.822000 4.420200
4.837100 4.241200
4.852300 4.043400
4.867400 3.929100
4.882500 3.881300
4.897600 3.864000
4.912800 3.879500
4.927900 3.940400
4.943000 4.102400
4.958100 4.226700
4.973300 4.137100
4.988400 4.043500
5.003500 3.968400
5.018600 3.908700
5.033700 4.124500
5.048900 4.083900
5.064000 4.015900
5.079100 3.859200
5.094200 3.746900
5.109400 3.636100
5.124500 3.533400
5.139600 3.454300
5.154700 3.399000
5.169900 3.358000
5.185000 3.247900
5.200100 3.217800
5.215200 3.247200
5.230400 3.297600
5.245500 3.383800
5.260600 3.435400
5.275700 3.476800
5.290900 3.509500
5.306000 3.554900
5.321100 3.605300
5.336200 3.651800
5.351300 3.681700
5.366500 3.706000
5.381600 3.740000
5.396700 3.803600
5.411800 3.915500
5.427000 4.026100
5.442100 4.008100
5.457200 3.926700
5.472300 3.890500
5.487500 3.839600
5.502600 3.795100
5.517700 3.747000
5.532800 3.711400
5.548000 3.656900
5.563100 3.568100
5.578200 3.531000
5.593300 3.511700
5.608500 3.473600
5.623600 3.424600
5.638700 3.389300
5.653800 3.340300
5.668900 3.280900
5.684100 3.222900
5.699200 3.167100
5.714300 3.117200
5.729400 3.075100
5.744600 3.060000
5.759700 3.107900
5.774800 3.165000
5.789900 3.274100
5.805100 3.256000
5.820200 3.189200
5.835300 3.056100
5.850400 3.026400
5.865600 2.985500
5.880700 2.916200
5.895800 2.837100
5.910900 2.760400
5.926100 2.689200
5.941200 2.620400
5.956300 2.554500
5.971400 2.494100
5.986500 2.439600
6.001700 2.387500
6.016800 2.339200
6.031900 2.302800
6.047000 2.271600
6.062200 2.236300
6.077300 2.206500
6.092400 2.180000
6.107500 2.154800
6.122700 2.130400
6.137800 2.114700
6.152900 2.138000
6.168000 2.158100
6.183200 2.193800
6.198300 2.243000
6.213400 2.296200
6.228500 2.353400
6.243700 2.415600
6.258800 2.415700
6.273900 2.469100
6.289000 2.551800
6.304100 2.580300
6.319300 2.595500
6.334400 2.599300
6.349500 2.601100
6.364600 2.601100
6.379800 2.619200
6.394900 2.713000
6.410000 2.797300
6.425100 2.855300
6.440300 2.863500
6.455400 2.835700
6.470500 2.816600
6.485600 2.805700
6.500800 2.799800
6.515900 2.796400
6.531000 2.774700
6.546100 2.751600
6.561300 2.742000
6.576400 2.744800
6.591500 2.758700
6.606600 2.783800
6.621700 2.807000
6.636900 2.891600
6.652000 3.302700
6.667100 3.296300
6.682200 3.405600
6.697400 3.400700
6.712500 3.433400
6.727600 3.315000
6.742700 3.383700
6.757900 3.393400
6.773000 3.386400
6.788100 3.372300
6.803200 3.350800
6.818400 3.324500
6.833500 3.294400
6.848600 3.217500
6.863700 3.113800
6.878900 3.033200
6.894000 2.954500
6.909100 2.943900
6.924200 2.959600
6.939300 3.100700
6.954500 3.045700
6.969600 2.979100
6.984700 2.850300
6.999800 2.648600
7.015000 2.527500
7.030100 2.463400
7.045200 2.436400
7.060300 2.449400
7.075500 2.488200
7.090600 2.526700
7.105700 2.538200
7.120800 2.572100
7.136000 2.586800
7.151100 2.629200
7.166200 2.659500
7.181300 2.669000
7.196500 2.681900
7.211600 2.708100
7.226700 2.743600
7.241800 2.792400
7.256900 2.844400
7.272100 2.993300
7.287200 3.113900
7.302300 3.054300
7.317400 3.049100
7.332600 3.136300
7.347700 3.202700
7.362800 3.279500
7.377900 3.372200
7.393100 3.419600
7.408200 3.422500
7.423300 3.398800
7.438400 3.367400
7.453600 3.334700
7.468700 3.310800
7.483800 3.475200
7.498900 3.401100
7.514100 3.371300
7.529200 3.338500
7.544300 3.346500
7.559400 3.381100
7.574500 3.328100
7.589700 3.228400
7.604800 3.249100
7.619900 3.333100
7.635000 3.395000
7.650200 3.478400
7.665300 3.662100
7.680400 3.446000
7.695500 3.450500
7.710700 3.518500
7.725800 3.512000
7.740900 3.460400
7.756000 3.405900
7.771200 3.355200
7.786300 3.330100
7.801400 3.309300
7.816500 3.316000
7.831700 3.396600
7.846800 3.542800
7.861900 3.827100
7.877000 4.117400
7.892100 3.984400
7.907300 3.970100
7.922400 3.851000
7.937500 3.817300
7.952600 3.796800
7.967800 3.755800
7.982900 3.739700
7.998000 3.799900
8.013100 3.870000
8.028300 3.924700
8.043400 3.898600
8.058500 3.836400
8.073600 3.777100
8.088800 3.720200
8.103900 3.655300
8.119000 3.600100
8.134100 3.525600
8.149200 3.437500
8.164400 3.368800
8.179500 3.310200
8.194600 3.264900
8.209700 3.225700
8.224900 3.198300
8.240000 3.173000
8.255100 3.146700
8.270200 3.136000
8.285400 3.114000
8.300500 3.089200
8.315600 3.070500
8.330700 3.079600
8.345900 3.101600
8.361000 3.137800
8.376100 3.200300
8.391200 3.281500
8.406400 3.367400
8.421500 3.463800
8.436600 3.615600
8.451700 3.758600
8.466800 3.827000
8.482000 3.916900
8.497100 4.024200
8.512200 4.053100
8.527300 4.175100
8.542500 4.258800
8.557600 4.127900
8.572700 3.774900
8.587800 3.645300
8.603000 3.479700
8.618100 3.318200
8.633200 3.168600
8.648300 3.097900
8.663500 3.134600
8.678600 3.215100
8.693700 3.263200
8.708800 3.206900
8.724000 3.074000
8.739100 3.049200
8.754200 3.066700
8.769300 3.112800
8.784400 3.162000
8.799600 3.202900
8.814700 3.243400
8.829800 3.316400
8.844900 3.278000
8.860100 3.247200
8.875200 3.236500
8.890300 3.242900
8.905400 3.270200
8.920600 3.326900
8.935700 3.543200
8.950800 3.356000
8.965900 3.369900
8.981100 3.319200
8.996200 3.429600
9.011300 3.633000
9.026400 3.754300
9.041600 4.118100
9.056700 4.363000
9.071800 4.939100
9.086900 5.149200
9.102000 5.305800
9.117200 5.238900
9.132300 5.086100
9.147400 4.942500
9.162500 4.765800
9.177700 4.644400
9.192800 4.563100
9.207900 4.722600
9.223000 5.209900
9.238200 4.223200
9.253300 4.114100
9.268400 4.144700
9.283500 4.179900
9.298700 4.163400
9.313800 4.123100
9.328900 4.080400
9.344000 4.078200
9.359200 4.133700
9.374300 4.240200
9.389400 4.234900
9.404500 4.152500
9.419600 4.095500
9.434800 4.047100
9.449900 4.019600
9.465000 4.227900
9.480100 3.988400
9.495300 3.516200
9.510400 3.107800
9.525500 2.772000
9.540600 2.587200
9.555800 2.558600
9.570900 2.577500
9.586000 2.581300
9.601100 2.553300
9.616300 2.542100
9.631400 2.535500
9.646500 2.510600
9.661600 2.482900
9.676800 2.447000
9.691900 2.258700
9.707000 2.161400
9.722100 2.084300
9.737200 1.997900
9.752400 1.873700
9.767500 1.727700
9.782600 1.575200
9.797700 1.424600
9.812900 1.232100
9.828000 1.040500
9.843100 0.914700
9.858200 0.856700
9.873400 0.827000
9.888500 0.797900
9.903600 0.765900
9.918700 0.738300
9.933900 0.686200
9.949000 0.653100
9.964100 0.659100
9.979200 0.713700
9.994400 0.776100
10.009500 0.851400
10.024600 1.006900
10.039700 1.110200
10.054800 1.229000
10.070000 1.372000
10.085100 1.534000
10.100200 1.705400
10.115300 1.837600
10.130500 1.949300
10.145600 2.023000
10.160700 1.940300
10.175800 1.938700
10.191000 1.928600
10.206100 1.906400
10.221200 1.854900
10.236300 1.753800
10.251500 1.711700
10.266600 1.685100
10.281700 1.659700
10.296800 1.668800
10.312000 1.690300
10.327100 1.722400
10.342200 1.764600
10.357300 1.954100
10.372400 1.878000
10.387600 1.858800
10.402700 1.857400
10.417800 1.864500
10.432900 1.882600
10.448100 1.925500
10.463200 1.983700
10.478300 2.045500
10.493400 2.111000
10.508600 2.192100
10.523700 2.314300
10.538800 2.450400
10.553900 2.577800
10.569100 2.721900
10.584200 2.837900
10.599300 2.951500
10.614400 3.063200
10.629600 3.156100
10.644700 3.235500
10.659800 3.303400
10.674900 3.428300
10.690000 3.502600
10.705200 3.606500
10.720300 3.662700
10.735400 3.715600
10.750500 3.845200
10.765700 3.899600
10.780800 3.679600
10.795900 3.603300
10.811000 3.536100
10.826200 3.443900
10.841300 3.246500
10.856400 3.222300
10.871500 3.241700
10.886700 3.223800
10.901800 3.197600
10.916900 3.191600
10.932000 3.210500
10.947200 3.232800
10.962300 3.235100
10.977400 3.200300
10.992500 3.165100
11.007600 3.122300
11.022800 3.057200
11.037900 3.043800
11.053000 3.011100
11.068100 2.954600
11.083300 2.881200
11.098400 2.906400
11.113500 2.821400
11.128600 2.744400
11.143800 2.675300
11.158900 2.625300
11.174000 2.586100
11.189100 2.557600
11.204300 2.552600
11.219400 2.530800
11.234500 2.470900
11.249600 2.422400
11.264800 2.416900
11.279900 2.466900
11.295000 2.530100
11.310100 2.589800
11.325200 2.657800
11.340400 2.771300
11.355500 2.892600
11.370600 2.981200
11.385700 3.014500
11.400900 2.998000
11.416000 2.992400
11.431100 2.986500
11.446200 2.991000
11.461400 2.978500
11.476500 2.943600
11.491600 2.914800
11.506700 2.882600
11.521900 2.820700
11.537000 2.790400
11.552100 2.799900
11.567200 2.778500
11.582400 2.681300
11.597500 2.442500
11.612600 2.247100
11.627700 2.142800
11.642800 2.077200
11.658000 1.953000
11.673100 1.837000
11.688200 1.765500
11.703300 1.704500
11.718500 1.659500
11.733600 1.670400
11.748700 1.657800
11.763800 1.646700
11.779000 1.637800
11.794100 1.637800
11.809200 1.645000
11.824300 1.659800
11.839500 1.691700
11.854600 1.740900
11.869700 1.786400
11.884800 1.764800
11.900000 1.795700
11.915100 1.844600
11.930200 1.859800
11.945300 1.877900
11.960400 1.901500
11.975600 1.949800
11.990700 2.107800
12.005800 2.289100
12.020900 2.144300
12.036100 2.139200
12.051200 2.172000
12.066300 2.219300
12.081400 2.273800
12.096600 2.339800
12.111700 2.416800
12.126800 2.493400
12.141900 2.559100
12.157100 2.611700
12.172200 2.642200
12.187300 2.653300
12.202400 2.654700
12.217600 2.691000
12.232700 2.722300
12.247800 2.663500
12.262900 2.595800
12.278000 2.569400
12.293200 2.571300
12.308300 2.586300
12.323400 2.647500
12.338500 2.719300
12.353700 2.810400
12.368800 2.910900
12.383900 2.996400
12.399000 3.055200
12.414200 3.099200
12.429300 3.132500
12.444400 3.237000
12.459500 3.148700
12.474700 3.126500
12.489800 3.139400
12.504900 3.181900
12.520000 3.203100
12.535200 3.211100
12.550300 3.196900
12.565400 3.167600
12.580500 3.132800
12.595600 3.104400
12.610800 3.083900
12.625900 3.074300
12.641000 3.083200
12.656100 3.128900
12.671300 3.189200
12.686400 3.248500
12.701500 3.260500
12.716600 3.247600
12.731800 3.231000
12.746900 3.215500
12.762000 3.240900
12.777100 3.288600
12.792300 3.288600
12.807400 3.277600
12.822500 3.291300
12.837600 3.184800
12.852700 3.087800
12.867900 3.044400
12.883000 3.009900
12.898100 2.998300
12.913200 3.015100
12.928400 3.065800
12.943500 3.156500
12.958600 3.286500
12.973700 3.458100
12.988900 3.613400
13.004000 3.801200
13.019100 3.885400
13.034200 3.875300
13.049400 3.807900
13.064500 3.782300
13.079600 3.740200
13.094700 3.696000
13.109900 3.648400
13.125000 3.600100
13.140100 3.506100
13.155200 3.517300
13.170300 3.555800
13.185500 3.625300
13.200600 3.777500
13.215700 3.928400
13.230800 4.015100
13.246000 4.011000
13.261100 4.014700
13.276200 3.987700
13.291300 3.983200
13.306500 3.975300
13.321600 3.944900
13.336700 3.911300
13.351800 3.854200
13.367000 3.843200
13.382100 3.825000
13.397200 3.795300
13.412300 3.778800
13.427500 3.795500
13.442600 3.824300
13.457700 3.830600
13.472800 3.809900
13.487900 3.784000
13.503100 3.743000
13.518200 3.716800
13.533300 3.687400
13.548400 3.644100
13.563600 3.615500
13.578700 3.582000
13.593800 3.567000
13.608900 3.568900
13.624100 3.570600
13.639200 3.531200
13.654300 3.507100
13.669400 3.649100
13.684600 3.704900
13.699700 3.775000
13.714800 3.801100
13.729900 3.813000
13.745100 3.794500
13.760200 3.763200
13.775300 3.753700
13.790400 3.774100
13.805500 3.828100
13.820700 3.797500
13.835800 3.750000
13.850900 3.817900
13.866000 3.827500
13.881200 3.805400
13.896300 3.827400
13.911400 3.855100
13.926500 3.878700
13.941700 3.911600
13.956800 4.163800
13.971900 3.947300
13.987000 3.978800
14.002200 4.055100
14.017300 4.150900
14.032400 4.250200
14.047500 4.414600
14.062700 4.569500
14.077800 4.722700
14.092900 4.919900
14.108000 4.957800
14.123100 4.974700
14.138300 4.990800
14.153400 5.004200
14.168500 5.035600
14.183600 5.047100
14.198800 5.012600
14.213900 5.005500
14.229000 4.947800
14.244100 4.870800
14.259300 4.840300
14.274400 4.807800
14.289500 4.800400
14.304600 4.803400
14.319800 4.791000
14.334900 4.804900
14.350000 4.781100
14.365100 4.751300
14.380300 4.686100
14.395400 4.637200
14.410500 4.615500
14.425600 4.609900
14.440700 4.613700
14.455900 4.624800
14.471000 4.643000
14.486100 4.688800
14.501200 4.716700
14.516400 4.653100
14.531500 4.628300
14.546600 4.611400
14.561700 4.615200
14.576900 4.693900
14.592000 4.588500
14.607100 4.271600
14.622200 4.132200
14.637400 4.068900
14.652500 4.064400
14.667600 4.117300
14.682700 4.183600
14.697900 4.303600
14.713000 4.365700
14.728100 4.443900
14.743200 4.569900
14.758300 4.710300
14.773500 4.782700
14.788600 4.827500
14.803700 4.823800
14.818800 4.770200
14.834000 4.709100
14.849100 4.790700
14.864200 4.847900
14.879300 4.890600
14.894500 4.917100
14.909600 4.967300
14.924700 4.982100
14.939800 4.998800
14.955000 4.984500
14.970100 5.000500
14.985200 4.968500
15.000300 4.893600
15.015500 4.842900
15.030600 4.834200
15.045700 4.882400
15.060800 4.708600
15.075900 4.664300
15.091100 4.635000
15.106200 4.620700
15.121300 4.591700
15.136400 4.544900
15.151600 4.554300
15.166700 4.514000
15.181800 4.452600
15.196900 4.433900
15.212100 4.447700
15.227200 4.466000
15.242300 4.470100
15.257400 4.496100
15.272600 4.691700
15.287700 4.775600
15.302800 4.754900
15.317900 4.802400
15.333100 4.822400
15.348200 4.817100
15.363300 4.824500
15.378400 4.837600
15.393500 4.862900
15.408700 4.857600
15.423800 4.792100
15.438900 4.731100
15.454000 4.687700
15.469200 4.673700
15.484300 4.670200
15.499400 4.636800
15.514500 4.590100
15.529700 4.547900
15.544800 4.505400
15.559900 4.461400
15.575000 4.434700
15.590200 4.436500
15.605300 4.435100
15.620400 4.429400
15.635500 4.446600
15.650700 4.484600
15.665800 4.542800
15.680900 4.596800
15.696000 4.591600
15.711100 4.568300
15.726300 4.525500
15.741400 4.487300
15.756500 4.489900
15.771600 4.525700
15.786800 4.591000
15.801900 4.668400
15.817000 4.767000
15.832100 4.860100
15.847300 4.912800
15.862400 4.909400
15.877500 4.881100
15.892600 4.861300
15.907800 4.861900
15.922900 4.864300
15.938000 4.856300
15.953100 4.845200
15.968300 4.853400
15.983400 4.896200
15.998500 4.942600
16.013600 4.981400
16.028700 5.010500
16.043900 5.025700
16.059000 5.009100
16.074100 5.051100
16.089200 5.052700
16.104400 5.007200
16.119500 4.969500
16.134600 4.961400
16.149700 4.955800
16.164900 4.986300
16.180000 4.951300
16.195100 4.918400
16.210200 4.888100
16.225400 4.868900
16.240500 4.869000
16.255600 4.882300
16.270700 4.859500
16.285900 4.788900
16.301000 4.722400
16.316100 4.679300
16.331200 4.692800
16.346300 4.688200
16.361500 4.688900
16.376600 4.702900
16.391700 4.712200
16.406800 4.733500
16.422000 4.767800
16.437100 4.795200
16.452200 4.824800
16.467300 4.899700
16.482500 4.995200
16.497600 5.101500
16.512700 5.153600
16.527800 5.239000
16.543000 5.298500
16.558100 5.340600
16.573200 5.407800
16.588300 5.350800
16.603500 5.320000
16.618600 5.214300
16.633700 5.163700
16.648800 5.130600
16.663900 5.143800
16.679100 5.127400
16.694200 5.079100
16.709300 5.093900
16.724400 5.159100
16.739600 5.216900
16.754700 5.241300
16.769800 5.372700
16.784900 5.472000
16.800100 5.531300
16.815200 5.565500
16.830300 5.594800
16.845400 5.584300
16.860600 5.479100
16.875700 5.459700
16.890800 5.521000
16.905900 5.633300
16.921100 5.570800
16.936200 5.568900
16.951300 5.483500
16.966400 5.369000
16.981500 5.251100
16.996700 5.186100
17.011800 5.155600
17.026900 5.113400
17.042000 5.062500
17.057200 5.001900
17.072300 4.952000
17.087400 4.925900
17.102500 4.917600
17.117700 4.947400
17.132800 4.953500
17.147900 4.952800
17.163000 4.979800
17.178200 5.037000
17.193300 5.045400
17.208400 5.089200
17.223500 5.161200
17.238700 5.235900
17.253800 5.157400
17.268900 5.128500
17.284000 5.079600
17.299100 5.098200
17.314300 5.184000
17.329400 5.220600
17.344500 5.265800
17.359600 5.293500
17.374800 5.348700
17.389900 5.426800
17.405000 5.804000
17.420100 5.830600
17.435300 5.518900
17.450400 5.452800
17.465500 5.443000
17.480600 5.465600
17.495800 5.536000
17.510900 5.415600
17.526000 5.436300
17.541100 5.528800
17.556200 5.551700
17.571400 5.494700
17.586500 5.468600
17.601600 5.443700
17.616700 5.384100
17.631900 5.335500
17.647000 5.295000
17.662100 5.242300
17.677200 5.179100
17.692400 5.111500
17.707500 5.012000
17.722600 4.911700
17.737700 4.867600
17.752900 4.832300
17.768000 4.820700
17.783100 4.827300
17.798200 4.840800
17.813400 4.860000
17.828500 4.901900
17.843600 4.994900
17.858700 5.107700
17.873800 5.239000
17.889000 5.382800
17.904100 5.490700
17.919200 5.543700
17.934300 5.574700
17.949500 5.629700
17.964600 5.669200
17.979700 5.753800
17.994800 5.653300
18.010000 5.550300
18.025100 5.494200
18.040200 5.231600
18.055300 5.165500
18.070500 5.121300
18.085600 5.060000
18.100700 5.009900
18.115800 4.992800
18.131000 4.994800
18.146100 5.008500
18.161200 5.059800
18.176300 5.117300
18.191400 5.167200
18.206600 5.204300
18.221700 5.176800
18.236800 5.091600
18.251900 5.025600
18.267100 4.994300
18.282200 5.038600
18.297300 4.741400
18.312400 4.783600
18.327600 4.872900
18.342700 4.962200
18.357800 5.047200
18.372900 5.174100
18.388100 5.445400
18.403200 5.469900
18.418300 5.436300
18.433400 5.391000
18.448600 5.345900
18.463700 5.280100
18.478800 5.293700
18.493900 5.323000
18.509000 5.293000
18.524200 5.312200
18.539300 5.425900
18.554400 5.441900
18.569500 5.482200
18.584700 5.521800
18.599800 5.554700
18.614900 5.561700
18.630000 5.547000
18.645200 5.763700
18.660300 5.663500
18.675400 5.587000
18.690500 5.539000
18.705700 5.512600
18.720800 5.526200
18.735900 5.543900
18.751000 5.557500
18.766200 5.548800
18.781300 5.472000
18.796400 5.598700
18.811500 5.741200
18.826600 5.829800
18.841800 5.924700
18.856900 6.012400
18.872000 6.010800
18.887100 5.986400
18.902300 5.982800
18.917400 5.913900
18.932500 5.798800
18.947600 5.748800
18.962800 5.818900
18.977900 5.806200
18.993000 5.725800
19.008100 5.689000
19.023300 5.658100
19.038400 5.653900
19.053500 5.660400
19.068600 5.668600
19.083800 5.717500
19.098900 5.780300
19.114000 5.834200
19.129100 5.919800
19.144200 6.032000
19.159400 6.118700
19.174500 6.178200
19.189600 6.297100
19.204700 6.389800
19.219900 6.457300
19.235000 6.420500
19.250100 6.325800
19.265200 6.340400
19.280400 6.205300
19.295500 6.013600
19.310600 5.818000
19.325700 5.679700
19.340900 5.577800
19.356000 5.493000
19.371100 5.434300
19.386200 5.418600
19.401400 5.437000
19.416500 5.555000
19.431600 5.435100
19.446700 5.365800
19.461800 5.288200
19.477000 5.265700
19.492100 5.261500
19.507200 5.247800
19.522300 5.216500
19.537500 5.190100
19.552600 5.184900
19.567700 5.188600
19.582800 5.195500
19.598000 5.195300
19.613100 5.229500
19.628200 5.251600
19.643300 5.319700
19.658500 5.391800
19.673600 5.471200
19.688700 5.531600
19.703800 5.508000
19.719000 5.503300
19.734100 5.525100
19.749200 5.610900
19.764300 5.685000
19.779400 5.668800
19.794600 5.570400
19.809700 5.333200
19.824800 5.083200
19.839900 4.907700
19.855100 4.880600
19.870200 4.870000
19.885300 5.015800
19.900400 5.012900
19.915600 4.992200
19.930700 4.911200
19.945800 4.950500
19.960900 5.017600
19.976100 5.007300
19.991200 4.972500
20.006300 4.888000
20.021400 4.879000
20.036600 4.944200
20.051700 5.046700
20.066800 5.025200
20.081900 5.113900
20.097000 5.171500
20.112200 5.357700
20.127300 4.956200
20.142400 4.740000
20.157500 4.584200
20.172700 4.472300
20.187800 4.336500
20.202900 4.119500
20.218000 3.877000
20.233200 3.681800
20.248300 3.554100
20.263400 3.386100
20.278500 3.109300
20.293700 2.845100
20.308800 2.623300
20.323900 2.442000
20.339000 2.278400
20.354200 2.101700
20.369300 1.922500
20.384400 1.743200
20.399500 1.565500
20.414600 1.394600
20.429800 1.238500
20.444900 1.071000
20.460000 0.933900
20.475100 0.813000
20.490300 0.706600
20.505400 0.614300
20.520500 0.532900
20.535600 0.461900
20.550800 0.401300
20.565900 0.347700
20.581000 0.299700
20.596100 0.257300
20.611300 0.220100
20.626400 0.187900
20.641500 0.159400
20.656600 0.133600
20.671800 0.110100
20.686900 0.088900
20.702000 0.069900
20.717100 0.053200
20.732200 0.038500
20.747400 0.025200
20.762500 0.013200
20.777600 0.003100
20.792700 0.000000
20.807900 0.000000
20.823000 0.000000
20.838100 0.000000
20.853200 0.000000
20.868400 0.000000
20.883500 0.000000
20.898600 0.000000
20.913700 0.000000
20.928900 0.000000
20.944000 0.000000
20.959100 0.000000
20.974200 0.000000
20.989400 0.000000
21.004500 0.000000
21.019600 0.000000
21.034700 0.000000
21.049800 0.000000
21.065000 0.000000
21.080100 0.000000
21.095200 0.000000
21.110300 0.000000
21.125500 0.000000
21.140600 0.000000
21.155700 0.000000
21.170800 0.000000
21.186000 0.000000
21.201100 0.000000
21.216200 0.000000
21.231300 0.000000
21.246500 0.000000
21.261600 0.000000
21.276700 0.000000
21.291800 0.000000
21.307000 0.000000
21.322100 0.000000
21.337200 0.000000
21.352300 0.000000
21.367400 0.000000
21.382600 0.000000
21.397700 0.000000
21.412800 0.000000
21.427900 0.000000
21.443100 0.000000
21.458200 0.000000
21.473300 0.000000
21.488400 0.000000
21.503600 0.000000
21.518700 0.000000
21.533800 0.000000
21.548900 0.000000
21.564100 0.000000
21.579200 0.000000
21.594300 0.000000
21.609400 0.000000
21.624600 0.000000
21.639700 0.000000
21.654800 0.000000
21.669900 0.000000
21.685000 0.000000
21.700200 0.000000
21.715300 0.000000
21.730400 0.000000
21.745500 0.000000
21.760700 0.000000
21.775800 0.000000
21.790900 0.000000
21.806000 0.000000
21.821200 0.000000
21.836300 0.000000
21.851400 0.000000
21.866500 0.000000
21.881700 0.000000
21.896800 0.000000
21.911900 0.000000
21.927000 0.000000
21.942200 0.000000
21.957300 0.000000
21.972400 0.000000
21.987500 0.000000
22.002600 0.000000
22.017800 0.000000
22.032900 0.000000
22.048000 0.000000
22.063100 0.000000
22.078300 0.000000
22.093400 0.000000
22.108500 0.000000
22.123600 0.000000
22.138800 0.000000
22.153900 0.000000
22.169000 0.000000
e
