set title 'mp-1229015 - Density of States'
set xlabel 'Energy (eV)'
set ylabel 'DOS (states/eV)'
set grid
set xrange [-10:10]
set yrange [0:8.026]
set xzeroaxis lt -1
set terminal png size 800,600
set output 'mp-1229015_dos_gnuplot.png'
plot '-' using 1:2 with lines title 'DOS'
-6.675000 0.000000
-6.640400 0.000000
-6.605900 0.000000
-6.571400 0.000000
-6.536900 0.000000
-6.502400 0.000000
-6.467900 0.000000
-6.433400 0.000000
-6.398900 0.000000
-6.364300 0.000000
-6.329800 0.000000
-6.295300 0.000000
-6.260800 0.000000
-6.226300 0.000000
-6.191800 0.000000
-6.157300 0.000000
-6.122700 0.000000
-6.088200 0.000000
-6.053700 0.000000
-6.019200 0.000000
-5.984700 0.000000
-5.950200 0.000000
-5.915700 0.000000
-5.881200 0.000000
-5.846600 0.000000
-5.812100 0.000000
-5.777600 0.000000
-5.743100 0.000000
-5.708600 0.000000
-5.674100 0.000000
-5.639600 0.000000
-5.605000 0.000000
-5.570500 0.000000
-5.536000 0.000000
-5.501500 0.000000
-5.467000 0.000000
-5.432500 0.000000
-5.398000 0.000000
-5.363500 0.000000
-5.328900 0.000000
-5.294400 0.000000
-5.259900 0.000000
-5.225400 0.000000
-5.190900 0.000000
-5.156400 0.000000
-5.121900 0.000000
-5.087300 0.000000
-5.052800 0.000000
-5.018300 0.000000
-4.983800 0.000000
-4.949300 0.000000
-4.914800 0.000000
-4.880300 0.000000
-4.845800 0.000000
-4.811200 0.000000
-4.776700 0.000000
-4.742200 0.000000
-4.707700 0.000000
-4.673200 0.000000
-4.638700 0.000000
-4.604200 0.000000
-4.569600 0.000000
-4.535100 0.000000
-4.500600 0.000000
-4.466100 0.000000
-4.431600 0.000000
-4.397100 0.000000
-4.362600 0.000000
-4.328100 0.000000
-4.293500 0.000000
-4.259000 0.000000
-4.224500 0.000000
-4.190000 0.000000
-4.155500 0.000000
-4.121000 0.000000
-4.086500 0.000000
-4.051900 0.000000
-4.017400 0.000000
-3.982900 0.000000
-3.948400 0.000000
-3.913900 0.000000
-3.879400 0.000000
-3.844900 0.000000
-3.810400 0.000000
-3.775800 0.000000
-3.741300 0.000000
-3.706800 0.000000
-3.672300 0.000000
-3.637800 0.000000
-3.603300 0.000000
-3.568800 0.000000
-3.534200 0.000100
-3.499700 0.007700
-3.465200 0.022700
-3.430700 0.041100
-3.396200 0.062800
-3.361700 0.062800
-3.327200 0.067000
-3.292700 0.073100
-3.258100 0.080500
-3.223600 0.087800
-3.189100 0.093900
-3.154600 0.100800
-3.120100 0.108000
-3.085600 0.114800
-3.051100 0.120300
-3.016500 0.124800
-2.982000 0.128600
-2.947500 0.132800
-2.913000 0.137800
-2.878500 0.143100
-2.844000 0.148500
-2.809500 0.154100
-2.775000 0.159800
-2.740400 0.165700
-2.705900 0.171800
-2.671400 0.178000
-2.636900 0.184300
-2.602400 0.190700
-2.567900 0.196400
-2.533400 0.202900
-2.498800 0.210100
-2.464300 0.217600
-2.429800 0.225400
-2.395300 0.233700
-2.360800 0.247200
-2.326300 0.260500
-2.291800 0.269100
-2.257300 0.270000
-2.222700 0.266800
-2.188200 0.271700
-2.153700 0.276500
-2.119200 0.281200
-2.084700 0.285800
-2.050200 0.290300
-2.015700 0.294700
-1.981100 0.299100
-1.946600 0.302700
-1.912100 0.306700
-1.877600 0.311500
-1.843100 0.317800
-1.808600 0.325000
-1.774100 0.332800
-1.739600 0.341100
-1.705000 0.350100
-1.670500 0.359800
-1.636000 0.370600
-1.601500 0.382300
-1.567000 0.395300
-1.532500 0.410100
-1.498000 0.426800
-1.463400 0.444600
-1.428900 0.463800
-1.394400 0.484900
-1.359900 0.612700
-1.325400 0.928700
-1.290900 1.340800
-1.256400 1.562500
-1.221900 1.685100
-1.187300 1.937900
-1.152800 2.110600
-1.118300 2.329800
-1.083800 2.504500
-1.049300 2.686600
-1.014800 2.831500
-0.980300 2.972300
-0.945800 3.170100
-0.911200 3.480900
-0.876700 3.674700
-0.842200 3.821900
-0.807700 3.847500
-0.773200 3.787100
-0.738700 3.808900
-0.704200 4.015800
-0.669600 4.324300
-0.635100 4.315900
-0.600600 4.261300
-0.566100 4.196800
-0.531600 4.247500
-0.497100 4.441800
-0.462600 4.633800
-0.428100 4.593800
-0.393500 4.503400
-0.359000 4.630400
-0.324500 5.001400
-0.290000 4.749200
-0.255500 4.766700
-0.221000 4.506500
-0.186500 3.434400
-0.151900 3.190100
-0.117400 3.054500
-0.082900 3.212500
-0.048400 2.980800
-0.013900 2.902600
0.020600 3.124800
0.055100 3.651900
0.089600 3.037200
0.124200 3.057600
0.158700 2.500600
0.193200 2.629600
0.227700 3.216600
0.262200 3.557500
0.296700 3.540800
0.331200 4.267000
0.365800 4.516400
0.400300 4.718400
0.434800 4.368600
0.469300 4.229500
0.503800 4.042400
0.538300 4.138100
0.572800 4.026300
0.607300 3.930900
0.641900 4.000400
0.676400 5.744800
0.710900 4.616800
0.745400 4.090600
0.779900 4.968300
0.814400 4.502000
0.848900 4.396900
0.883500 4.792500
0.918000 5.661800
0.952500 6.849500
0.987000 5.437300
1.021500 5.478200
1.056000 5.771800
1.090500 7.296000
1.125000 6.155900
1.159600 6.054000
1.194100 5.505400
1.228600 5.511200
1.263100 5.451200
1.297600 5.295800
1.332100 4.988200
1.366600 3.958800
1.401200 3.263900
1.435700 3.626300
1.470200 4.035300
1.504700 3.191200
1.539200 2.793100
1.573700 2.872200
1.608200 2.369100
1.642700 2.048200
1.677300 1.850600
1.711800 1.992700
1.746300 2.918100
1.780800 3.255900
1.815300 3.410400
1.849800 3.535200
1.884300 3.938100
1.918900 4.274700
1.953400 4.609300
1.987900 4.454800
2.022400 3.934400
2.056900 3.691800
2.091400 3.504500
2.125900 3.327100
2.160400 3.366100
2.195000 3.391600
2.229500 3.251500
2.264000 2.994000
2.298500 2.774500
2.333000 2.674400
2.367500 2.546700
2.402000 2.265700
2.436600 2.305800
2.471100 2.351900
2.505600 2.405700
2.540100 2.534000
2.574600 2.604600
2.609100 2.778100
2.643600 2.939500
2.678100 3.184200
2.712700 3.325400
2.747200 3.329600
2.781700 2.995300
2.816200 3.135300
2.850700 3.042200
2.885200 3.052900
2.919700 3.017000
2.954300 2.978300
2.988800 2.950500
3.023300 3.018000
3.057800 3.111800
3.092300 3.384300
3.126800 3.708600
3.161300 3.357800
3.195800 3.002000
3.230400 2.780300
3.264900 2.576700
3.299400 2.416800
3.333900 2.384900
3.368400 2.271500
3.402900 2.241600
3.437400 2.374000
3.472000 2.355900
3.506500 2.408700
3.541000 2.425200
3.575500 2.447300
3.610000 2.494900
3.644500 2.800900
3.679000 3.447500
3.713500 3.623700
3.748100 3.354600
3.782600 3.164000
3.817100 2.896300
3.851600 2.766300
3.886100 2.777000
3.920600 2.886400
3.955100 2.923100
3.989700 3.037200
4.024200 3.250200
4.058700 3.794000
4.093200 3.899400
4.127700 3.581800
4.162200 3.448100
4.196700 3.350200
4.231200 3.341300
4.265800 3.178500
4.300300 2.797300
4.334800 2.432000
4.369300 2.019400
4.403800 1.781600
4.438300 1.122300
4.472800 1.064900
4.507400 1.022500
4.541900 0.981200
4.576400 0.951700
4.610900 0.930800
4.645400 0.914600
4.679900 0.906300
4.714400 0.901200
4.748900 0.898300
4.783500 0.896900
4.818000 0.896100
4.852500 0.892800
4.887000 0.888500
4.921500 0.882300
4.956000 0.874100
4.990500 0.846500
5.025100 0.820000
5.059600 0.803800
5.094100 0.793500
5.128600 0.782700
5.163100 0.774500
5.197600 0.769300
5.232100 0.766900
5.266600 0.765100
5.301200 0.704900
5.335700 0.689800
5.370200 0.693500
5.404700 0.696800
5.439200 0.699000
5.473700 0.699800
5.508200 0.699300
5.542700 0.697500
5.577300 0.694200
5.611800 0.690400
5.646300 0.686600
5.680800 0.682800
5.715300 0.680000
5.749800 0.677100
5.784300 0.674500
5.818900 0.672000
5.853400 0.669300
5.887900 0.667000
5.922400 0.664800
5.956900 0.662600
5.991400 0.659800
6.025900 0.655300
6.060400 0.655400
6.095000 0.663200
6.129500 0.671200
6.164000 0.671200
6.198500 0.666000
6.233000 0.660200
6.267500 0.654200
6.302000 0.647700
6.336600 0.641700
6.371100 0.636200
6.405600 0.631000
6.440100 0.626600
6.474600 0.622500
6.509100 0.618000
6.543600 0.612500
6.578100 0.607800
6.612700 0.604300
6.647200 0.600900
6.681700 0.597600
6.716200 0.594500
6.750700 0.591800
6.785200 0.589600
6.819700 0.587700
6.854300 0.586200
6.888800 0.586000
6.923300 0.586600
6.957800 0.590000
6.992300 0.599300
7.026800 0.603700
7.061300 0.603300
7.095800 0.595800
7.130400 0.574400
7.164900 0.560000
7.199400 0.553700
7.233900 0.549200
7.268400 0.546600
7.302900 0.544500
7.337400 0.542600
7.372000 0.541000
7.406500 0.539500
7.441000 0.537700
7.475500 0.535600
7.510000 0.533800
7.544500 0.532000
7.579000 0.532500
7.613500 0.531600
7.648100 0.529100
7.682600 0.525100
7.717100 0.520500
7.751600 0.515700
7.786100 0.510800
7.820600 0.506200
7.855100 0.503000
7.889700 0.501700
7.924200 0.502800
7.958700 0.505100
7.993200 0.509700
8.027700 0.516600
8.062200 0.525000
8.096700 0.535500
8.131200 0.558000
8.165800 0.572800
8.200300 0.575400
8.234800 0.550300
8.269300 0.523600
8.303800 0.510200
8.338300 0.502600
8.372800 0.495500
8.407400 0.488700
8.441900 0.483100
8.476400 0.477700
8.510900 0.478600
8.545400 0.485500
8.579900 0.495300
8.614400 0.502600
8.648900 0.506000
8.683500 0.505400
8.718000 0.499500
8.752500 0.487900
8.787000 0.473800
8.821500 0.461100
8.856000 0.452500
8.890500 0.439000
8.925100 0.421900
8.959600 0.403800
8.994100 0.386200
9.028600 0.373300
9.063100 0.370700
9.097600 0.369000
9.132100 0.367400
9.166600 0.365700
9.201200 0.364000
9.235700 0.362400
9.270200 0.360700
9.304700 0.359700
9.339200 0.360700
9.373700 0.363800
9.408200 0.369100
9.442800 0.375500
9.477300 0.483100
9.511800 0.491500
9.546300 0.513500
9.580800 0.541800
9.615300 0.571300
9.649800 0.598800
9.684300 0.587400
9.718900 0.541300
9.753400 0.533300
9.787900 0.524200
9.822400 0.517600
9.856900 0.508500
9.891400 0.494700
9.925900 0.477300
9.960500 0.530200
9.995000 0.611000
10.029500 0.694000
10.064000 0.755800
10.098500 0.805700
10.133000 0.820000
10.167500 0.812400
10.202000 0.782300
10.236600 0.744300
10.271100 0.713800
10.305600 0.687300
10.340100 0.670400
10.374600 0.660200
10.409100 0.652400
10.443600 0.646700
10.478200 0.641400
10.512700 0.637200
10.547200 0.634100
10.581700 0.630900
10.616200 0.657100
10.650700 0.652400
10.685200 0.648700
10.719700 0.645000
10.754300 0.639400
10.788800 0.633600
10.823300 0.630400
10.857800 0.627000
10.892300 0.621900
10.926800 0.615800
10.961300 0.613600
10.995900 0.619400
11.030400 0.626900
11.064900 0.631300
11.099400 0.629600
11.133900 0.620500
11.168400 0.619800
11.202900 0.620600
11.237400 0.619600
11.272000 0.616200
11.306500 0.610500
11.341000 0.604400
11.375500 0.600700
11.410000 0.600300
11.444500 0.603700
11.479000 0.612100
11.513600 0.618300
11.548100 0.628400
11.582600 0.627700
11.617100 0.621800
11.651600 0.620400
11.686100 0.622500
11.720600 0.624200
11.755100 0.623800
11.789700 0.622000
11.824200 0.621600
11.858700 0.625000
11.893200 0.635700
11.927700 0.646400
11.962200 0.644700
11.996700 0.632200
12.031300 0.612400
12.065800 0.585700
12.100300 0.552400
12.134800 0.522200
12.169300 0.500500
12.203800 0.485200
12.238300 0.473100
12.272800 0.463900
12.307400 0.459100
12.341900 0.458500
12.376400 0.460200
12.410900 0.472600
12.445400 0.463500
12.479900 0.472200
12.514400 0.485200
12.548900 0.499800
12.583500 0.517300
12.618000 0.537900
12.652500 0.561900
12.687000 0.587400
12.721500 0.623700
12.756000 0.652400
12.790500 0.690800
12.825100 0.727300
12.859600 0.788900
12.894100 0.795800
12.928600 0.808600
12.963100 0.822800
12.997600 0.827500
13.032100 0.833400
13.066600 0.842900
13.101200 0.847400
13.135700 0.852800
13.170200 0.848200
13.204700 0.821900
13.239200 0.790400
13.273700 0.739100
13.308200 0.704800
13.342800 0.684700
13.377300 0.668800
13.411800 0.655700
13.446300 0.648500
13.480800 0.650500
13.515300 0.662500
13.549800 0.672000
13.584300 0.672900
13.618900 0.677000
13.653400 0.680400
13.687900 0.683500
13.722400 0.687200
13.756900 0.693900
13.791400 0.702400
13.825900 0.712500
13.860500 0.723600
13.895000 0.746000
13.929500 0.756200
13.964000 0.759900
13.998500 0.766900
14.033000 0.780200
14.067500 0.790200
14.102000 0.794900
14.136600 0.798200
14.171100 0.804500
14.205600 0.813500
14.240100 0.817800
14.274600 0.815700
14.309100 0.810700
14.343600 0.803500
14.378200 0.796900
14.412700 0.790700
14.447200 0.785000
14.481700 0.781500
14.516200 0.779600
14.550700 0.776900
14.585200 0.774100
14.619700 0.772700
14.654300 0.772100
14.688800 0.770100
14.723300 0.767500
14.757800 0.765100
14.792300 0.763300
14.826800 0.761900
14.861300 0.760900
14.895900 0.785100
14.930400 0.778300
14.964900 0.763100
14.999400 0.769200
15.033900 0.776900
15.068400 0.781900
15.102900 0.793400
15.137400 0.801600
15.172000 0.807800
15.206500 0.814400
15.241000 0.820600
15.275500 0.828100
15.310000 0.853800
15.344500 0.865600
15.379000 0.863900
15.413600 0.856500
15.448100 0.853600
15.482600 0.855000
15.517100 0.858400
15.551600 0.861500
15.586100 0.864000
15.620600 0.868000
15.655100 0.874200
15.689700 0.890000
15.724200 0.930500
15.758700 0.940300
15.793200 0.906100
15.827700 0.902500
15.862200 0.909900
15.896700 0.924300
15.931300 0.936400
15.965800 0.944400
16.000300 0.948500
16.034800 0.954000
16.069300 0.956300
16.103800 0.957100
16.138300 0.959900
16.172800 0.955200
16.207400 0.954700
16.241900 0.970400
16.276400 0.994700
16.310900 1.061600
16.345400 1.037600
16.379900 1.049300
16.414400 1.056000
16.449000 1.060000
16.483500 1.063000
16.518000 1.066300
16.552500 1.074000
16.587000 1.076600
16.621500 1.071500
16.656000 1.052700
16.690500 1.031000
16.725100 1.033200
16.759600 1.037000
16.794100 1.031300
16.828600 1.019500
16.863100 1.013100
16.897600 1.009800
16.932100 1.007100
16.966700 1.004900
17.001200 1.003500
17.035700 1.005700
17.070200 1.019000
17.104700 1.025200
17.139200 1.028000
17.173700 1.029900
17.208200 1.030800
17.242800 1.030700
17.277300 1.031100
17.311800 1.043200
17.346300 1.049600
17.380800 1.047400
17.415300 1.039400
17.449800 1.037900
17.484400 1.030700
17.518900 1.031800
17.553400 1.039400
17.587900 1.077900
17.622400 1.110400
17.656900 1.083400
17.691400 1.079600
17.725900 1.072000
17.760500 1.055700
17.795000 1.042700
17.829500 1.030800
17.864000 1.029200
17.898500 1.027300
17.933000 1.022600
17.967500 1.015000
18.002100 1.002100
18.036600 0.983100
18.071100 0.963900
18.105600 0.943400
18.140100 0.929500
18.174600 0.924400
18.209100 0.920700
18.243600 0.919400
18.278200 0.918100
18.312700 0.910400
18.347200 0.886800
18.381700 0.863700
18.416200 0.842800
18.450700 0.829700
18.485200 0.841100
18.519800 0.816300
18.554300 0.808900
18.588800 0.806100
18.623300 0.806400
18.657800 0.811800
18.692300 0.821700
18.726800 0.834700
18.761300 0.849600
18.795900 0.866400
18.830400 0.886500
18.864900 0.902000
18.899400 0.907100
18.933900 0.891900
18.968400 0.905100
19.002900 0.915100
19.037400 0.920700
19.072000 0.932500
19.106500 0.944600
19.141000 0.960600
19.175500 0.983900
19.210000 1.009200
19.244500 1.027200
19.279000 1.041600
19.313600 1.052300
19.348100 1.059800
19.382600 1.063000
19.417100 1.061600
19.451600 1.065100
19.486100 1.074700
19.520600 1.085100
19.555100 1.086300
19.589700 1.080700
19.624200 1.068400
19.658700 1.057900
19.693200 1.066400
19.727700 1.076900
19.762200 1.079600
19.796700 1.076500
19.831300 1.069900
19.865800 1.064700
19.900300 1.061000
19.934800 1.058200
19.969300 1.056100
20.003800 1.054500
20.038300 1.053400
20.072800 1.052800
20.107400 1.051700
20.141900 1.050600
20.176400 1.049800
20.210900 1.050800
20.245400 1.054000
20.279900 1.059300
20.314400 1.066500
20.349000 1.078400
20.383500 1.091100
20.418000 1.101100
20.452500 1.109600
20.487000 1.117900
20.521500 1.132200
20.556000 1.169000
20.590500 1.240100
20.625100 1.380900
20.659600 1.414100
20.694100 1.305200
20.728600 1.256500
20.763100 1.237600
20.797600 1.239900
20.832100 1.458500
20.866700 1.237800
20.901200 1.200700
20.935700 1.183100
20.970200 1.166100
21.004700 1.137800
21.039200 1.098800
21.073700 1.041400
21.108200 1.012800
21.142800 1.010600
21.177300 1.011300
21.211800 1.016000
21.246300 1.028500
21.280800 1.080100
21.315300 1.135600
21.349800 1.080600
21.384400 1.032400
21.418900 1.019200
21.453400 1.012000
21.487900 1.012800
21.522400 1.022000
21.556900 1.062300
21.591400 1.121800
21.625900 1.165200
21.660500 1.101200
21.695000 1.087600
21.729500 1.070900
21.764000 1.033800
21.798500 0.978300
21.833000 0.946600
21.867500 0.923900
21.902100 0.910400
21.936600 0.899600
21.971100 0.888000
22.005600 0.884000
22.040100 0.889900
22.074600 0.902800
22.109100 0.922600
22.143600 0.948900
22.178200 0.979300
22.212700 1.008100
22.247200 1.011600
22.281700 1.001800
22.316200 0.953000
22.350700 0.947200
22.385200 0.911200
22.419800 0.852200
22.454300 0.844300
22.488800 0.846100
22.523300 0.851700
22.557800 0.856100
22.592300 0.856200
22.626800 0.861900
22.661300 0.866400
22.695900 0.870800
22.730400 0.892600
22.764900 0.932500
22.799400 0.935300
22.833900 0.934200
22.868400 0.940300
22.902900 0.948300
22.937500 0.962900
22.972000 0.979800
23.006500 0.999200
23.041000 1.021300
23.075500 1.046300
23.110000 1.075000
23.144500 1.111200
23.179000 1.156100
23.213600 1.184800
23.248100 1.198800
23.282600 1.221500
23.317100 1.262700
23.351600 1.317700
23.386100 1.382200
23.420600 1.448300
23.455200 1.514100
23.489700 1.594800
23.524200 1.692300
23.558700 1.808300
23.593200 1.736000
23.627700 1.575000
23.662200 1.558200
23.696700 1.589800
23.731300 1.626700
23.765800 1.639700
23.800300 1.620100
23.834800 1.628900
23.869300 1.602900
23.903800 1.571500
23.938300 1.508100
23.972900 1.490200
24.007400 1.475600
24.041900 1.461900
24.076400 1.453900
24.110900 1.449300
24.145400 1.426400
24.179900 1.440400
24.214400 1.443400
24.249000 1.436600
24.283500 1.432700
24.318000 1.427500
24.352500 1.422600
24.387000 1.424400
24.421500 1.419200
24.456000 1.421200
24.490600 1.442000
24.525100 1.492800
24.559600 1.544200
24.594100 1.589800
24.628600 1.641800
24.663100 1.706600
24.697600 1.747400
24.732100 1.763900
24.766700 1.779100
24.801200 1.765400
24.835700 1.731700
24.870200 1.685900
24.904700 1.640000
24.939200 1.578900
24.973700 1.536800
25.008300 1.497400
25.042800 1.472600
25.077300 1.447900
25.111800 1.420200
25.146300 1.391900
25.180800 1.349600
25.215300 1.301300
25.249800 1.242600
25.284400 1.194100
25.318900 1.164400
25.353400 1.135600
25.387900 1.113500
25.422400 1.090800
25.456900 1.070800
25.491400 1.056400
25.525900 1.043800
25.560500 1.032100
25.595000 1.022300
25.629500 1.014800
25.664000 1.008200
25.698500 1.002900
25.733000 0.998400
25.767500 0.995800
25.802100 0.995800
25.836600 1.007400
25.871100 1.035100
25.905600 1.068700
25.940100 1.092100
25.974600 1.089600
26.009100 1.077600
26.043600 1.084600
26.078200 1.092000
26.112700 1.098200
26.147200 1.103300
26.181700 1.106400
26.216200 1.132700
26.250700 1.187200
26.285200 1.164800
26.319800 1.119100
26.354300 1.100300
26.388800 1.081700
26.423300 1.060700
26.457800 1.036800
26.492300 1.013200
26.526800 0.979800
26.561300 0.938300
26.595900 0.910100
26.630400 0.889500
26.664900 0.877100
26.699400 0.866100
26.733900 0.849100
26.768400 0.823200
26.802900 0.786700
26.837500 0.757100
26.872000 0.737400
26.906500 0.724000
26.941000 0.680500
26.975500 0.664800
27.010000 0.651200
27.044500 0.641100
27.079000 0.634500
27.113600 0.629200
27.148100 0.610600
27.182600 0.598000
27.217100 0.594000
27.251600 0.588600
27.286100 0.579400
27.320600 0.569700
27.355200 0.561900
27.389700 0.552300
27.424200 0.543400
27.458700 0.533300
27.493200 0.524400
27.527700 0.518000
27.562200 0.517300
27.596700 0.518200
27.631300 0.523000
27.665800 0.530200
27.700300 0.539200
27.734800 0.551300
27.769300 0.565800
27.803800 0.582100
27.838300 0.632700
27.872900 0.654700
27.907400 0.674300
27.941900 0.704900
27.976400 0.739400
28.010900 0.770800
28.045400 0.796300
28.079900 0.822600
28.114400 0.858600
28.149000 0.903900
28.183500 0.955100
28.218000 0.998500
28.252500 1.015700
28.287000 1.023100
28.321500 1.028000
28.356000 1.032400
28.390600 1.036200
28.425100 1.040400
28.459600 1.047200
28.494100 1.052300
28.528600 1.052500
28.563100 1.047300
28.597600 1.044900
28.632100 1.038200
28.666700 1.023100
28.701200 1.003800
28.735700 0.974400
28.770200 0.947300
28.804700 0.928700
28.839200 0.921000
28.873700 0.948900
28.908300 0.986800
28.942800 0.922900
28.977300 0.954600
29.011800 0.982700
29.046300 0.975200
29.080800 0.963800
29.115300 0.981400
29.149800 0.986900
29.184400 0.986800
29.218900 0.985700
29.253400 0.984600
29.287900 0.985600
29.322400 1.057300
29.356900 0.970400
29.391400 0.971200
29.426000 0.978900
29.460500 1.000200
29.495000 1.015200
29.529500 1.042000
29.564000 1.073200
29.598500 1.095600
29.633000 1.111500
29.667500 1.149300
29.702100 1.167200
29.736600 1.187400
29.771100 1.210700
29.805600 1.239200
29.840100 1.264000
29.874600 1.285100
29.909100 1.306700
29.943700 1.331300
29.978200 1.355500
30.012700 1.386600
30.047200 1.417200
30.081700 1.453000
30.116200 1.538600
30.150700 1.619000
30.185200 1.661800
30.219800 1.691500
30.254300 1.704100
30.288800 1.713500
30.323300 1.736000
30.357800 1.785600
30.392300 1.709200
30.426800 1.714000
30.461400 1.725300
30.495900 1.617400
30.530400 1.531800
30.564900 1.485200
30.599400 1.447800
30.633900 1.414900
30.668400 1.388400
30.702900 1.361800
30.737500 1.337900
30.772000 1.315200
30.806500 1.299400
30.841000 1.301100
30.875500 1.328000
30.910000 1.308100
30.944500 1.304100
30.979100 1.311100
31.013600 1.315700
31.048100 1.336000
31.082600 1.375500
31.117100 1.404700
31.151600 1.407800
31.186100 1.390500
31.220600 1.380100
31.255200 1.353300
31.289700 1.318100
31.324200 1.271100
31.358700 1.244200
31.393200 1.220900
31.427700 1.201500
31.462200 1.193600
31.496800 1.192600
31.531300 1.198300
31.565800 1.218900
31.600300 1.246600
31.634800 1.302700
31.669300 1.395000
31.703800 1.509400
31.738300 1.549400
31.772900 1.597900
31.807400 1.542200
31.841900 1.504800
31.876400 1.452000
31.910900 1.384700
31.945400 1.410400
31.979900 1.564900
32.014500 1.530600
32.049000 1.574900
32.083500 1.644400
32.118000 1.668600
32.152500 1.683300
32.187000 1.694300
32.221500 1.682600
32.256000 1.719300
32.290600 1.763000
32.325100 1.808200
32.359600 1.856600
32.394100 1.862000
32.428600 1.889400
32.463100 1.880000
32.497600 1.863100
32.532100 1.871100
32.566700 1.819100
32.601200 1.807500
32.635700 1.672600
32.670200 1.576100
32.704700 1.485200
32.739200 1.423400
32.773700 1.463000
32.808300 1.558100
32.842800 1.520900
32.877300 1.536800
32.911800 1.530400
32.946300 1.537600
32.980800 1.562400
33.015300 1.579800
33.049800 1.586700
33.084400 1.590700
33.118900 1.599900
33.153400 1.649000
33.187900 1.630000
33.222400 1.613700
33.256900 1.617700
33.291400 1.624800
33.326000 1.636500
33.360500 1.647300
33.395000 1.631500
33.429500 1.644100
33.464000 1.578800
33.498500 1.506000
33.533000 1.470600
33.567500 1.478700
33.602100 1.530900
33.636600 1.559000
33.671100 1.530600
33.705600 1.535400
33.740100 1.570000
33.774600 1.582400
33.809100 1.591500
33.843700 1.614700
33.878200 1.620600
33.912700 1.625300
33.947200 1.646700
33.981700 1.681100
34.016200 1.646700
34.050700 1.634900
34.085200 1.619100
34.119800 1.588900
34.154300 1.574300
34.188800 1.562200
34.223300 1.545300
34.257800 1.554900
34.292300 1.580600
34.326800 1.565700
34.361400 1.533700
34.395900 1.508900
34.430400 1.563900
34.464900 1.524900
34.499400 1.511800
34.533900 1.536900
34.568400 1.488300
34.602900 1.467700
34.637500 1.466300
34.672000 1.479900
34.706500 1.478300
34.741000 1.509900
34.775500 1.457300
34.810000 1.424300
34.844500 1.440400
34.879100 1.433600
34.913600 1.427000
34.948100 1.416400
34.982600 1.413400
35.017100 1.411600
35.051600 1.413400
35.086100 1.419900
35.120600 1.431200
35.155200 1.447000
35.189700 1.463100
35.224200 1.469800
35.258700 1.478400
35.293200 1.497200
35.327700 1.522000
35.362200 1.544000
35.396800 1.555700
35.431300 1.580400
35.465800 1.578100
35.500300 1.579300
35.534800 1.580300
35.569300 1.586700
35.603800 1.613000
35.638300 1.595300
35.672900 1.567400
35.707400 1.557800
35.741900 1.552900
35.776400 1.539400
35.810900 1.520000
35.845400 1.493700
35.879900 1.460000
35.914500 1.427100
35.949000 1.399200
35.983500 1.383600
36.018000 1.371700
36.052500 1.351900
36.087000 1.325700
36.121500 1.315900
36.156000 1.318100
36.190600 1.318900
36.225100 1.316200
36.259600 1.319100
36.294100 1.332700
36.328600 1.358200
36.363100 1.376000
36.397600 1.355600
36.432200 1.354400
36.466700 1.359100
36.501200 1.372100
36.535700 1.395100
36.570200 1.411400
36.604700 1.415200
36.639200 1.415400
36.673700 1.427600
36.708300 1.439200
36.742800 1.463800
36.777300 1.450900
36.811800 1.428100
36.846300 1.405200
36.880800 1.389900
36.915300 1.383200
36.949900 1.386100
36.984400 1.402300
37.018900 1.420300
37.053400 1.438900
37.087900 1.431000
37.122400 1.425800
37.156900 1.432300
37.191400 1.451400
37.226000 1.475400
37.260500 1.501500
37.295000 1.528700
37.329500 1.557600
37.364000 1.591800
37.398500 1.640700
37.433000 1.685500
37.467600 1.726000
37.502100 1.763700
37.536600 1.830700
37.571100 1.885600
37.605600 1.944500
37.640100 2.029100
37.674600 2.143400
37.709100 2.315700
37.743700 2.400700
37.778200 2.591500
37.812700 2.769300
37.847200 3.078100
37.881700 3.580700
37.916200 4.032300
37.950700 4.886500
37.985300 6.161100
38.019800 8.213300
38.054300 9.674700
38.088800 16.047200
38.123300 18.219700
38.157800 16.994100
38.192300 12.716700
38.226800 8.697800
38.261400 8.633100
38.295900 9.366300
38.330400 7.115800
38.364900 6.442100
38.399400 5.749500
38.433900 5.595100
38.468400 5.060800
38.503000 4.969400
38.537500 4.046500
38.572000 3.714700
38.606500 3.147600
38.641000 2.877200
38.675500 2.720500
38.710000 2.618400
38.744500 2.532000
38.779100 2.454600
38.813600 2.361700
38.848100 2.301000
38.882600 2.215100
38.917100 2.071600
38.951600 1.986000
38.986100 1.906700
39.020600 1.859300
39.055200 1.814900
39.089700 1.757300
39.124200 1.698800
39.158700 1.654400
39.193200 1.568800
39.227700 1.541900
39.262200 1.544500
39.296800 1.569800
39.331300 1.615300
39.365800 1.674700
39.400300 1.732200
39.434800 1.773000
39.469300 1.809200
39.503800 1.876100
39.538300 1.913600
39.572900 1.895900
39.607400 1.872600
39.641900 1.866400
39.676400 1.874400
39.710900 1.861900
39.745400 1.813000
39.779900 1.786600
39.814500 1.768400
39.849000 1.745700
39.883500 1.709500
39.918000 1.698900
39.952500 1.693900
39.987000 1.689000
40.021500 1.686500
40.056000 1.688000
40.090600 1.709300
40.125100 1.748200
40.159600 1.786800
40.194100 1.804300
40.228600 1.817600
40.263100 1.791900
40.297600 1.796200
40.332200 1.817500
40.366700 1.812200
40.401200 1.799400
40.435700 1.785400
40.470200 1.778200
40.504700 1.769000
40.539200 1.751800
40.573700 1.765900
40.608300 1.793400
40.642800 1.808800
40.677300 1.826600
40.711800 1.833500
40.746300 1.852100
40.780800 1.880600
40.815300 1.896400
40.849900 1.877600
40.884400 1.898600
40.918900 1.904700
40.953400 1.920600
40.987900 1.937400
41.022400 1.991800
41.056900 2.003800
41.091400 1.958500
41.126000 1.962100
41.160500 1.976300
41.195000 1.939300
41.229500 1.970900
41.264000 1.962100
41.298500 1.984000
41.333000 1.974900
41.367600 2.026000
41.402100 2.082500
41.436600 2.129100
41.471100 2.145500
41.505600 2.138500
41.540100 2.179000
41.574600 2.152700
41.609100 2.114900
41.643700 2.077100
41.678200 2.076000
41.712700 2.109900
41.747200 2.134000
41.781700 2.098300
41.816200 2.037500
41.850700 1.992400
41.885300 1.955700
41.919800 1.952400
41.954300 1.939200
41.988800 1.888400
42.023300 1.833000
42.057800 1.774400
42.092300 1.734300
42.126800 1.728200
42.161400 1.731100
42.195900 1.709800
42.230400 1.619000
42.264900 1.623200
42.299400 1.625700
42.333900 1.639600
42.368400 1.669700
42.403000 1.702500
42.437500 1.738300
42.472000 1.749300
42.506500 1.769000
42.541000 1.781800
42.575500 1.783600
42.610000 1.803400
42.644500 1.813600
42.679100 1.793400
42.713600 1.778000
42.748100 1.739900
42.782600 1.687200
42.817100 1.643300
42.851600 1.615300
42.886100 1.597100
42.920700 1.560800
42.955200 1.504900
42.989700 1.443200
43.024200 1.377800
43.058700 1.280100
43.093200 1.178400
43.127700 1.124400
43.162200 1.105000
43.196800 1.113600
43.231300 1.145700
43.265800 1.188800
43.300300 1.210100
43.334800 1.237100
43.369300 1.255700
43.403800 1.260800
43.438400 1.233200
43.472900 1.213700
43.507400 1.204900
43.541900 1.203800
43.576400 1.210800
43.610900 1.232000
43.645400 1.273100
43.679900 1.362400
43.714500 1.322000
43.749000 1.322200
43.783500 1.346700
43.818000 1.367500
43.852500 1.382900
43.887000 1.396600
43.921500 1.407200
43.956100 1.414500
43.990600 1.404500
44.025100 1.421700
44.059600 1.504800
44.094100 1.544900
44.128600 1.602700
44.163100 1.653700
44.197600 1.687200
44.232200 1.643100
44.266700 1.599400
44.301200 1.619200
44.335700 1.637300
44.370200 1.657900
44.404700 1.673000
44.439200 1.672700
44.473800 1.664000
44.508300 1.678400
44.542800 1.660400
44.577300 1.641400
44.611800 1.640100
44.646300 1.645700
44.680800 1.682000
44.715300 1.702300
44.749900 1.709800
44.784400 1.690800
44.818900 1.680200
44.853400 1.669400
44.887900 1.652200
44.922400 1.695900
44.956900 1.745100
44.991500 1.739900
45.026000 1.691500
45.060500 1.641300
45.095000 1.584900
45.129500 1.528900
45.164000 1.487900
45.198500 1.454900
45.233000 1.430000
45.267600 1.414600
45.302100 1.401000
45.336600 1.378900
45.371100 1.385600
45.405600 1.389600
45.440100 1.373800
45.474600 1.376000
45.509200 1.359500
45.543700 1.348700
45.578200 1.361600
45.612700 1.377800
45.647200 1.374200
45.681700 1.357700
45.716200 1.345800
45.750700 1.334800
45.785300 1.349700
45.819800 1.371700
45.854300 1.392300
45.888800 1.402000
45.923300 1.420800
45.957800 1.451300
45.992300 1.479900
46.026800 1.521900
46.061400 1.610800
46.095900 1.571400
46.130400 1.608900
46.164900 1.646400
46.199400 1.689400
46.233900 1.739300
46.268400 1.792600
46.303000 1.840000
46.337500 1.854200
46.372000 1.887800
46.406500 1.885500
46.441000 1.842100
46.475500 1.803800
46.510000 1.780000
46.544500 1.703400
46.579100 1.670700
46.613600 1.715100
46.648100 1.714200
46.682600 1.647000
46.717100 1.488200
46.751600 1.367600
46.786100 1.288300
46.820700 1.216000
46.855200 1.151400
46.889700 1.102900
46.924200 1.068300
46.958700 1.048100
46.993200 1.038700
47.027700 1.055400
47.062200 1.088300
47.096800 1.094700
47.131300 1.092100
47.165800 1.092200
47.200300 1.101300
47.234800 1.167000
47.269300 1.253100
47.303800 1.332100
47.338400 1.464800
47.372900 1.460200
47.407400 1.427200
47.441900 1.453300
47.476400 1.490000
47.510900 1.535900
47.545400 1.598500
47.579900 1.661800
47.614500 1.693900
47.649000 1.761600
47.683500 1.836500
47.718000 1.919700
47.752500 2.002800
47.787000 2.082200
47.821500 2.240900
47.856100 2.292900
47.890600 2.324800
47.925100 2.388900
47.959600 2.412400
47.994100 2.391900
48.028600 2.374200
48.063100 2.338700
48.097600 2.280700
48.132200 2.216200
48.166700 2.078000
48.201200 2.043200
48.235700 1.987400
48.270200 1.892800
48.304700 1.827300
48.339200 1.767400
48.373800 1.713700
48.408300 1.683600
48.442800 1.679100
48.477300 1.676300
48.511800 1.683800
48.546300 1.684400
48.580800 1.678000
48.615300 1.677600
48.649900 1.677600
48.684400 1.681700
48.718900 1.681100
48.753400 1.677100
48.787900 1.816900
48.822400 2.035400
48.856900 1.982200
48.891500 1.981900
48.926000 1.950600
48.960500 1.936900
48.995000 1.926100
49.029500 1.911000
49.064000 1.911400
49.098500 1.940800
49.133000 1.938300
49.167600 1.881900
49.202100 1.885400
49.236600 1.977500
49.271100 1.914400
49.305600 1.889300
49.340100 1.884800
49.374600 1.875700
49.409200 1.870300
49.443700 1.864800
49.478200 1.857700
49.512700 1.860600
49.547200 1.842300
49.581700 1.827300
49.616200 1.831500
49.650700 1.798600
49.685300 1.814700
49.719800 1.929000
49.754300 1.860100
49.788800 1.835100
49.823300 1.827700
49.857800 1.811700
49.892300 1.780700
49.926900 1.760800
49.961400 1.749700
49.995900 1.740600
50.030400 1.739200
50.064900 1.745100
50.099400 1.758300
50.133900 1.768300
50.168400 1.771600
50.203000 1.768100
50.237500 1.776000
50.272000 1.716300
50.306500 1.690300
50.341000 1.703200
50.375500 1.681700
50.410000 1.663400
50.444600 1.660500
50.479100 1.691000
50.513600 1.724100
50.548100 1.769000
50.582600 1.769500
50.617100 1.773800
50.651600 1.762400
50.686100 1.732700
50.720700 1.686500
50.755200 1.622800
50.789700 1.599800
50.824200 1.619400
50.858700 1.646000
50.893200 1.658300
50.927700 1.591900
50.962300 1.454900
50.996800 1.343900
51.031300 1.292300
51.065800 1.225600
51.100300 1.185200
51.134800 1.160200
51.169300 1.145000
51.203800 1.112000
51.238400 1.093600
51.272900 1.083300
51.307400 1.124700
51.341900 1.168100
51.376400 1.172800
51.410900 1.251500
51.445400 1.393500
51.480000 1.520600
51.514500 1.600800
51.549000 1.670400
51.583500 1.727300
51.618000 1.760900
51.652500 1.779600
51.687000 1.813700
51.721500 1.871700
51.756100 1.947500
51.790600 2.028400
51.825100 2.070500
51.859600 2.052800
51.894100 2.002700
51.928600 1.899800
51.963100 1.789200
51.997700 1.724800
52.032200 1.673900
52.066700 1.650000
52.101200 1.660500
52.135700 1.660500
52.170200 1.642700
52.204700 1.642800
52.239200 1.639000
52.273800 1.676000
52.308300 1.678200
52.342800 1.712600
52.377300 1.748200
52.411800 1.781100
52.446300 1.797300
52.480800 1.835200
52.515300 1.881600
52.549900 1.939800
52.584400 2.000100
52.618900 2.045600
52.653400 1.986800
52.687900 1.964400
52.722400 1.988300
52.756900 2.045600
52.791500 2.094400
52.826000 2.099000
52.860500 2.106900
52.895000 2.108200
52.929500 2.147100
52.964000 2.180200
52.998500 2.181900
53.033000 2.184200
53.067600 2.210200
53.102100 2.299400
53.136600 2.398700
53.171100 2.449400
53.205600 2.477300
53.240100 2.483200
53.274600 2.430300
53.309200 2.408800
53.343700 2.409300
53.378200 2.368300
53.412700 2.317300
53.447200 2.322400
53.481700 2.323800
53.516200 2.374900
53.550700 2.382000
53.585300 2.370400
53.619800 2.383700
53.654300 2.353600
53.688800 2.294400
53.723300 2.251700
53.757800 2.231700
53.792300 2.219500
53.826900 2.209900
53.861400 2.223100
53.895900 2.257400
53.930400 2.241000
53.964900 2.241300
53.999400 2.231900
54.033900 2.181500
54.068400 2.143500
54.103000 2.121000
54.137500 2.103800
54.172000 2.001800
54.206500 1.987800
54.241000 1.962300
54.275500 1.944800
54.310000 1.910400
54.344600 1.916100
54.379100 1.875100
54.413600 1.864600
54.448100 1.892000
54.482600 1.918400
54.517100 1.920600
54.551600 1.904700
54.586100 1.840300
54.620700 1.850800
54.655200 1.877800
54.689700 1.899500
54.724200 1.977200
54.758700 1.915100
54.793200 1.948600
54.827700 2.005200
54.862300 2.029600
54.896800 2.055900
54.931300 2.074200
54.965800 2.084000
55.000300 2.105900
55.034800 2.113100
55.069300 2.092600
55.103800 2.002000
55.138400 1.943800
55.172900 1.959400
55.207400 1.987900
55.241900 1.954500
55.276400 1.917300
55.310900 1.928100
55.345400 1.957300
55.380000 1.946000
55.414500 1.970400
55.449000 2.006900
55.483500 2.066600
55.518000 2.126900
55.552500 2.167700
55.587000 2.216400
55.621500 2.250300
55.656100 2.262100
55.690600 2.265900
55.725100 2.269900
55.759600 2.339900
55.794100 2.404100
55.828600 2.383700
55.863100 2.350600
55.897700 2.379000
55.932200 2.347900
55.966700 2.302800
56.001200 2.210600
56.035700 2.295700
56.070200 2.252500
56.104700 2.268900
56.139200 2.246700
56.173800 2.295900
56.208300 2.408800
56.242800 2.569100
56.277300 2.634300
56.311800 2.700800
56.346300 2.712900
56.380800 2.761800
56.415400 2.767000
56.449900 2.591900
56.484400 2.469400
56.518900 2.424100
56.553400 2.345500
56.587900 2.246600
56.622400 2.141000
56.656900 2.050200
56.691500 1.947700
56.726000 1.905600
56.760500 1.937700
56.795000 1.952000
56.829500 1.975400
56.864000 2.029700
56.898500 2.119600
56.933100 2.225900
56.967600 2.357400
57.002100 2.454200
57.036600 2.458800
57.071100 2.348700
57.105600 2.268400
57.140100 2.275200
57.174600 2.153100
57.209200 1.926900
57.243700 1.768900
57.278200 1.645400
57.312700 1.547900
57.347200 1.449300
57.381700 1.349100
57.416200 1.222100
57.450800 1.150400
57.485300 1.089000
57.519800 1.011100
57.554300 0.963400
57.588800 0.926700
57.623300 0.930300
57.657800 0.931900
57.692300 0.906000
57.726900 0.889000
57.761400 0.833500
57.795900 0.775800
57.830400 0.725100
57.864900 0.689200
57.899400 0.712200
57.933900 0.739400
57.968500 0.814700
58.003000 0.899000
58.037500 1.054400
58.072000 0.817700
58.106500 0.675200
58.141000 0.733200
58.175500 0.547800
58.210000 0.536400
58.244600 0.534600
58.279100 0.507100
58.313600 0.447000
58.348100 0.386100
58.382600 0.337500
58.417100 0.305000
58.451600 0.244100
58.486200 0.225600
58.520700 0.211800
58.555200 0.202400
58.589700 0.196000
58.624200 0.189300
58.658700 0.179600
58.693200 0.168100
58.727700 0.168600
58.762300 0.165000
58.796800 0.155500
58.831300 0.153900
58.865800 0.126900
58.900300 0.096100
58.934800 0.082400
58.969300 0.071600
59.003900 0.063700
59.038400 0.066000
59.072900 0.027800
59.107400 0.014500
59.141900 0.006900
59.176400 0.001700
59.210900 0.000000
59.245400 0.000000
59.280000 0.000000
59.314500 0.000000
59.349000 0.000000
59.383500 0.000000
59.418000 0.000000
59.452500 0.000000
59.487000 0.000000
59.521500 0.000000
59.556100 0.000000
59.590600 0.000000
59.625100 0.000000
59.659600 0.000000
59.694100 0.000000
59.728600 0.000000
59.763100 0.000000
59.797700 0.000000
59.832200 0.000000
59.866700 0.000000
59.901200 0.000000
59.935700 0.000000
59.970200 0.000000
60.004700 0.000000
60.039200 0.000000
60.073800 0.000000
60.108300 0.000000
60.142800 0.000000
60.177300 0.000000
60.211800 0.000000
60.246300 0.000000
60.280800 0.000000
60.315400 0.000000
60.349900 0.000000
60.384400 0.000000
60.418900 0.000000
60.453400 0.000000
60.487900 0.000000
60.522400 0.000000
60.556900 0.000000
60.591500 0.000000
60.626000 0.000000
60.660500 0.000000
60.695000 0.000000
60.729500 0.000000
60.764000 0.000000
60.798500 0.000000
60.833100 0.000000
60.867600 0.000000
60.902100 0.000000
60.936600 0.000000
60.971100 0.000000
61.005600 0.000000
61.040100 0.000000
61.074600 0.000000
61.109200 0.000000
61.143700 0.000000
61.178200 0.000000
61.212700 0.000000
61.247200 0.000000
61.281700 0.000000
61.316200 0.000000
61.350800 0.000000
61.385300 0.000000
61.419800 0.000000
61.454300 0.000000
61.488800 0.000000
61.523300 0.000000
61.557800 0.000000
61.592300 0.000000
61.626900 0.000000
61.661400 0.000000
61.695900 0.000000
61.730400 0.000000
61.764900 0.000000
61.799400 0.000000
61.833900 0.000000
61.868500 0.000000
61.903000 0.000000
61.937500 0.000000
61.972000 0.000000
62.006500 0.000000
62.041000 0.000000
62.075500 0.000000
62.110000 0.000000
62.144600 0.000000
62.179100 0.000000
62.213600 0.000000
62.248100 0.000000
62.282600 0.000000
62.317100 0.000000
62.351600 0.000000
e
