set title 'mp-119 - Density of States'
set xlabel 'Energy (eV)'
set ylabel 'DOS (states/eV)'
set grid
set xrange [-10:10]
set yrange [0:1.886]
set xzeroaxis lt -1
set terminal png size 800,600
set output 'mp-119_dos_gnuplot.png'
plot '-' using 1:2 with lines title 'DOS'
-12.955100 0.000000
-12.928900 0.000000
-12.902800 0.000000
-12.876700 0.000000
-12.850500 0.000000
-12.824400 0.000000
-12.798200 0.000000
-12.772100 0.000000
-12.745900 0.000000
-12.719800 0.000000
-12.693600 0.000000
-12.667500 0.000000
-12.641300 0.000000
-12.615200 0.000000
-12.589000 0.000000
-12.562900 0.000000
-12.536700 0.000000
-12.510600 0.000000
-12.484400 0.000000
-12.458300 0.000000
-12.432100 0.000000
-12.406000 0.000000
-12.379800 0.000000
-12.353700 0.000000
-12.327500 0.000000
-12.301400 0.000000
-12.275200 0.000000
-12.249100 0.000000
-12.222900 0.000000
-12.196800 0.000000
-12.170600 0.000000
-12.144500 0.000000
-12.118300 0.000000
-12.092200 0.000000
-12.066000 0.000000
-12.039900 0.000000
-12.013700 0.000000
-11.987600 0.000000
-11.961400 0.000000
-11.935300 0.000000
-11.909100 0.000000
-11.883000 0.000000
-11.856800 0.000000
-11.830700 0.000000
-11.804500 0.000000
-11.778400 0.000000
-11.752200 0.000000
-11.726100 0.000000
-11.699900 0.000000
-11.673800 0.000000
-11.647600 0.000000
-11.621500 0.000000
-11.595300 0.000000
-11.569200 0.000000
-11.543000 0.000000
-11.516900 0.000000
-11.490700 0.000000
-11.464600 0.000000
-11.438400 0.000000
-11.412300 0.000000
-11.386100 0.000000
-11.360000 0.000000
-11.333900 0.000000
-11.307700 0.000000
-11.281600 0.000000
-11.255400 0.000000
-11.229300 0.000000
-11.203100 0.000000
-11.177000 0.000000
-11.150800 0.000000
-11.124700 0.000000
-11.098500 0.000000
-11.072400 0.000000
-11.046200 0.000000
-11.020100 0.000000
-10.993900 0.000000
-10.967800 0.000000
-10.941600 0.000000
-10.915500 0.000000
-10.889300 0.000000
-10.863200 0.000000
-10.837000 0.000000
-10.810900 0.000000
-10.784700 0.000000
-10.758600 0.000000
-10.732400 0.000000
-10.706300 0.000000
-10.680100 0.000000
-10.654000 0.000000
-10.627800 0.000000
-10.601700 0.000000
-10.575500 0.015000
-10.549400 0.031800
-10.523200 0.046800
-10.497100 0.058300
-10.470900 0.059900
-10.444800 0.068600
-10.418600 0.077900
-10.392500 0.084000
-10.366300 0.089100
-10.340200 0.091600
-10.314000 0.096100
-10.287900 0.102500
-10.261700 0.109500
-10.235600 0.114900
-10.209400 0.117600
-10.183300 0.120700
-10.157100 0.124400
-10.131000 0.128400
-10.104800 0.132700
-10.078700 0.137200
-10.052500 0.142100
-10.026400 0.146700
-10.000200 0.149900
-9.974100 0.152600
-9.947900 0.155700
-9.921800 0.158700
-9.895600 0.161700
-9.869500 0.165700
-9.843400 0.169900
-9.817200 0.174100
-9.791100 0.177300
-9.764900 0.180900
-9.738800 0.183900
-9.712600 0.186800
-9.686500 0.189700
-9.660300 0.192900
-9.634200 0.196300
-9.608000 0.199500
-9.581900 0.202700
-9.555700 0.205900
-9.529600 0.208900
-9.503400 0.212300
-9.477300 0.215900
-9.451100 0.219500
-9.425000 0.223000
-9.398800 0.225700
-9.372700 0.228500
-9.346500 0.231300
-9.320400 0.234400
-9.294200 0.237800
-9.268100 0.241300
-9.241900 0.244600
-9.215800 0.247700
-9.189600 0.250800
-9.163500 0.253800
-9.137300 0.257000
-9.111200 0.260300
-9.085000 0.264100
-9.058900 0.267900
-9.032700 0.270900
-9.006600 0.274200
-8.980400 0.277500
-8.954300 0.280900
-8.928100 0.284300
-8.902000 0.287600
-8.875800 0.290700
-8.849700 0.294200
-8.823500 0.297800
-8.797400 0.301500
-8.771200 0.305100
-8.745100 0.308900
-8.718900 0.312700
-8.692800 0.316500
-8.666600 0.320300
-8.640500 0.323900
-8.614300 0.327900
-8.588200 0.332100
-8.562000 0.336200
-8.535900 0.340200
-8.509700 0.344300
-8.483600 0.348400
-8.457400 0.352400
-8.431300 0.356600
-8.405100 0.360700
-8.379000 0.365100
-8.352900 0.369800
-8.326700 0.374800
-8.300600 0.379800
-8.274400 0.384800
-8.248300 0.389800
-8.222100 0.394900
-8.196000 0.400100
-8.169800 0.405400
-8.143700 0.410600
-8.117500 0.416400
-8.091400 0.422400
-8.065200 0.428300
-8.039100 0.434400
-8.012900 0.440800
-7.986800 0.447200
-7.960600 0.453600
-7.934500 0.460200
-7.908300 0.466900
-7.882200 0.474400
-7.856000 0.482300
-7.829900 0.490900
-7.803700 0.499600
-7.777600 0.508500
-7.751400 0.517800
-7.725300 0.527000
-7.699100 0.536600
-7.673000 0.547100
-7.646800 0.558800
-7.620700 0.570600
-7.594500 0.582900
-7.568400 0.596000
-7.542200 0.609400
-7.516100 0.623300
-7.489900 0.638300
-7.463800 0.655700
-7.437600 0.676600
-7.411500 0.699000
-7.385300 0.723000
-7.359200 0.749000
-7.333000 0.779400
-7.306900 0.819800
-7.280700 0.868900
-7.254600 0.929900
-7.228400 1.014800
-7.202300 1.085600
-7.176100 1.048200
-7.150000 1.039500
-7.123800 1.027500
-7.097700 1.016900
-7.071500 1.033000
-7.045400 1.060400
-7.019200 1.046700
-6.993100 1.038300
-6.966900 1.023300
-6.940800 1.013500
-6.914600 1.006900
-6.888500 1.007100
-6.862400 1.004200
-6.836200 1.032300
-6.810100 1.033600
-6.783900 1.022200
-6.757800 1.015300
-6.731600 0.998500
-6.705500 1.010400
-6.679300 1.048800
-6.653200 0.794500
-6.627000 0.669400
-6.600900 0.587200
-6.574700 0.476200
-6.548600 0.428200
-6.522400 0.405800
-6.496300 0.397000
-6.470100 0.380400
-6.444000 0.358100
-6.417800 0.338600
-6.391700 0.324800
-6.365500 0.312900
-6.339400 0.301800
-6.313200 0.289400
-6.287100 0.275700
-6.260900 0.266800
-6.234800 0.259000
-6.208600 0.251800
-6.182500 0.243900
-6.156300 0.235800
-6.130200 0.227800
-6.104000 0.219300
-6.077900 0.211500
-6.051700 0.204200
-6.025600 0.197300
-5.999400 0.190800
-5.973300 0.183500
-5.947100 0.177000
-5.921000 0.171800
-5.894800 0.166500
-5.868700 0.161000
-5.842500 0.156100
-5.816400 0.151200
-5.790200 0.146400
-5.764100 0.141800
-5.737900 0.136600
-5.711800 0.131600
-5.685600 0.127000
-5.659500 0.121600
-5.633300 0.116900
-5.607200 0.112800
-5.581000 0.108900
-5.554900 0.105300
-5.528700 0.101900
-5.502600 0.098200
-5.476400 0.094700
-5.450300 0.090100
-5.424100 0.086300
-5.398000 0.083000
-5.371900 0.078500
-5.345700 0.074200
-5.319600 0.070200
-5.293400 0.067300
-5.267300 0.065400
-5.241100 0.062400
-5.215000 0.057900
-5.188800 0.054500
-5.162700 0.050000
-5.136500 0.045600
-5.110400 0.041500
-5.084200 0.037500
-5.058100 0.037100
-5.031900 0.031500
-5.005800 0.023700
-4.979600 0.019200
-4.953500 0.012500
-4.927300 0.000000
-4.901200 0.000000
-4.875000 0.000000
-4.848900 0.000000
-4.822700 0.000000
-4.796600 0.000000
-4.770400 0.000000
-4.744300 0.000000
-4.718100 0.000000
-4.692000 0.000000
-4.665800 0.000000
-4.639700 0.000000
-4.613500 0.000000
-4.587400 0.000000
-4.561200 0.000000
-4.535100 0.000000
-4.508900 0.000000
-4.482800 0.000000
-4.456600 0.000000
-4.430500 0.000000
-4.404300 0.000000
-4.378200 0.000000
-4.352000 0.000000
-4.325900 0.000000
-4.299700 0.000000
-4.273600 0.000000
-4.247400 0.000000
-4.221300 0.000000
-4.195100 0.000000
-4.169000 0.000000
-4.142800 0.000000
-4.116700 0.000000
-4.090500 0.000000
-4.064400 0.000000
-4.038200 0.000000
-4.012100 0.000000
-3.985900 0.000000
-3.959800 0.000000
-3.933600 0.000000
-3.907500 0.000000
-3.881400 0.000000
-3.855200 0.000000
-3.829100 0.000000
-3.802900 0.000000
-3.776800 0.000000
-3.750600 0.000000
-3.724500 0.000000
-3.698300 0.000000
-3.672200 0.000000
-3.646000 0.000000
-3.619900 0.000000
-3.593700 0.000000
-3.567600 0.000000
-3.541400 0.000000
-3.515300 0.000000
-3.489100 0.000000
-3.463000 0.000000
-3.436800 0.000000
-3.410700 0.000000
-3.384500 0.000000
-3.358400 0.000000
-3.332200 0.000000
-3.306100 0.000000
-3.279900 0.000000
-3.253800 0.000000
-3.227600 0.000000
-3.201500 0.000000
-3.175300 0.000000
-3.149200 0.000000
-3.123000 0.000000
-3.096900 0.000000
-3.070700 0.000000
-3.044600 0.000000
-3.018400 0.000000
-2.992300 0.000000
-2.966100 0.000000
-2.940000 0.000000
-2.913800 0.000000
-2.887700 0.000000
-2.861500 0.000000
-2.835400 0.000000
-2.809200 0.000000
-2.783100 0.000000
-2.756900 0.000000
-2.730800 0.000000
-2.704600 0.000000
-2.678500 0.000000
-2.652300 0.000000
-2.626200 0.000000
-2.600000 0.000000
-2.573900 0.000000
-2.547700 0.000000
-2.521600 0.000000
-2.495400 0.000000
-2.469300 0.000000
-2.443100 0.000000
-2.417000 0.000000
-2.390900 0.000000
-2.364700 0.000000
-2.338600 0.000000
-2.312400 0.000000
-2.286300 0.000000
-2.260100 0.000000
-2.234000 0.000000
-2.207800 0.000000
-2.181700 0.000000
-2.155500 0.000000
-2.129400 0.000000
-2.103200 0.000000
-2.077100 0.000000
-2.050900 0.000000
-2.024800 0.000000
-1.998600 0.000000
-1.972500 0.000000
-1.946300 0.000000
-1.920200 0.000000
-1.894000 0.000000
-1.867900 0.000000
-1.841700 0.000000
-1.815600 0.000000
-1.789400 0.000000
-1.763300 0.000000
-1.737100 0.000000
-1.711000 0.000000
-1.684800 0.000000
-1.658700 0.000000
-1.632500 0.000000
-1.606400 0.000000
-1.580200 0.000000
-1.554100 0.000000
-1.527900 0.000000
-1.501800 0.000000
-1.475600 0.000000
-1.449500 0.000000
-1.423300 0.000000
-1.397200 0.000000
-1.371000 0.000000
-1.344900 0.000000
-1.318700 0.000000
-1.292600 0.000000
-1.266400 0.000000
-1.240300 0.000000
-1.214100 0.000000
-1.188000 0.000000
-1.161800 0.000000
-1.135700 0.000000
-1.109500 0.005700
-1.083400 0.056100
-1.057200 0.087300
-1.031100 0.110400
-1.004900 0.134500
-0.978800 0.162900
-0.952600 0.193500
-0.926500 0.206900
-0.900400 0.221700
-0.874200 0.220500
-0.848100 0.234400
-0.821900 0.250800
-0.795800 0.269800
-0.769600 0.287700
-0.743500 0.302500
-0.717300 0.310300
-0.691200 0.322100
-0.665000 0.335700
-0.638900 0.346300
-0.612700 0.354800
-0.586600 0.365400
-0.560400 0.377700
-0.534300 0.392500
-0.508100 0.405400
-0.482000 0.417900
-0.455800 0.428300
-0.429700 0.435800
-0.403500 0.448400
-0.377400 0.462300
-0.351200 0.474800
-0.325100 0.486600
-0.298900 0.500800
-0.272800 0.514400
-0.246600 0.528200
-0.220500 0.540500
-0.194300 0.551700
-0.168200 0.565000
-0.142000 0.581600
-0.115900 0.596500
-0.089700 0.609900
-0.063600 0.625400
-0.037400 0.642700
-0.011300 0.662200
0.014900 0.684500
0.041000 0.710100
0.067200 0.739900
0.093300 0.775000
0.119500 0.815500
0.145600 0.857300
0.171800 0.928800
0.197900 1.010400
0.224100 1.042400
0.250200 0.997200
0.276400 0.963700
0.302500 0.953700
0.328700 0.942500
0.354800 0.946400
0.381000 0.939400
0.407100 0.935300
0.433300 0.921300
0.459400 0.893100
0.485600 0.873300
0.511700 0.842500
0.537900 0.756800
0.564000 0.726000
0.590100 0.699100
0.616300 0.676500
0.642400 0.655700
0.668600 0.638000
0.694700 0.621500
0.720900 0.610800
0.747000 0.600800
0.773200 0.591900
0.799300 0.584100
0.825500 0.576700
0.851600 0.569200
0.877800 0.561100
0.903900 0.550300
0.930100 0.539500
0.956200 0.529200
0.982400 0.518500
1.008500 0.510300
1.034700 0.504300
1.060800 0.500000
1.087000 0.501100
1.113100 0.496900
1.139300 0.511400
1.165400 0.515800
1.191600 0.504400
1.217700 0.504100
1.243900 0.505400
1.270000 0.506700
1.296200 0.508000
1.322300 0.508100
1.348500 0.507400
1.374600 0.508000
1.400800 0.504900
1.426900 0.508900
1.453100 0.510700
1.479200 0.512700
1.505400 0.514300
1.531500 0.515700
1.557700 0.524400
1.583800 0.523200
1.610000 0.529100
1.636100 0.532600
1.662300 0.536900
1.688400 0.541000
1.714600 0.548800
1.740700 0.545400
1.766900 0.571800
1.793000 0.543400
1.819200 0.538000
1.845300 0.531700
1.871500 0.527600
1.897600 0.524200
1.923800 0.521700
1.949900 0.520400
1.976100 0.519900
2.002200 0.527300
2.028400 0.533800
2.054500 0.528800
2.080600 0.531700
2.106800 0.533800
2.132900 0.535300
2.159100 0.550900
2.185200 0.572000
2.211400 0.572300
2.237500 0.583800
2.263700 0.599600
2.289800 0.607700
2.316000 0.619300
2.342100 0.636100
2.368300 0.622400
2.394400 0.626700
2.420600 0.629600
2.446700 0.642600
2.472900 0.622900
2.499000 0.622400
2.525200 0.622400
2.551300 0.627400
2.577500 0.629100
2.603600 0.628600
2.629800 0.637200
2.655900 0.638700
2.682100 0.640800
2.708200 0.642400
2.734400 0.656800
2.760500 0.650800
2.786700 0.647400
2.812800 0.644300
2.839000 0.635700
2.865100 0.636600
2.891300 0.638200
2.917400 0.640100
2.943600 0.641600
2.969700 0.643000
2.995900 0.646900
3.022000 0.648800
3.048200 0.650300
3.074300 0.650300
3.100500 0.650900
3.126600 0.652100
3.152800 0.652800
3.178900 0.660200
3.205100 0.657300
3.231200 0.656600
3.257400 0.658700
3.283500 0.660800
3.309700 0.649500
3.335800 0.649200
3.362000 0.649200
3.388100 0.649400
3.414300 0.654300
3.440400 0.658300
3.466600 0.657800
3.492700 0.657500
3.518900 0.658300
3.545000 0.659700
3.571100 0.661100
3.597300 0.661000
3.623400 0.662200
3.649600 0.662500
3.675700 0.664200
3.701900 0.667600
3.728000 0.676300
3.754200 0.677600
3.780300 0.673900
3.806500 0.673400
3.832600 0.683900
3.858800 0.668200
3.884900 0.669800
3.911100 0.676400
3.937200 0.674000
3.963400 0.673800
3.989500 0.674400
4.015700 0.675400
4.041800 0.676500
4.068000 0.677200
4.094100 0.678000
4.120300 0.678900
4.146400 0.679900
4.172600 0.680600
4.198700 0.682100
4.224900 0.683600
4.251000 0.685200
4.277200 0.687000
4.303300 0.688800
4.329500 0.690500
4.355600 0.693700
4.381800 0.707400
4.407900 0.717800
4.434100 0.720500
4.460200 0.721200
4.486400 0.705600
4.512500 0.706700
4.538700 0.707700
4.564800 0.708500
4.591000 0.709300
4.617100 0.710100
4.643300 0.710900
4.669400 0.712000
4.695600 0.713400
4.721700 0.715000
4.747900 0.717000
4.774000 0.719200
4.800200 0.721500
4.826300 0.723900
4.852500 0.737700
4.878600 0.736700
4.904800 0.736300
4.930900 0.737600
4.957100 0.739500
4.983200 0.742800
5.009400 0.744700
5.035500 0.746200
5.061700 0.747600
5.087800 0.759100
5.113900 0.776200
5.140100 0.765400
5.166200 0.760900
5.192400 0.760200
5.218500 0.775700
5.244700 0.779100
5.270800 0.781300
5.297000 0.783600
5.323100 0.785400
5.349300 0.788800
5.375400 0.786400
5.401600 0.779700
5.427700 0.772200
5.453900 0.745700
5.480000 0.735000
5.506200 0.727600
5.532300 0.712700
5.558500 0.709400
5.584600 0.706600
5.610800 0.704000
5.636900 0.701200
5.663100 0.697900
5.689200 0.696700
5.715400 0.689400
5.741500 0.694100
5.767700 0.697800
5.793800 0.698700
5.820000 0.698800
5.846100 0.699200
5.872300 0.701200
5.898400 0.703400
5.924600 0.706400
5.950700 0.709100
5.976900 0.710200
6.003000 0.710100
6.029200 0.712200
6.055300 0.715600
6.081500 0.720100
6.107600 0.725300
6.133800 0.730600
6.159900 0.736400
6.186100 0.741900
6.212200 0.747000
6.238400 0.753300
6.264500 0.759400
6.290700 0.765500
6.316800 0.771600
6.343000 0.777500
6.369100 0.789200
6.395300 0.800400
6.421400 0.812800
6.447600 0.826700
6.473700 0.842100
6.499900 0.859700
6.526000 0.879600
6.552200 0.904800
6.578300 0.932800
6.604400 0.959600
6.630600 0.987200
6.656700 1.017100
6.682900 1.055800
6.709000 1.114600
6.735200 1.177100
6.761300 1.241900
6.787500 1.313000
6.813600 1.414200
6.839800 1.549100
6.865900 1.714500
6.892100 1.551300
6.918200 1.295900
6.944400 1.118400
6.970500 1.048300
6.996700 1.033300
7.022800 0.952300
7.049000 0.915700
7.075100 0.897000
7.101300 0.876300
7.127400 0.848600
7.153600 0.821500
7.179700 0.803300
7.205900 0.784500
7.232000 0.766200
7.258200 0.751500
7.284300 0.733000
7.310500 0.712600
7.336600 0.694100
7.362800 0.681000
7.388900 0.670600
7.415100 0.667200
7.441200 0.653900
7.467400 0.629300
7.493500 0.581400
7.519700 0.542000
7.545800 0.520200
7.572000 0.499000
7.598100 0.472100
7.624300 0.451500
7.650400 0.430100
7.676600 0.414400
7.702700 0.402600
7.728900 0.387300
7.755000 0.367700
7.781200 0.354300
7.807300 0.340500
7.833500 0.327600
7.859600 0.312400
7.885800 0.293700
7.911900 0.286700
7.938100 0.274100
7.964200 0.261300
7.990400 0.245100
8.016500 0.227800
8.042700 0.216900
8.068800 0.207400
8.094900 0.192400
8.121100 0.175900
8.147200 0.163000
8.173400 0.149500
8.199500 0.125200
8.225700 0.114000
8.251800 0.123400
8.278000 0.096600
8.304100 0.000000
8.330300 0.000000
8.356400 0.000000
8.382600 0.000000
8.408700 0.000000
8.434900 0.000000
8.461000 0.000000
8.487200 0.000000
8.513300 0.000000
8.539500 0.000000
8.565600 0.000000
8.591800 0.000000
8.617900 0.000000
8.644100 0.000000
8.670200 0.000000
8.696400 0.000000
8.722500 0.000000
8.748700 0.000000
8.774800 0.000000
8.801000 0.000000
8.827100 0.000000
8.853300 0.000000
8.879400 0.000000
8.905600 0.000000
8.931700 0.000000
8.957900 0.000000
8.984000 0.000000
9.010200 0.000000
9.036300 0.000000
9.062500 0.000000
9.088600 0.000000
9.114800 0.000000
9.140900 0.000000
9.167100 0.000000
9.193200 0.000000
9.219400 0.000000
9.245500 0.000000
9.271700 0.000000
9.297800 0.000000
9.324000 0.000000
9.350100 0.000000
9.376300 0.000000
9.402400 0.000000
9.428600 0.000000
9.454700 0.000000
9.480900 0.000000
9.507000 0.000000
9.533200 0.000000
9.559300 0.000000
9.585400 0.004200
9.611600 0.006200
9.637700 0.008500
9.663900 0.011300
9.690000 0.014400
9.716200 0.023800
9.742300 0.028700
9.768500 0.049000
9.794600 0.035600
9.820800 0.034100
9.846900 0.036600
9.873100 0.039100
9.899200 0.041600
9.925400 0.044200
9.951500 0.046700
9.977700 0.049300
10.003800 0.052900
10.030000 0.058700
10.056100 0.061600
10.082300 0.059100
10.108400 0.058800
10.134600 0.058900
10.160700 0.059000
10.186900 0.059900
10.213000 0.061900
10.239200 0.063900
10.265300 0.065900
10.291500 0.067900
10.317600 0.069900
10.343800 0.071900
10.369900 0.073900
10.396100 0.075900
10.422200 0.078200
10.448400 0.080700
10.474500 0.082600
10.500700 0.083500
10.526800 0.084200
10.553000 0.084700
10.579100 0.084500
10.605300 0.085100
10.631400 0.085200
10.657600 0.086500
10.683700 0.087900
10.709900 0.089400
10.736000 0.090900
10.762200 0.092400
10.788300 0.093900
10.814500 0.095500
10.840600 0.097100
10.866800 0.098700
10.892900 0.100400
10.919100 0.102100
10.945200 0.103800
10.971400 0.105600
10.997500 0.107100
11.023700 0.108400
11.049800 0.109600
11.075900 0.110800
11.102100 0.111700
11.128200 0.112700
11.154400 0.113700
11.180500 0.114500
11.206700 0.115200
11.232800 0.115700
11.259000 0.116700
11.285100 0.117500
11.311300 0.118800
11.337400 0.120200
11.363600 0.121600
11.389700 0.123100
11.415900 0.124600
11.442000 0.126200
11.468200 0.127800
11.494300 0.129400
11.520500 0.131100
11.546600 0.132800
11.572800 0.134400
11.598900 0.136000
11.625100 0.137200
11.651200 0.137900
11.677400 0.139200
11.703500 0.140500
11.729700 0.141700
11.755800 0.143000
11.782000 0.144200
11.808100 0.145300
11.834300 0.146300
11.860400 0.147400
11.886600 0.148400
11.912700 0.149500
11.938900 0.150500
11.965000 0.151400
11.991200 0.152300
12.017300 0.153500
12.043500 0.154700
12.069600 0.156100
12.095800 0.157600
12.121900 0.159400
12.148100 0.160900
12.174200 0.162300
12.200400 0.164000
12.226500 0.165700
12.252700 0.167400
12.278800 0.169100
12.305000 0.170900
12.331100 0.172700
12.357300 0.174300
12.383400 0.175500
12.409600 0.189200
12.435700 0.199500
12.461900 0.211100
12.488000 0.224100
12.514200 0.238400
12.540300 0.249400
12.566400 0.256000
12.592600 0.264200
12.618700 0.272300
12.644900 0.280300
12.671000 0.289400
12.697200 0.297500
12.723300 0.305100
12.749500 0.318800
12.775600 0.326300
12.801800 0.336400
12.827900 0.346200
12.854100 0.355400
12.880200 0.364200
12.906400 0.374200
12.932500 0.385800
12.958700 0.397800
12.984800 0.410000
13.011000 0.423000
13.037100 0.431300
13.063300 0.446700
13.089400 0.462100
13.115600 0.472200
13.141700 0.484000
13.167900 0.496100
13.194000 0.510900
13.220200 0.527000
13.246300 0.543600
13.272500 0.561200
13.298600 0.579000
13.324800 0.598800
13.350900 0.623500
13.377100 0.652600
13.403200 0.683700
13.429400 0.726300
13.455500 0.771800
13.481700 0.821100
13.507800 0.943000
13.534000 0.987400
13.560100 0.935200
13.586300 0.884100
13.612400 0.830900
13.638600 0.801100
13.664700 0.776100
13.690900 0.763700
13.717000 0.757700
13.743200 0.751900
13.769300 0.743400
13.795500 0.738600
13.821600 0.740600
13.847800 0.768000
13.873900 0.784700
13.900100 0.796600
13.926200 0.800900
13.952400 0.801800
13.978500 0.809900
14.004700 0.829600
14.030800 0.850900
14.056900 0.870500
14.083100 0.895300
14.109200 0.915400
14.135400 0.945900
14.161500 1.038700
14.187700 1.017200
14.213800 0.964700
14.240000 0.930100
14.266100 0.898700
14.292300 0.903300
14.318400 0.814200
14.344600 0.788600
14.370700 0.769800
14.396900 0.761900
14.423000 0.736200
14.449200 0.731300
14.475300 0.726500
14.501500 0.720800
14.527600 0.714100
14.553800 0.708500
14.579900 0.705000
14.606100 0.702400
14.632200 0.700100
14.658400 0.697500
14.684500 0.694000
14.710700 0.687800
14.736800 0.681800
14.763000 0.684200
14.789100 0.684600
14.815300 0.686900
14.841400 0.692100
14.867600 0.700800
14.893700 0.712400
14.919900 0.725400
14.946000 0.736000
14.972200 0.753900
14.998300 0.780900
15.024500 0.815600
15.050600 0.839600
15.076800 0.865400
15.102900 0.891200
15.129100 0.916800
15.155200 0.941000
15.181400 0.963000
15.207500 0.984700
15.233700 1.005400
15.259800 1.029500
15.286000 1.053500
15.312100 1.085400
15.338300 1.124500
15.364400 1.168400
15.390600 1.192900
15.416700 1.214800
15.442900 1.242100
15.469000 1.265700
15.495200 1.281000
15.521300 1.288000
15.547400 1.285200
15.573600 1.272400
15.599700 1.244300
15.625900 1.228500
15.652000 1.209500
15.678200 1.190900
15.704300 1.181000
15.730500 1.170100
15.756600 1.159500
15.782800 1.145800
15.808900 1.139100
15.835100 1.132700
15.861200 1.124600
15.887400 1.119000
15.913500 1.102700
15.939700 1.082100
15.965800 1.089600
15.992000 1.061300
16.018100 0.970200
16.044300 0.939700
16.070400 0.914200
16.096600 0.894400
16.122700 0.878600
16.148900 0.861700
16.175000 0.840800
16.201200 0.819700
16.227300 0.795800
16.253500 0.770700
16.279600 0.739300
16.305800 0.711300
16.331900 0.686800
16.358100 0.666300
16.384200 0.650000
16.410400 0.636700
16.436500 0.625800
16.462700 0.615600
16.488800 0.605300
16.515000 0.595900
16.541100 0.586800
16.567300 0.579100
16.593400 0.571200
16.619600 0.570200
16.645700 0.566700
16.671900 0.569600
16.698000 0.556900
16.724200 0.553500
16.750300 0.550000
16.776500 0.550800
16.802600 0.559200
16.828800 0.574900
16.854900 0.569600
16.881100 0.496400
16.907200 0.487600
16.933400 0.478600
16.959500 0.466100
16.985700 0.460600
17.011800 0.455300
17.037900 0.451000
17.064100 0.448000
17.090200 0.446900
17.116400 0.451300
17.142500 0.464400
17.168700 0.479300
17.194800 0.493700
17.221000 0.516000
17.247100 0.527800
17.273300 0.537400
17.299400 0.549700
17.325600 0.559000
17.351700 0.569000
17.377900 0.577000
17.404000 0.582400
17.430200 0.588900
17.456300 0.595000
17.482500 0.597800
17.508600 0.619000
17.534800 0.642100
17.560900 0.652200
17.587100 0.663300
17.613200 0.689400
17.639400 0.704800
17.665500 0.716300
17.691700 0.723600
17.717800 0.726400
17.744000 0.706800
17.770100 0.691100
17.796300 0.697500
17.822400 0.694800
17.848600 0.701700
17.874700 0.695500
17.900900 0.694700
17.927000 0.690600
17.953200 0.681200
17.979300 0.670900
18.005500 0.663000
18.031600 0.659800
18.057800 0.659000
18.083900 0.659900
18.110100 0.674000
18.136200 0.672800
18.162400 0.694900
18.188500 0.667200
18.214700 0.660800
18.240800 0.658300
18.267000 0.656100
18.293100 0.656200
18.319300 0.661900
18.345400 0.671700
18.371600 0.679200
18.397700 0.691100
18.423900 0.661500
18.450000 0.661700
18.476200 0.663700
18.502300 0.659300
18.528400 0.651200
18.554600 0.646000
18.580700 0.641700
18.606900 0.641000
18.633000 0.643400
18.659200 0.644600
18.685300 0.647800
18.711500 0.653200
18.737600 0.659400
18.763800 0.661500
18.789900 0.666600
18.816100 0.673700
18.842200 0.677400
18.868400 0.668800
18.894500 0.657000
18.920700 0.666800
18.946800 0.664600
18.973000 0.662400
18.999100 0.665000
19.025300 0.669500
19.051400 0.675300
19.077600 0.682300
19.103700 0.692400
19.129900 0.684100
19.156000 0.681800
19.182200 0.677200
19.208300 0.677100
19.234500 0.677300
19.260600 0.672500
19.286800 0.678200
19.312900 0.680400
19.339100 0.681200
19.365200 0.683900
19.391400 0.684100
19.417500 0.685800
19.443700 0.684100
19.469800 0.690700
19.496000 0.698400
19.522100 0.707100
19.548300 0.718900
19.574400 0.751100
19.600600 0.785900
19.626700 0.766100
19.652900 0.788700
19.679000 0.802900
19.705200 0.806400
19.731300 0.810600
19.757500 0.813100
19.783600 0.813000
19.809800 0.816600
19.835900 0.831600
19.862100 0.853100
19.888200 0.880900
19.914400 0.905300
19.940500 0.919400
19.966700 0.899400
19.992800 0.886000
20.018900 0.881000
20.045100 0.879400
20.071200 0.877700
20.097400 0.885300
20.123500 0.887500
20.149700 0.871400
20.175800 0.869800
20.202000 0.867800
20.228100 0.867400
20.254300 0.871400
20.280400 0.879800
20.306600 0.904100
20.332700 0.886500
20.358900 0.887200
20.385000 0.887700
20.411200 0.892000
20.437300 0.896800
20.463500 0.900100
20.489600 0.902300
20.515800 0.908300
20.541900 0.912400
20.568100 0.915400
20.594200 0.921700
20.620400 0.930700
20.646500 0.924700
20.672700 0.924400
20.698800 0.914800
20.725000 0.907500
20.751100 0.901900
20.777300 0.903700
20.803400 0.899300
20.829600 0.897200
20.855700 0.896900
20.881900 0.902800
20.908000 0.903100
20.934200 0.910300
20.960300 0.909600
20.986500 0.901300
21.012600 0.890100
21.038800 0.882100
21.064900 0.879200
21.091100 0.884800
21.117200 0.887300
21.143400 0.891400
21.169500 0.894300
21.195700 0.897200
21.221800 0.901100
21.248000 0.911200
21.274100 0.922900
21.300300 0.925000
21.326400 0.924000
21.352600 0.916800
21.378700 0.909100
21.404900 0.909300
21.431000 0.910800
21.457200 0.910600
21.483300 0.904300
21.509400 0.892200
21.535600 0.881400
21.561700 0.867800
21.587900 0.849700
21.614000 0.843400
21.640200 0.835700
21.666300 0.831800
21.692500 0.828200
21.718600 0.824100
21.744800 0.820900
21.770900 0.818200
21.797100 0.814100
21.823200 0.811300
21.849400 0.809100
21.875500 0.807600
21.901700 0.805600
21.927800 0.802600
21.954000 0.800800
21.980100 0.800800
22.006300 0.800400
22.032400 0.802300
22.058600 0.795700
22.084700 0.789900
22.110900 0.783500
22.137000 0.781300
22.163200 0.776000
22.189300 0.771700
22.215500 0.769600
22.241600 0.768400
22.267800 0.759000
22.293900 0.754300
22.320100 0.749500
22.346200 0.746600
22.372400 0.745500
22.398500 0.751600
22.424700 0.747900
22.450800 0.746400
22.477000 0.741600
22.503100 0.741000
22.529300 0.741300
22.555400 0.741500
22.581600 0.744000
22.607700 0.744800
22.633900 0.745200
22.660000 0.751700
22.686200 0.753300
22.712300 0.749300
22.738500 0.748400
22.764600 0.748300
22.790800 0.749400
22.816900 0.749900
22.843100 0.753300
22.869200 0.745400
22.895400 0.742300
22.921500 0.739200
22.947700 0.734200
22.973800 0.729900
23.000000 0.729200
23.026100 0.723200
23.052200 0.723900
23.078400 0.723300
23.104500 0.721800
23.130700 0.722800
23.156800 0.727400
23.183000 0.725900
23.209100 0.719600
23.235300 0.713500
23.261400 0.704400
23.287600 0.697400
23.313700 0.691900
23.339900 0.689300
23.366000 0.687500
23.392200 0.683000
23.418300 0.698500
23.444500 0.664900
23.470600 0.687900
23.496800 0.622100
23.522900 0.618800
23.549100 0.615300
23.575200 0.612600
23.601400 0.622300
23.627500 0.607700
23.653700 0.595400
23.679800 0.589900
23.706000 0.589100
23.732100 0.591100
23.758300 0.593600
23.784400 0.598500
23.810600 0.598600
23.836700 0.603800
23.862900 0.615000
23.889000 0.625400
23.915200 0.637500
23.941300 0.645100
23.967500 0.655900
23.993600 0.668500
24.019800 0.691200
24.045900 0.704500
24.072100 0.720300
24.098200 0.737700
24.124400 0.754600
24.150500 0.766900
24.176700 0.776600
24.202800 0.785500
24.229000 0.794700
24.255100 0.791000
24.281300 0.794500
24.307400 0.804700
24.333600 0.820200
24.359700 0.844900
24.385900 0.837400
24.412000 0.848100
24.438200 0.859900
24.464300 0.875300
24.490500 0.883200
24.516600 0.912600
24.542700 0.916000
24.568900 0.938000
24.595000 0.962700
24.621200 0.987800
24.647300 1.008700
24.673500 1.024700
24.699600 1.048100
24.725800 1.079400
24.751900 1.103800
24.778100 1.125300
24.804200 1.122600
24.830400 0.962300
24.856500 0.876500
24.882700 0.811800
24.908800 0.765800
24.935000 0.738600
24.961100 0.718200
24.987300 0.694500
25.013400 0.683300
25.039600 0.680700
25.065700 0.679700
25.091900 0.677000
25.118000 0.676900
25.144200 0.679800
25.170300 0.680100
25.196500 0.685900
25.222600 0.690600
25.248800 0.693200
25.274900 0.695200
25.301100 0.700000
25.327200 0.703400
25.353400 0.706500
25.379500 0.705800
25.405700 0.703000
25.431800 0.699100
25.458000 0.702000
25.484100 0.705700
25.510300 0.710200
25.536400 0.716400
25.562600 0.722300
25.588700 0.731000
25.614900 0.736400
25.641000 0.747200
25.667200 0.754800
25.693300 0.762700
25.719500 0.770000
25.745600 0.785300
25.771800 0.801800
25.797900 0.818700
25.824100 0.835000
25.850200 0.851200
25.876400 0.865600
25.902500 0.877000
25.928700 0.889600
25.954800 0.901000
25.981000 0.909800
26.007100 0.915100
26.033200 0.920700
26.059400 0.919100
26.085500 0.909000
26.111700 0.900400
26.137800 0.892500
26.164000 0.882900
26.190100 0.873300
26.216300 0.865200
26.242400 0.858100
26.268600 0.851600
26.294700 0.845600
26.320900 0.838700
26.347000 0.834300
26.373200 0.846000
26.399300 0.837400
26.425500 0.826500
26.451600 0.811400
26.477800 0.804000
26.503900 0.798000
26.530100 0.793200
26.556200 0.789200
26.582400 0.785800
26.608500 0.784600
26.634700 0.782300
26.660800 0.778200
26.687000 0.776000
26.713100 0.774300
26.739300 0.774400
26.765400 0.776400
26.791600 0.771800
26.817700 0.761300
26.843900 0.760400
26.870000 0.759600
26.896200 0.758400
26.922300 0.755500
26.948500 0.747500
26.974600 0.739800
27.000800 0.726400
27.026900 0.715700
27.053100 0.717000
27.079200 0.719400
27.105400 0.728800
27.131500 0.724900
27.157700 0.730400
27.183800 0.736700
27.210000 0.743400
27.236100 0.750900
27.262300 0.757300
27.288400 0.761600
27.314600 0.766900
27.340700 0.772600
27.366900 0.779200
27.393000 0.791400
27.419200 0.806400
27.445300 0.824200
27.471500 0.847400
27.497600 0.874600
27.523700 0.886700
27.549900 0.901600
27.576000 0.897400
27.602200 0.889600
27.628300 0.876800
27.654500 0.869500
27.680600 0.857600
27.706800 0.845100
27.732900 0.832200
27.759100 0.859300
27.785200 0.789300
27.811400 0.750900
27.837500 0.728000
27.863700 0.709500
27.889800 0.693800
27.916000 0.679800
27.942100 0.668500
27.968300 0.659500
27.994400 0.654000
28.020600 0.656300
28.046700 0.687500
28.072900 0.659800
28.099000 0.651200
28.125200 0.650200
28.151300 0.651200
28.177500 0.656100
28.203600 0.681700
28.229800 0.725900
28.255900 0.840500
28.282100 0.868700
28.308200 0.889800
28.334400 0.906900
28.360500 0.917100
28.386700 0.928000
28.412800 0.929500
28.439000 0.943400
28.465100 0.940100
28.491300 0.943000
28.517400 0.950000
28.543600 0.952900
28.569700 0.952700
28.595900 0.954800
28.622000 0.955600
28.648200 0.975500
28.674300 0.995800
28.700500 0.950400
28.726600 0.924000
28.752800 0.902600
28.778900 0.885000
28.805100 0.903700
28.831200 0.823800
28.857400 0.819900
28.883500 0.826000
28.909700 0.827600
28.935800 0.825400
28.962000 0.822200
28.988100 0.816400
29.014200 0.809300
29.040400 0.805700
29.066500 0.802700
29.092700 0.800800
29.118800 0.801300
29.145000 0.802500
29.171100 0.818800
29.197300 0.810100
29.223400 0.808800
29.249600 0.812100
29.275700 0.836400
29.301900 0.844400
29.328000 0.848600
29.354200 0.865100
29.380300 0.880200
29.406500 0.907000
29.432600 0.915300
29.458800 0.910200
29.484900 0.911500
29.511100 0.907100
29.537200 0.890700
29.563400 0.879000
29.589500 0.870800
29.615700 0.865200
29.641800 0.862500
29.668000 0.859200
29.694100 0.854400
29.720300 0.851700
29.746400 0.849000
29.772600 0.846200
29.798700 0.843300
29.824900 0.841100
29.851000 0.840800
29.877200 0.840200
29.903300 0.837200
29.929500 0.835900
29.955600 0.837000
29.981800 0.838200
30.007900 0.840500
30.034100 0.843200
30.060200 0.831700
30.086400 0.803900
30.112500 0.797100
30.138700 0.783100
30.164800 0.757900
30.191000 0.741500
30.217100 0.722500
30.243300 0.700500
30.269400 0.677900
30.295600 0.653100
30.321700 0.631700
30.347900 0.634400
30.374000 0.592300
30.400200 0.585800
30.426300 0.579400
30.452500 0.588400
30.478600 0.581700
30.504700 0.567900
30.530900 0.555000
30.557000 0.559500
30.583200 0.549100
30.609300 0.540700
30.635500 0.532700
30.661600 0.531600
30.687800 0.529600
30.713900 0.529000
30.740100 0.529400
30.766200 0.530500
30.792400 0.532100
30.818500 0.534600
30.844700 0.537100
30.870800 0.539700
30.897000 0.542200
30.923100 0.544400
30.949300 0.546700
30.975400 0.558000
31.001600 0.565300
31.027700 0.573200
31.053900 0.581500
31.080000 0.589600
31.106200 0.597200
31.132300 0.603300
31.158500 0.608200
31.184600 0.612300
31.210800 0.612300
31.236900 0.609500
31.263100 0.616900
31.289200 0.615300
31.315400 0.615300
31.341500 0.614400
31.367700 0.613600
31.393800 0.617300
31.420000 0.622100
31.446100 0.626800
31.472300 0.631600
31.498400 0.636000
31.524600 0.644300
31.550700 0.645800
31.576900 0.647200
31.603000 0.647400
31.629200 0.646600
31.655300 0.645200
31.681500 0.642600
31.707600 0.638700
31.733800 0.634200
31.759900 0.628500
31.786100 0.620600
31.812200 0.594500
31.838400 0.586300
31.864500 0.581900
31.890700 0.579700
31.916800 0.579500
31.943000 0.580000
31.969100 0.581400
31.995200 0.591500
32.021400 0.607700
32.047500 0.630200
32.073700 0.653400
32.099800 0.674700
32.126000 0.689700
32.152100 0.697100
32.178300 0.695900
32.204400 0.667200
32.230600 0.637500
32.256700 0.612500
32.282900 0.586500
32.309000 0.566600
32.335200 0.550600
32.361300 0.535400
32.387500 0.520300
32.413600 0.506300
32.439800 0.497600
32.465900 0.490700
32.492100 0.486000
32.518200 0.479800
32.544400 0.471500
32.570500 0.464000
32.596700 0.462000
32.622800 0.451500
32.649000 0.441400
32.675100 0.430300
32.701300 0.423100
32.727400 0.415800
32.753600 0.408100
32.779700 0.399800
32.805900 0.391600
32.832000 0.381100
32.858200 0.371200
32.884300 0.362100
32.910500 0.353400
32.936600 0.344600
32.962800 0.336500
32.988900 0.327600
33.015100 0.322700
33.041200 0.303900
33.067400 0.296600
33.093500 0.290200
33.119700 0.284800
33.145800 0.280500
33.172000 0.277000
33.198100 0.274200
33.224300 0.272200
33.250400 0.270400
33.276600 0.268500
33.302700 0.266300
33.328900 0.264000
33.355000 0.261400
33.381200 0.258000
33.407300 0.252800
33.433500 0.247500
33.459600 0.243200
33.485700 0.241100
33.511900 0.239000
33.538000 0.236400
33.564200 0.233800
33.590300 0.233200
33.616500 0.231800
33.642600 0.229800
33.668800 0.228000
33.694900 0.226300
33.721100 0.221000
33.747200 0.218200
33.773400 0.215500
33.799500 0.212900
33.825700 0.210300
33.851800 0.207600
33.878000 0.205000
33.904100 0.202500
33.930300 0.200000
33.956400 0.197500
33.982600 0.195000
34.008700 0.192700
34.034900 0.190500
34.061000 0.188200
34.087200 0.185900
34.113300 0.183700
34.139500 0.181700
34.165600 0.180000
34.191800 0.177600
34.217900 0.175800
34.244100 0.174100
34.270200 0.172600
34.296400 0.171100
34.322500 0.169800
34.348700 0.168600
34.374800 0.167400
34.401000 0.166300
34.427100 0.165100
34.453300 0.163700
34.479400 0.162200
34.505600 0.160700
34.531700 0.159000
34.557900 0.157400
34.584000 0.155700
34.610200 0.153900
34.636300 0.153800
34.662500 0.152300
34.688600 0.154700
34.714800 0.149100
34.740900 0.147600
34.767100 0.145800
34.793200 0.143600
34.819400 0.141000
34.845500 0.138100
34.871700 0.129200
34.897800 0.121000
34.924000 0.115000
34.950100 0.111200
34.976200 0.108900
35.002400 0.111200
35.028500 0.103500
35.054700 0.095700
35.080800 0.087400
35.107000 0.077700
35.133100 0.072700
35.159300 0.069200
35.185400 0.066000
35.211600 0.063000
35.237700 0.060200
35.263900 0.057700
35.290000 0.055500
35.316200 0.053500
35.342300 0.051800
35.368500 0.050400
35.394600 0.048900
35.420800 0.047200
35.446900 0.045900
35.473100 0.044800
35.499200 0.043700
35.525400 0.042600
35.551500 0.041600
35.577700 0.040500
35.603800 0.039500
35.630000 0.038500
35.656100 0.037500
35.682300 0.036500
35.708400 0.035400
35.734600 0.034400
35.760700 0.033400
35.786900 0.032400
35.813000 0.031400
35.839200 0.030500
35.865300 0.029500
35.891500 0.028500
35.917600 0.027500
35.943800 0.026600
35.969900 0.028200
35.996100 0.027800
36.022200 0.026700
36.048400 0.025100
36.074500 0.023600
36.100700 0.022200
36.126800 0.020900
36.153000 0.019800
36.179100 0.018800
36.205300 0.017900
36.231400 0.017200
36.257600 0.016600
36.283700 0.015900
36.309900 0.015300
36.336000 0.014700
36.362200 0.014000
36.388300 0.013400
36.414500 0.012800
36.440600 0.012100
36.466700 0.011500
36.492900 0.010800
36.519000 0.010200
36.545200 0.009600
36.571300 0.009000
36.597500 0.008400
36.623600 0.007800
36.649800 0.007300
36.675900 0.006800
36.702100 0.006300
36.728200 0.005800
36.754400 0.005300
36.780500 0.004800
36.806700 0.004400
36.832800 0.004000
36.859000 0.003600
36.885100 0.003200
36.911300 0.002800
36.937400 0.002400
36.963600 0.002100
36.989700 0.000000
37.015900 0.000000
37.042000 0.000000
37.068200 0.000000
37.094300 0.000000
37.120500 0.000000
37.146600 0.000000
37.172800 0.000000
37.198900 0.000000
37.225100 0.000000
37.251200 0.000000
37.277400 0.000000
37.303500 0.000000
37.329700 0.000000
37.355800 0.000000
37.382000 0.000000
37.408100 0.000000
37.434300 0.000000
37.460400 0.000000
37.486600 0.000000
37.512700 0.000000
37.538900 0.000000
37.565000 0.000000
37.591200 0.000000
37.617300 0.000000
37.643500 0.000000
37.669600 0.000000
37.695800 0.000000
37.721900 0.000000
37.748100 0.000000
37.774200 0.000000
37.800400 0.000000
37.826500 0.000000
37.852700 0.000000
37.878800 0.000000
37.905000 0.000000
37.931100 0.000000
37.957200 0.000000
37.983400 0.000000
38.009500 0.000000
38.035700 0.000000
38.061800 0.000000
38.088000 0.000000
38.114100 0.000000
38.140300 0.000000
38.166400 0.000000
38.192600 0.000000
38.218700 0.000000
38.244900 0.000000
38.271000 0.000000
38.297200 0.000000
38.323300 0.000000
38.349500 0.000000
38.375600 0.000000
38.401800 0.000000
38.427900 0.000000
38.454100 0.000000
38.480200 0.000000
38.506400 0.000000
38.532500 0.000000
38.558700 0.000000
38.584800 0.000000
38.611000 0.000000
38.637100 0.000000
38.663300 0.000000
38.689400 0.000000
38.715600 0.000000
38.741700 0.000000
38.767900 0.000000
38.794000 0.000000
38.820200 0.000000
38.846300 0.000000
38.872500 0.000000
38.898600 0.000000
38.924800 0.000000
38.950900 0.000000
38.977100 0.000000
39.003200 0.000000
39.029400 0.000000
39.055500 0.000000
39.081700 0.000000
39.107800 0.000000
39.134000 0.000000
39.160100 0.000000
39.186300 0.000000
39.212400 0.000000
39.238600 0.000000
39.264700 0.000000
39.290900 0.000000
39.317000 0.000000
39.343200 0.000000
e
