set title 'mp-1096826 - Density of States'
set xlabel 'Energy (eV)'
set ylabel 'DOS (states/eV)'
set grid
set xrange [-10:10]
set yrange [0:0.845]
set xzeroaxis lt -1
set terminal png size 800,600
set output 'mp-1096826_dos_gnuplot.png'
plot '-' using 1:2 with lines title 'DOS'
-14.169100 0.000000
-14.107800 0.000000
-14.046600 0.000000
-13.985300 0.000000
-13.924000 0.000000
-13.862800 0.000000
-13.801500 0.000000
-13.740300 0.000000
-13.679000 0.000000
-13.617800 0.000000
-13.556500 0.000000
-13.495200 0.000000
-13.434000 0.000000
-13.372700 0.000000
-13.311500 0.000000
-13.250200 0.000000
-13.189000 0.000000
-13.127700 0.000000
-13.066400 0.000000
-13.005200 0.000000
-12.943900 0.000000
-12.882700 0.000000
-12.821400 0.000000
-12.760200 0.000000
-12.698900 0.000000
-12.637600 0.000000
-12.576400 0.000000
-12.515100 0.000000
-12.453900 0.000000
-12.392600 0.000000
-12.331400 0.000000
-12.270100 0.000000
-12.208800 0.000000
-12.147600 0.000000
-12.086300 0.000000
-12.025100 0.000000
-11.963800 0.000000
-11.902600 0.000000
-11.841300 0.000000
-11.780000 0.000000
-11.718800 0.000000
-11.657500 0.000000
-11.596300 0.000000
-11.535000 0.000000
-11.473800 0.000000
-11.412500 0.000000
-11.351200 0.000000
-11.290000 0.000000
-11.228700 0.000000
-11.167500 0.000000
-11.106200 0.000000
-11.045000 0.000000
-10.983700 0.000000
-10.922400 0.000000
-10.861200 0.000000
-10.799900 0.000000
-10.738700 0.000000
-10.677400 0.000000
-10.616100 0.000000
-10.554900 0.000000
-10.493600 0.000000
-10.432400 0.000000
-10.371100 0.000000
-10.309900 0.000000
-10.248600 0.000000
-10.187300 0.000000
-10.126100 0.000000
-10.064800 0.000000
-10.003600 0.000000
-9.942300 0.000000
-9.881100 0.000000
-9.819800 0.000000
-9.758500 0.000000
-9.697300 0.000000
-9.636000 0.000000
-9.574800 0.000000
-9.513500 0.000000
-9.452300 0.000000
-9.391000 0.000000
-9.329700 0.000000
-9.268500 0.000000
-9.207200 0.000000
-9.146000 0.000000
-9.084700 0.000000
-9.023500 0.000000
-8.962200 0.000000
-8.900900 0.000000
-8.839700 0.000000
-8.778400 0.000000
-8.717200 0.000000
-8.655900 0.000000
-8.594700 0.013500
-8.533400 0.039600
-8.472100 0.054900
-8.410900 0.064200
-8.349600 0.075000
-8.288400 0.083800
-8.227100 0.090700
-8.165900 0.098500
-8.104600 0.106000
-8.043300 0.111300
-7.982100 0.117300
-7.920800 0.124200
-7.859600 0.129700
-7.798300 0.134400
-7.737100 0.139500
-7.675800 0.145100
-7.614500 0.150900
-7.553300 0.155000
-7.492000 0.159500
-7.430800 0.163900
-7.369500 0.168800
-7.308200 0.173900
-7.247000 0.178300
-7.185700 0.182200
-7.124500 0.186200
-7.063200 0.190600
-7.002000 0.195100
-6.940700 0.199700
-6.879400 0.203900
-6.818200 0.207700
-6.756900 0.211600
-6.695700 0.215700
-6.634400 0.219800
-6.573200 0.224200
-6.511900 0.228800
-6.450600 0.232600
-6.389400 0.236500
-6.328100 0.240300
-6.266900 0.244500
-6.205600 0.248800
-6.144400 0.253200
-6.083100 0.257700
-6.021800 0.262000
-5.960600 0.266100
-5.899300 0.270400
-5.838100 0.274700
-5.776800 0.279200
-5.715600 0.283800
-5.654300 0.288700
-5.593000 0.293800
-5.531800 0.298900
-5.470500 0.303800
-5.409300 0.308700
-5.348000 0.313900
-5.286800 0.319500
-5.225500 0.325500
-5.164200 0.331700
-5.103000 0.338100
-5.041700 0.344900
-4.980500 0.351600
-4.919200 0.359200
-4.858000 0.367200
-4.796700 0.375900
-4.735400 0.385300
-4.674200 0.395600
-4.612900 0.407200
-4.551700 0.421100
-4.490400 0.437600
-4.429200 0.458800
-4.367900 0.489000
-4.306600 0.529000
-4.245400 0.542200
-4.184100 0.526200
-4.122900 0.535200
-4.061600 0.522100
-4.000300 0.512900
-3.939100 0.508500
-3.877800 0.508700
-3.816600 0.501100
-3.755300 0.495400
-3.694100 0.491100
-3.632800 0.488100
-3.571500 0.486000
-3.510300 0.478900
-3.449000 0.474700
-3.387800 0.470900
-3.326500 0.470100
-3.265300 0.469100
-3.204000 0.466400
-3.142700 0.461000
-3.081500 0.459900
-3.020200 0.460300
-2.959000 0.465300
-2.897700 0.462300
-2.836500 0.460700
-2.775200 0.466900
-2.713900 0.480800
-2.652700 0.511700
-2.591400 0.519800
-2.530200 0.625300
-2.468900 0.601000
-2.407700 0.390200
-2.346400 0.239800
-2.285100 0.127200
-2.223900 0.000000
-2.162600 0.000000
-2.101400 0.000000
-2.040100 0.000000
-1.978900 0.000000
-1.917600 0.000000
-1.856300 0.000000
-1.795100 0.000000
-1.733800 0.000000
-1.672600 0.000000
-1.611300 0.000000
-1.550100 0.000000
-1.488800 0.000000
-1.427500 0.000000
-1.366300 0.000000
-1.305000 0.000000
-1.243800 0.000000
-1.182500 0.000000
-1.121300 0.000000
-1.060000 0.000000
-0.998700 0.000000
-0.937500 0.000000
-0.876200 0.000000
-0.815000 0.000000
-0.753700 0.000000
-0.692400 0.000000
-0.631200 0.000000
-0.569900 0.000000
-0.508700 0.000000
-0.447400 0.000000
-0.386200 0.000000
-0.324900 0.000000
-0.263600 0.000000
-0.202400 0.037800
-0.141100 0.072200
-0.079900 0.084100
-0.018600 0.111600
0.042600 0.166200
0.103900 0.130000
0.165200 0.149500
0.226400 0.157300
0.287700 0.168200
0.348900 0.177200
0.410200 0.193300
0.471400 0.205800
0.532700 0.209800
0.594000 0.220500
0.655200 0.231600
0.716500 0.243100
0.777700 0.256000
0.839000 0.263900
0.900200 0.320600
0.961500 0.333000
1.022800 0.357800
1.084000 0.381600
1.145300 0.410600
1.206500 0.431800
1.267800 0.454000
1.329000 0.479000
1.390300 0.501700
1.451600 0.528800
1.512800 0.565100
1.574100 0.608400
1.635300 0.674000
1.696600 0.768200
1.757800 0.756700
1.819100 0.755700
1.880400 0.738400
1.941600 0.716000
2.002900 0.703200
2.064100 0.691100
2.125400 0.697000
2.186600 0.682500
2.247900 0.660900
2.309200 0.632000
2.370400 0.606200
2.431700 0.490700
2.492900 0.448200
2.554200 0.406600
2.615500 0.348700
2.676700 0.334900
2.738000 0.364300
2.799200 0.384000
2.860500 0.396900
2.921700 0.426500
2.983000 0.455100
3.044300 0.455300
3.105500 0.448000
3.166800 0.450600
3.228000 0.455800
3.289300 0.460100
3.350500 0.465800
3.411800 0.466900
3.473100 0.465500
3.534300 0.464200
3.595600 0.464200
3.656800 0.465000
3.718100 0.466300
3.779300 0.467900
3.840600 0.469800
3.901900 0.471500
3.963100 0.471200
4.024400 0.470200
4.085600 0.468200
4.146900 0.466500
4.208100 0.465900
4.269400 0.465200
4.330700 0.464200
4.391900 0.463400
4.453200 0.462500
4.514400 0.461700
4.575700 0.461100
4.636900 0.460500
4.698200 0.459600
4.759500 0.457500
4.820700 0.478400
4.882000 0.481100
4.943200 0.487300
5.004500 0.494600
5.065700 0.502500
5.127000 0.504900
5.188300 0.508700
5.249500 0.512300
5.310800 0.517200
5.372000 0.521200
5.433300 0.525400
5.494500 0.529600
5.555800 0.535100
5.617100 0.539000
5.678300 0.543100
5.739600 0.546600
5.800800 0.550700
5.862100 0.556000
5.923400 0.561000
5.984600 0.567500
6.045900 0.574500
6.107100 0.581400
6.168400 0.587200
6.229600 0.592600
6.290900 0.598300
6.352200 0.606100
6.413400 0.615400
6.474700 0.624600
6.535900 0.635700
6.597200 0.647900
6.658400 0.661800
6.719700 0.676200
6.781000 0.694500
6.842200 0.748600
6.903500 0.767400
6.964700 0.768300
7.026000 0.750000
7.087200 0.744900
7.148500 0.749000
7.209800 0.737100
7.271000 0.734300
7.332300 0.727500
7.393500 0.722900
7.454800 0.727800
7.516000 0.718100
7.577300 0.708200
7.638600 0.703000
7.699800 0.698100
7.761100 0.695900
7.822300 0.702400
7.883600 0.692600
7.944800 0.685100
8.006100 0.678400
8.067400 0.671100
8.128600 0.667400
8.189900 0.668200
8.251100 0.671300
8.312400 0.663000
8.373600 0.655900
8.434900 0.649500
8.496200 0.645200
8.557400 0.642600
8.618700 0.637700
8.679900 0.634100
8.741200 0.633700
8.802400 0.631800
8.863700 0.627200
8.925000 0.624800
8.986200 0.621200
9.047500 0.616800
9.108700 0.611100
9.170000 0.605500
9.231300 0.602700
9.292500 0.604100
9.353800 0.603100
9.415000 0.599100
9.476300 0.594200
9.537500 0.589200
9.598800 0.586100
9.660100 0.582100
9.721300 0.576300
9.782600 0.572100
9.843800 0.572300
9.905100 0.576900
9.966300 0.574000
10.027600 0.571100
10.088900 0.567300
10.150100 0.562500
10.211400 0.546700
10.272600 0.506700
10.333900 0.468000
10.395100 0.444100
10.456400 0.431900
10.517700 0.397200
10.578900 0.372200
10.640200 0.354500
10.701400 0.345300
10.762700 0.332900
10.823900 0.324800
10.885200 0.311400
10.946500 0.333300
11.007700 0.283200
11.069000 0.273500
11.130200 0.264100
11.191500 0.251400
11.252700 0.247800
11.314000 0.237100
11.375300 0.222400
11.436500 0.215200
11.497800 0.219700
11.559000 0.221700
11.620300 0.213100
11.681500 0.213700
11.742800 0.214300
11.804100 0.199200
11.865300 0.187500
11.926600 0.145600
11.987800 0.097200
12.049100 0.102000
12.110300 0.125400
12.171600 0.133800
12.232900 0.154600
12.294100 0.160100
12.355400 0.171300
12.416600 0.180900
12.477900 0.192700
12.539200 0.200400
12.600400 0.215300
12.661700 0.219600
12.722900 0.228500
12.784200 0.235900
12.845400 0.244000
12.906700 0.252700
12.968000 0.265200
13.029200 0.275000
13.090500 0.279500
13.151700 0.286100
13.213000 0.292500
13.274200 0.299700
13.335500 0.307700
13.396800 0.315300
13.458000 0.323500
13.519300 0.335500
13.580500 0.341500
13.641800 0.346800
13.703000 0.353400
13.764300 0.360700
13.825600 0.368500
13.886800 0.376100
13.948100 0.383700
14.009300 0.391300
14.070600 0.401200
14.131800 0.409600
14.193100 0.416200
14.254400 0.422800
14.315600 0.429700
14.376900 0.437400
14.438100 0.445400
14.499400 0.453700
14.560600 0.462400
14.621900 0.471300
14.683200 0.480700
14.744400 0.490400
14.805700 0.500200
14.866900 0.509200
14.928200 0.518300
14.989400 0.527800
15.050700 0.538200
15.112000 0.549600
15.173200 0.562200
15.234500 0.575900
15.295700 0.591000
15.357000 0.607800
15.418200 0.627400
15.479500 0.652100
15.540800 0.682600
15.602000 0.719400
15.663300 0.771000
15.724500 0.793800
15.785800 0.805200
15.847100 0.771200
15.908300 0.760000
15.969600 0.749500
16.030800 0.760700
16.092100 0.854500
16.153300 0.857200
16.214600 0.850500
16.275900 0.848500
16.337100 0.791400
16.398400 0.802100
16.459600 0.648500
16.520900 0.616300
16.582100 0.569500
16.643400 0.544500
16.704700 0.530400
16.765900 0.524500
16.827200 0.490200
16.888400 0.494000
16.949700 0.511400
17.010900 0.520500
17.072200 0.561900
17.133500 0.607600
17.194700 0.620400
17.256000 0.598100
17.317200 0.601800
17.378500 0.611700
17.439700 0.627800
17.501000 0.661300
17.562300 0.669800
17.623500 0.690400
17.684800 0.709000
17.746000 0.733000
17.807300 0.781800
17.868500 0.821400
17.929800 0.916400
17.991100 0.901000
18.052300 0.876900
18.113600 0.912100
18.174800 0.853700
18.236100 0.815000
18.297300 0.746900
18.358600 0.720700
18.419900 0.697900
18.481100 0.679900
18.542400 0.664800
18.603600 0.649700
18.664900 0.650100
18.726100 0.637300
18.787400 0.642000
18.848700 0.619900
18.909900 0.623200
18.971200 0.649000
19.032400 0.644000
19.093700 0.643800
19.155000 0.681800
19.216200 0.751500
19.277500 0.710000
19.338700 0.629400
19.400000 0.578400
19.461200 0.585500
19.522500 0.680400
19.583800 0.735200
19.645000 0.767000
19.706300 0.786500
19.767500 0.830900
19.828800 0.802000
19.890000 0.768000
19.951300 0.752200
20.012600 0.743000
20.073800 0.717600
20.135100 0.704900
20.196300 0.700600
20.257600 0.710500
20.318800 0.722200
20.380100 0.744600
20.441400 0.767400
20.502600 0.798300
20.563900 0.780000
20.625100 0.770900
20.686400 0.773400
20.747600 0.758800
20.808900 0.747700
20.870200 0.739700
20.931400 0.727600
20.992700 0.722600
21.053900 0.719000
21.115200 0.724000
21.176400 0.718700
21.237700 0.714700
21.299000 0.706900
21.360200 0.690700
21.421500 0.685900
21.482700 0.686200
21.544000 0.689100
21.605200 0.712000
21.666500 0.710500
21.727800 0.728100
21.789000 0.730000
21.850300 0.722400
21.911500 0.718000
21.972800 0.708000
22.034000 0.697200
22.095300 0.696800
22.156600 0.708300
22.217800 0.684000
22.279100 0.680600
22.340300 0.683400
22.401600 0.681300
22.462900 0.692000
22.524100 0.712400
22.585400 0.728300
22.646600 0.719900
22.707900 0.712900
22.769100 0.670500
22.830400 0.713500
22.891700 0.747400
22.952900 0.785900
23.014200 0.840600
23.075400 0.878600
23.136700 0.910500
23.197900 0.949200
23.259200 0.976300
23.320500 0.995400
23.381700 1.020600
23.443000 1.007900
23.504200 0.946100
23.565500 0.906300
23.626700 0.876800
23.688000 0.855300
23.749300 0.837100
23.810500 0.826000
23.871800 0.820600
23.933000 0.814200
23.994300 0.813200
24.055500 0.813200
24.116800 0.796900
24.178100 0.787200
24.239300 0.778700
24.300600 0.768700
24.361800 0.756300
24.423100 0.747800
24.484300 0.735400
24.545600 0.729100
24.606900 0.706900
24.668100 0.695200
24.729400 0.688500
24.790600 0.688100
24.851900 0.689500
24.913100 0.686500
24.974400 0.686000
25.035700 0.688200
25.096900 0.701400
25.158200 0.706800
25.219400 0.709200
25.280700 0.712500
25.341900 0.713700
25.403200 0.715900
25.464500 0.725100
25.525700 0.728200
25.587000 0.725000
25.648200 0.724700
25.709500 0.722900
25.770800 0.719100
25.832000 0.713800
25.893300 0.711200
25.954500 0.714700
26.015800 0.721000
26.077000 0.733800
26.138300 0.749800
26.199600 0.755500
26.260800 0.769000
26.322100 0.766300
26.383300 0.770100
26.444600 0.769800
26.505800 0.766900
26.567100 0.762300
26.628400 0.764900
26.689600 0.772300
26.750900 0.783200
26.812100 0.798900
26.873400 0.837400
26.934600 0.838600
26.995900 0.840800
27.057200 0.854300
27.118400 0.853500
27.179700 0.861000
27.240900 0.885100
27.302200 0.860100
27.363400 0.855400
27.424700 0.857100
27.486000 0.868900
27.547200 0.866900
27.608500 0.865700
27.669700 0.863700
27.731000 0.860900
27.792200 0.861800
27.853500 0.861200
27.914800 0.856500
27.976000 0.850400
28.037300 0.845300
28.098500 0.843900
28.159800 0.843700
28.221000 0.840400
28.282300 0.836800
28.343600 0.834600
28.404800 0.831000
28.466100 0.821700
28.527300 0.818800
28.588600 0.814800
28.649800 0.819000
28.711100 0.812500
28.772400 0.809500
28.833600 0.807200
28.894900 0.807700
28.956100 0.819500
29.017400 0.790300
29.078600 0.781000
29.139900 0.783500
29.201200 0.784100
29.262400 0.785400
29.323700 0.791300
29.384900 0.792200
29.446200 0.785900
29.507500 0.782400
29.568700 0.773900
29.630000 0.771800
29.691200 0.772100
29.752500 0.778300
29.813700 0.780100
29.875000 0.777900
29.936300 0.781200
29.997500 0.783900
30.058800 0.789100
30.120000 0.794200
30.181300 0.801700
30.242500 0.808100
30.303800 0.815900
30.365100 0.839000
30.426300 0.846300
30.487600 0.851900
30.548800 0.843500
30.610100 0.836500
30.671300 0.836000
30.732600 0.841000
30.793900 0.850500
30.855100 0.861800
30.916400 0.876500
30.977600 0.890000
31.038900 0.904300
31.100100 0.912200
31.161400 0.929700
31.222700 0.906200
31.283900 0.885700
31.345200 0.877000
31.406400 0.821900
31.467700 0.815900
31.528900 0.814300
31.590200 0.812100
31.651500 0.805500
31.712700 0.806600
31.774000 0.819000
31.835200 0.834400
31.896500 0.843900
31.957700 0.872300
32.019000 0.879200
32.080300 0.886800
32.141500 0.963400
32.202800 0.980900
32.264000 0.978000
32.325300 0.969700
32.386500 0.971100
32.447800 0.979300
32.509100 0.986000
32.570300 0.998800
32.631600 0.988400
32.692800 0.972300
32.754100 0.963800
32.815400 0.920900
32.876600 0.909600
32.937900 0.887000
32.999100 0.898400
33.060400 0.885200
33.121600 0.866500
33.182900 0.867900
33.244200 0.897500
33.305400 0.940800
33.366700 0.941600
33.427900 0.940500
33.489200 0.936100
33.550400 0.930100
33.611700 0.941200
33.673000 0.967700
33.734200 0.992000
33.795500 0.943400
33.856700 0.956600
33.918000 0.969400
33.979200 1.003400
34.040500 1.026100
34.101800 1.041000
34.163000 1.053700
34.224300 1.034400
34.285500 1.002700
34.346800 0.999900
34.408000 0.990700
34.469300 0.984000
34.530600 0.954500
34.591800 0.961600
34.653100 0.965100
34.714300 0.966000
34.775600 0.909300
34.836800 0.856700
34.898100 0.828900
34.959400 0.810900
35.020600 0.809900
35.081900 0.813300
35.143100 0.814400
35.204400 0.829900
35.265600 0.835400
35.326900 0.832400
35.388200 0.874500
35.449400 0.857600
35.510700 0.884000
35.571900 0.942100
35.633200 0.962300
35.694400 0.941700
35.755700 0.947700
35.817000 0.914600
35.878200 0.894600
35.939500 0.877400
36.000700 0.866400
36.062000 0.851500
36.123300 0.835400
36.184500 0.845400
36.245800 0.872900
36.307000 0.958000
36.368300 0.995100
36.429500 1.043900
36.490800 1.046900
36.552100 1.043300
36.613300 0.982000
36.674600 0.909800
36.735800 0.892600
36.797100 0.884700
36.858300 0.865400
36.919600 0.872100
36.980900 0.888800
37.042100 0.884300
37.103400 0.897000
37.164600 0.904100
37.225900 0.955000
37.287100 0.979300
37.348400 0.978900
37.409700 0.974200
37.470900 0.961200
37.532200 0.989400
37.593400 0.986700
37.654700 0.981500
37.715900 0.975100
37.777200 0.976100
37.838500 1.031200
37.899700 1.051400
37.961000 0.978700
38.022200 0.957700
38.083500 0.936400
38.144700 0.924100
38.206000 0.901400
38.267300 0.871900
38.328500 0.865800
38.389800 0.854000
38.451000 0.860700
38.512300 0.864500
38.573500 0.869800
38.634800 0.879600
38.696100 0.881700
38.757300 0.882200
38.818600 0.891700
38.879800 0.905000
38.941100 0.927100
39.002300 0.950300
39.063600 0.974400
39.124900 1.005900
39.186100 1.018900
39.247400 1.028500
39.308600 0.990500
39.369900 0.963700
39.431200 0.947900
39.492400 0.942500
39.553700 0.942200
39.614900 0.944700
39.676200 0.927000
39.737400 0.894800
39.798700 0.862300
39.860000 0.855500
39.921200 0.836800
39.982500 0.839800
40.043700 0.866800
40.105000 0.875800
40.166200 0.869200
40.227500 0.883200
40.288800 0.898400
40.350000 0.918400
40.411300 0.935100
40.472500 1.006500
40.533800 0.990600
40.595000 0.995600
40.656300 0.989200
40.717600 0.992600
40.778800 0.968800
40.840100 0.963000
40.901300 0.959700
40.962600 0.959300
41.023800 0.971600
41.085100 1.003000
41.146400 1.066000
41.207600 1.055700
41.268900 1.075600
41.330100 1.103600
41.391400 1.139200
41.452600 1.197200
41.513900 1.179700
41.575200 1.165000
41.636400 1.126100
41.697700 1.133400
41.758900 1.125600
41.820200 1.113400
41.881400 1.057400
41.942700 1.020700
42.004000 0.966400
42.065200 0.966700
42.126500 0.956300
42.187700 0.944700
42.249000 0.941000
42.310200 0.942800
42.371500 0.962900
42.432800 0.967400
42.494000 0.974500
42.555300 0.951700
42.616500 0.940300
42.677800 0.909800
42.739100 0.878200
42.800300 0.874100
42.861600 0.860700
42.922800 0.835500
42.984100 0.827600
43.045300 0.824500
43.106600 0.820600
43.167900 0.816500
43.229100 0.827400
43.290400 0.844200
43.351600 0.823900
43.412900 0.830200
43.474100 0.843100
43.535400 0.860600
43.596700 0.805600
43.657900 0.824000
43.719200 0.794100
43.780400 0.824500
43.841700 0.886300
43.902900 0.950100
43.964200 1.029500
44.025500 1.031300
44.086700 1.024100
44.148000 1.088900
44.209200 1.194500
44.270500 1.316100
44.331700 1.302300
44.393000 1.247500
44.454300 1.198100
44.515500 1.167900
44.576800 1.135000
44.638000 1.083000
44.699300 1.044900
44.760500 0.992400
44.821800 0.979700
44.883100 1.016000
44.944300 1.030600
45.005600 1.040100
45.066800 1.063600
45.128100 1.101300
45.189300 1.141400
45.250600 1.158200
45.311900 1.118400
45.373100 1.075200
45.434400 1.001700
45.495600 0.961300
45.556900 0.937700
45.618100 0.915400
45.679400 0.894300
45.740700 0.893100
45.801900 0.887000
45.863200 0.889200
45.924400 0.896500
45.985700 0.944100
46.047000 0.989300
46.108200 1.049700
46.169500 1.067900
46.230700 1.107000
46.292000 1.126400
46.353200 1.116100
46.414500 1.123800
46.475800 1.081400
46.537000 1.051100
46.598300 1.016200
46.659500 0.997300
46.720800 1.001500
46.782000 0.994200
46.843300 0.988600
46.904600 1.002600
46.965800 1.020200
47.027100 1.043400
47.088300 1.069300
47.149600 1.130500
47.210800 1.177700
47.272100 1.161000
47.333400 1.215700
47.394600 1.241500
47.455900 1.261300
47.517100 1.225100
47.578400 1.220500
47.639600 1.194900
47.700900 1.159900
47.762200 1.083400
47.823400 1.011700
47.884700 0.970100
47.945900 0.941700
48.007200 0.915000
48.068400 0.897400
48.129700 0.883400
48.191000 0.893900
48.252200 0.928700
48.313500 0.923400
48.374700 0.937500
48.436000 0.966700
48.497200 0.987800
48.558500 1.018600
48.619800 1.062000
48.681000 1.070300
48.742300 1.083500
48.803500 1.062700
48.864800 1.042800
48.926000 1.015200
48.987300 0.995900
49.048600 0.984600
49.109800 0.986600
49.171100 0.996300
49.232300 1.035800
49.293600 1.071600
49.354900 1.065900
49.416100 1.089600
49.477400 1.164500
49.538600 1.077700
49.599900 1.082100
49.661100 1.142400
49.722400 1.166300
49.783700 1.174400
49.844900 1.210500
49.906200 1.231700
49.967400 1.198800
50.028700 1.180000
50.089900 1.169300
50.151200 1.136100
50.212500 1.111000
50.273700 1.095600
50.335000 1.072600
50.396200 1.066000
50.457500 1.076800
50.518700 1.053400
50.580000 1.045800
50.641300 1.036500
50.702500 1.033200
50.763800 1.017400
50.825000 1.033800
50.886300 1.115400
50.947500 1.134100
51.008800 1.129600
51.070100 1.088800
51.131300 1.020000
51.192600 0.984800
51.253800 0.981300
51.315100 0.978800
51.376300 0.980200
51.437600 0.983700
51.498900 1.015400
51.560100 1.055700
51.621400 1.099400
51.682600 1.129600
51.743900 1.146300
51.805100 1.163600
51.866400 1.181300
51.927700 1.203000
51.988900 1.205700
52.050200 1.185700
52.111400 1.162400
52.172700 1.160500
52.233900 1.160600
52.295200 1.150700
52.356500 1.164300
52.417700 1.174600
52.479000 1.198500
52.540200 1.208100
52.601500 1.185000
52.662800 1.186500
52.724000 1.211300
52.785300 1.209200
52.846500 1.170000
52.907800 1.163700
52.969000 1.147600
53.030300 1.126800
53.091600 1.099800
53.152800 1.091300
53.214100 1.063300
53.275300 1.034600
53.336600 0.987600
53.397800 0.939800
53.459100 0.932500
53.520400 0.928800
53.581600 0.931300
53.642900 0.934400
53.704100 0.931200
53.765400 0.945700
53.826600 0.957800
53.887900 0.972300
53.949200 0.992900
54.010400 1.015700
54.071700 1.047700
54.132900 1.063600
54.194200 1.080500
54.255400 1.074900
54.316700 1.048800
54.378000 1.028700
54.439200 0.979500
54.500500 0.938800
54.561700 0.896600
54.623000 0.870600
54.684200 0.859500
54.745500 0.866400
54.806800 0.877000
54.868000 0.890300
54.929300 0.903900
54.990500 0.933400
55.051800 0.945800
55.113000 0.949900
55.174300 0.946100
55.235600 0.938300
55.296800 0.951000
55.358100 0.953700
55.419300 0.956100
55.480600 0.968600
55.541800 0.975100
55.603100 0.986900
55.664400 1.026500
55.725600 1.043600
55.786900 1.062200
55.848100 1.091100
55.909400 1.103400
55.970700 1.098800
56.031900 1.110000
56.093200 1.121600
56.154400 1.133600
56.215700 1.159800
56.276900 1.168100
56.338200 1.175500
56.399500 1.150600
56.460700 1.114200
56.522000 1.088700
56.583200 1.050700
56.644500 1.038100
56.705700 1.017300
56.767000 0.989700
56.828300 0.986900
56.889500 0.973900
56.950800 0.967900
57.012000 0.966200
57.073300 0.955800
57.134500 0.945300
57.195800 0.947300
57.257100 0.930800
57.318300 0.914800
57.379600 0.915400
57.440800 0.923400
57.502100 0.944800
57.563300 0.942400
57.624600 0.960000
57.685900 0.995200
57.747100 0.991900
57.808400 0.997400
57.869600 1.036500
57.930900 1.109000
57.992100 1.110800
58.053400 1.128900
58.114700 1.133200
58.175900 1.142100
58.237200 1.158000
58.298400 1.174600
58.359700 1.230200
58.420900 1.242500
58.482200 1.211800
58.543500 1.176200
58.604700 1.166800
58.666000 1.148400
58.727200 1.122500
58.788500 1.101200
58.849700 1.085600
58.911000 1.071100
58.972300 1.059500
59.033500 1.063100
59.094800 1.073200
59.156000 1.067900
59.217300 1.061000
59.278600 1.057400
59.339800 1.073100
59.401100 1.071400
59.462300 1.073000
59.523600 1.077100
59.584800 1.082500
59.646100 1.117800
59.707400 1.129400
59.768600 1.145800
59.829900 1.173800
59.891100 1.202500
59.952400 1.197300
60.013600 1.229000
60.074900 1.242400
60.136200 1.258100
60.197400 1.290100
60.258700 1.292900
60.319900 1.309400
60.381200 1.327700
60.442400 1.333300
60.503700 1.352800
60.565000 1.337000
60.626200 1.322900
60.687500 1.273700
60.748700 1.286500
60.810000 1.296800
60.871200 1.264300
60.932500 1.236100
60.993800 1.216200
61.055000 1.206400
61.116300 1.195100
61.177500 1.189600
61.238800 1.189400
61.300000 1.198900
61.361300 1.215900
61.422600 1.219200
61.483800 1.214000
61.545100 1.218400
61.606300 1.214600
61.667600 1.205900
61.728800 1.194800
61.790100 1.192400
61.851400 1.188100
61.912600 1.194600
61.973900 1.201900
62.035100 1.223300
62.096400 1.259400
62.157600 1.219900
62.218900 1.211100
62.280200 1.188100
62.341400 1.213300
62.402700 1.213600
62.463900 1.175600
62.525200 1.150800
62.586500 1.139100
62.647700 1.136500
62.709000 1.107900
62.770200 1.098400
62.831500 1.100300
62.892700 1.102000
62.954000 1.112300
63.015300 1.116600
63.076500 1.104000
63.137800 1.098000
63.199000 1.084400
63.260300 1.086400
63.321500 1.089200
63.382800 1.111100
63.444100 1.130300
63.505300 1.178600
63.566600 1.182400
63.627800 1.183000
63.689100 1.206300
63.750300 1.201700
63.811600 1.135600
63.872900 1.110800
63.934100 1.102600
63.995400 1.091800
64.056600 1.095500
64.117900 1.069700
64.179100 1.086200
64.240400 1.147300
64.301700 1.263000
64.362900 1.314400
64.424200 1.301600
64.485400 1.325900
64.546700 1.378100
64.607900 1.388700
64.669200 1.396800
64.730500 1.387600
64.791700 1.381100
64.853000 1.385300
64.914200 1.391500
64.975500 1.400600
65.036700 1.383600
65.098000 1.355500
65.159300 1.329600
65.220500 1.281000
65.281800 1.282500
65.343000 1.232500
65.404300 1.206700
65.465500 1.160100
65.526800 1.114000
65.588100 1.083100
65.649300 1.059800
65.710600 1.019100
65.771800 0.999500
65.833100 1.024300
65.894400 1.038000
65.955600 1.013200
66.016900 1.040500
66.078100 1.103100
66.139400 1.169200
66.200600 1.236000
66.261900 1.310500
66.323200 1.369400
66.384400 1.423500
66.445700 1.409100
66.506900 1.296000
66.568200 1.209800
66.629400 1.157600
66.690700 1.070200
66.752000 1.047900
66.813200 1.061400
66.874500 1.050600
66.935700 1.079100
66.997000 1.091000
67.058200 1.034600
67.119500 0.985500
67.180800 0.971100
67.242000 0.971800
67.303300 1.007900
67.364500 1.097500
67.425800 1.204000
67.487000 1.269600
67.548300 1.312700
67.609600 1.349600
67.670800 1.385000
67.732100 1.403800
67.793300 1.440900
67.854600 1.494100
67.915800 1.542000
67.977100 1.453300
68.038400 1.419400
68.099600 1.370600
68.160900 1.310900
68.222100 1.272200
68.283400 1.237600
68.344600 1.217800
68.405900 1.197000
68.467200 1.148900
68.528400 1.113200
68.589700 1.079400
68.650900 1.050000
68.712200 1.041200
68.773400 1.031300
68.834700 1.040600
68.896000 1.035400
68.957200 1.064900
69.018500 1.140700
69.079700 1.150700
69.141000 1.195600
69.202200 1.238000
69.263500 1.141000
69.324800 1.052100
69.386000 1.038800
69.447300 1.071900
69.508500 1.043500
69.569800 1.033900
69.631100 1.058200
69.692300 1.103900
69.753600 1.012200
69.814800 1.047600
69.876100 1.068200
69.937300 1.087900
69.998600 1.095900
70.059900 1.117900
70.121100 1.142100
70.182400 1.182800
70.243600 1.202800
70.304900 1.225000
70.366100 1.242400
70.427400 1.250200
70.488700 1.279000
70.549900 1.268600
70.611200 1.174800
70.672400 1.139600
70.733700 1.077700
70.794900 1.041000
70.856200 1.036200
70.917500 1.033100
70.978700 1.025200
71.040000 1.027700
71.101200 1.058100
71.162500 1.031200
71.223700 1.032400
71.285000 1.046300
71.346300 1.050300
71.407500 1.068000
71.468800 1.057200
71.530000 1.065700
71.591300 1.149300
71.652500 1.162400
71.713800 1.172800
71.775100 1.177800
71.836300 1.193600
71.897600 1.189900
71.958800 1.209700
72.020100 1.209800
72.081300 1.230700
72.142600 1.265800
72.203900 1.302700
72.265100 1.499000
72.326400 1.369400
72.387600 1.333000
72.448900 1.320800
72.510100 1.279700
72.571400 1.252300
72.632700 1.231800
72.693900 1.200700
72.755200 1.165500
72.816400 1.133400
72.877700 1.078800
72.939000 1.024500
73.000200 0.976100
73.061500 0.985100
73.122700 1.025200
73.184000 1.045900
73.245200 1.095400
73.306500 1.132500
73.367800 1.137900
73.429000 1.186100
73.490300 1.245000
73.551500 1.267200
73.612800 1.301600
73.674000 1.268800
73.735300 1.283900
73.796600 1.314500
73.857800 1.329400
73.919100 1.321600
73.980300 1.336200
74.041600 1.330900
74.102800 1.332300
74.164100 1.333900
74.225400 1.240000
74.286600 1.194200
74.347900 1.188500
74.409100 1.183300
74.470400 1.202900
74.531600 1.299900
74.592900 1.208100
74.654200 1.160100
74.715400 1.147500
74.776700 1.101300
74.837900 1.082800
74.899200 1.102800
74.960400 1.123000
75.021700 1.131200
75.083000 1.147900
75.144200 1.154500
75.205500 1.181200
75.266700 1.223700
75.328000 1.284600
75.389200 1.308400
75.450500 1.355000
75.511800 1.426300
75.573000 1.407800
75.634300 1.384900
75.695500 1.354300
75.756800 1.343900
75.818000 1.352300
75.879300 1.376600
75.940600 1.346100
76.001800 1.322200
76.063100 1.309800
76.124300 1.306400
76.185600 1.322800
76.246900 1.353200
76.308100 1.379700
76.369400 1.364500
76.430600 1.353800
76.491900 1.324600
76.553100 1.278400
76.614400 1.238700
76.675700 1.205200
76.736900 1.208400
76.798200 1.165600
76.859400 1.169900
76.920700 1.185300
76.981900 1.217600
77.043200 1.240100
77.104500 1.267100
77.165700 1.303700
77.227000 1.306400
77.288200 1.272500
77.349500 1.268700
77.410700 1.287500
77.472000 1.269500
77.533300 1.236600
77.594500 1.202900
77.655800 1.185400
77.717000 1.192000
77.778300 1.141500
77.839500 1.123700
77.900800 1.127900
77.962100 1.118500
78.023300 1.126100
78.084600 1.139000
78.145800 1.169200
78.207100 1.194800
78.268300 1.216800
78.329600 1.222600
78.390900 1.239500
78.452100 1.270000
78.513400 1.312300
78.574600 1.350400
78.635900 1.377700
78.697100 1.409400
78.758400 1.417200
78.819700 1.407800
78.880900 1.386800
78.942200 1.370800
79.003400 1.386900
79.064700 1.393300
79.125900 1.369800
79.187200 1.333800
79.248500 1.306400
79.309700 1.317700
79.371000 1.248000
79.432200 1.224700
79.493500 1.183000
79.554800 1.201400
79.616000 1.218200
79.677300 1.246000
79.738500 1.283200
79.799800 1.298200
79.861000 1.317200
79.922300 1.369100
79.983600 1.365000
80.044800 1.377000
80.106100 1.407700
80.167300 1.352600
80.228600 1.270500
80.289800 1.252300
80.351100 1.249000
80.412400 1.262500
80.473600 1.236800
80.534900 1.222700
80.596100 1.223700
80.657400 1.261000
80.718600 1.261000
80.779900 1.307600
80.841200 1.376400
80.902400 1.432400
80.963700 1.427700
81.024900 1.387800
81.086200 1.317900
81.147400 1.272600
81.208700 1.239400
81.270000 1.212500
81.331200 1.201500
81.392500 1.198200
81.453700 1.211300
81.515000 1.208400
81.576200 1.204300
81.637500 1.223300
81.698800 1.252700
81.760000 1.278000
81.821300 1.270200
81.882500 1.306100
81.943800 1.332400
82.005000 1.389100
82.066300 1.382700
82.127600 1.375600
82.188800 1.367100
82.250100 1.360100
82.311300 1.361600
82.372600 1.352100
82.433800 1.333200
82.495100 1.320600
82.556400 1.341700
82.617600 1.345700
82.678900 1.345500
82.740100 1.337300
82.801400 1.340900
82.862700 1.331500
82.923900 1.320900
82.985200 1.298900
83.046400 1.268600
83.107700 1.246800
83.168900 1.234500
83.230200 1.213600
83.291500 1.212500
83.352700 1.208200
83.414000 1.200700
83.475200 1.199600
83.536500 1.185200
83.597700 1.183800
83.659000 1.195400
83.720300 1.215900
83.781500 1.246100
83.842800 1.257900
83.904000 1.258300
83.965300 1.259700
84.026500 1.278500
84.087800 1.311600
84.149100 1.304600
84.210300 1.293100
84.271600 1.310300
84.332800 1.320800
84.394100 1.324000
84.455300 1.324000
84.516600 1.325700
84.577900 1.335200
84.639100 1.367200
84.700400 1.357800
84.761600 1.313900
84.822900 1.278100
84.884100 1.263000
84.945400 1.268000
85.006700 1.298200
85.067900 1.304200
85.129200 1.288000
85.190400 1.292000
85.251700 1.286800
85.312900 1.288400
85.374200 1.304600
85.435500 1.316900
85.496700 1.281400
85.558000 1.240000
85.619200 1.225300
85.680500 1.207000
85.741700 1.193700
85.803000 1.183000
85.864300 1.189200
85.925500 1.241300
85.986800 1.226600
86.048000 1.236100
86.109300 1.246500
86.170600 1.327000
86.231800 1.269000
86.293100 1.294200
86.354300 1.338600
86.415600 1.334300
86.476800 1.353400
86.538100 1.387900
86.599400 1.390500
86.660600 1.373400
86.721900 1.383600
86.783100 1.341600
86.844400 1.358800
86.905600 1.368200
86.966900 1.363200
87.028200 1.377800
87.089400 1.393500
87.150700 1.360300
87.211900 1.349200
87.273200 1.339000
87.334400 1.326500
87.395700 1.304900
87.457000 1.308300
87.518200 1.336400
87.579500 1.345200
87.640700 1.354200
87.702000 1.382500
87.763200 1.379700
87.824500 1.407500
87.885800 1.365900
87.947000 1.366800
88.008300 1.354400
88.069500 1.354600
88.130800 1.364300
88.192000 1.391900
88.253300 1.416800
88.314600 1.474600
88.375800 1.535600
88.437100 1.580700
88.498300 1.623700
88.559600 1.637900
88.620800 1.619900
88.682100 1.607100
88.743400 1.550800
88.804600 1.618800
88.865900 1.449900
88.927100 1.429400
88.988400 1.357400
89.049600 1.306900
89.110900 1.334900
89.172200 1.223600
89.233400 1.178100
89.294700 1.139300
89.355900 1.130700
89.417200 1.136100
89.478500 1.145800
89.539700 1.193100
89.601000 1.191700
89.662200 1.197400
89.723500 1.204400
89.784700 1.212800
89.846000 1.222700
89.907300 1.215400
89.968500 1.219000
90.029800 1.230600
90.091000 1.247000
90.152300 1.251100
90.213500 1.258800
90.274800 1.274900
90.336100 1.278900
90.397300 1.274000
90.458600 1.262300
90.519800 1.233800
90.581100 1.236100
90.642300 1.203000
90.703600 1.211200
90.764900 1.219800
90.826100 1.227700
90.887400 1.240400
90.948600 1.287900
91.009900 1.320000
91.071100 1.325600
91.132400 1.286200
91.193700 1.281300
91.254900 1.239400
91.316200 1.182900
91.377400 1.154000
91.438700 1.146400
91.499900 1.121500
91.561200 1.104700
91.622500 1.118100
91.683700 1.127100
91.745000 1.164200
91.806200 1.164400
91.867500 1.165000
91.928700 1.157000
91.990000 1.158900
92.051300 1.179800
92.112500 1.170100
92.173800 1.124000
92.235000 1.070500
92.296300 1.033800
92.357500 1.021700
92.418800 0.983300
92.480100 0.981700
92.541300 0.963200
92.602600 0.955200
92.663800 0.969300
92.725100 0.966600
92.786400 0.971100
92.847600 0.992900
92.908900 1.018500
92.970100 1.044900
93.031400 1.088600
93.092600 1.126400
93.153900 1.123800
93.215200 1.113800
93.276400 1.121300
93.337700 1.111400
93.398900 1.122200
93.460200 1.101600
93.521400 1.104500
93.582700 1.098400
93.644000 1.094400
93.705200 1.131400
93.766500 1.193800
93.827700 1.277100
93.889000 1.250700
93.950200 1.211700
94.011500 1.189900
94.072800 1.138800
94.134000 1.118500
94.195300 1.103200
94.256500 1.104000
94.317800 1.117600
94.379000 1.129200
94.440300 1.157100
94.501600 1.164000
94.562800 1.136900
94.624100 1.125400
94.685300 1.157400
94.746600 1.163300
94.807800 1.151300
94.869100 1.160200
94.930400 1.161100
94.991600 1.148600
95.052900 1.145000
95.114100 1.125800
95.175400 1.120600
95.236600 1.119000
95.297900 1.098800
95.359200 1.099100
95.420400 1.146000
95.481700 1.140700
95.542900 1.156000
95.604200 1.159600
95.665400 1.180300
95.726700 1.234300
95.788000 1.258800
95.849200 1.251600
95.910500 1.225400
95.971700 1.252500
96.033000 1.174500
96.094300 1.123400
96.155500 1.100100
96.216800 1.073000
96.278000 1.029500
96.339300 0.976600
96.400500 0.967100
96.461800 0.978100
96.523100 0.990700
96.584300 1.021600
96.645600 1.032300
96.706800 1.016100
96.768100 0.991500
96.829300 0.964900
96.890600 0.925500
96.951900 0.872900
97.013100 0.829300
97.074400 0.782700
97.135600 0.736300
97.196900 0.700200
97.258100 0.651900
97.319400 0.597800
97.380700 0.542700
97.441900 0.470300
97.503200 0.415100
97.564400 0.370200
97.625700 0.332900
97.686900 0.296800
97.748200 0.259600
97.809500 0.223100
97.870700 0.201800
97.932000 0.180500
97.993200 0.174100
98.054500 0.164400
98.115700 0.148700
98.177000 0.139000
98.238300 0.131600
98.299500 0.125700
98.360800 0.119500
98.422000 0.115600
98.483300 0.115000
98.544500 0.114000
98.605800 0.107200
98.667100 0.098600
98.728300 0.091800
98.789600 0.084600
98.850800 0.077600
98.912100 0.070700
98.973300 0.062600
99.034600 0.053600
99.095900 0.045200
99.157100 0.040700
99.218400 0.036900
99.279600 0.033700
99.340900 0.031300
99.402200 0.029500
99.463400 0.027300
99.524700 0.025100
99.585900 0.022900
99.647200 0.020300
99.708400 0.018400
99.769700 0.016800
99.831000 0.016000
99.892200 0.015400
99.953500 0.014800
100.014700 0.014200
100.076000 0.013700
100.137200 0.013800
100.198500 0.013100
100.259800 0.012500
100.321000 0.011900
100.382300 0.011400
100.443500 0.010800
100.504800 0.010300
100.566000 0.009700
100.627300 0.009200
100.688600 0.008700
100.749800 0.008200
100.811100 0.007800
100.872300 0.007300
100.933600 0.005500
100.994800 0.005400
101.056100 0.005200
101.117400 0.005100
101.178600 0.005000
101.239900 0.004900
101.301100 0.004800
101.362400 0.004800
101.423600 0.004400
101.484900 0.004100
101.546200 0.004000
101.607400 0.003800
101.668700 0.003600
101.729900 0.003400
101.791200 0.003300
101.852400 0.003100
101.913700 0.002900
101.975000 0.002800
102.036200 0.002600
102.097500 0.002500
102.158700 0.002300
102.220000 0.002200
102.281200 0.002100
102.342500 0.001900
102.403800 0.001800
102.465000 0.001700
102.526300 0.001500
102.587500 0.001400
102.648800 0.001300
102.710100 0.001200
102.771300 0.002800
102.832600 0.000000
102.893800 0.000000
102.955100 0.000000
103.016300 0.000000
103.077600 0.000000
103.138900 0.000000
103.200100 0.000000
103.261400 0.000000
103.322600 0.000000
103.383900 0.000000
103.445100 0.000000
103.506400 0.000000
103.567700 0.000000
103.628900 0.000000
103.690200 0.000000
103.751400 0.000000
103.812700 0.000000
103.873900 0.000000
103.935200 0.000000
103.996500 0.000000
104.057700 0.000000
104.119000 0.000000
104.180200 0.000000
104.241500 0.000000
104.302700 0.000000
104.364000 0.000000
104.425300 0.000000
104.486500 0.000000
104.547800 0.000000
104.609000 0.000000
104.670300 0.000000
104.731500 0.000000
104.792800 0.000000
104.854100 0.000000
104.915300 0.000000
104.976600 0.000000
105.037800 0.000000
105.099100 0.000000
105.160300 0.000000
105.221600 0.000000
105.282900 0.000000
105.344100 0.000000
105.405400 0.000000
105.466600 0.000000
105.527900 0.000000
105.589100 0.000000
105.650400 0.000000
105.711700 0.000000
105.772900 0.000000
105.834200 0.000000
105.895400 0.000000
105.956700 0.000000
106.017900 0.000000
106.079200 0.000000
106.140500 0.000000
106.201700 0.000000
106.263000 0.000000
106.324200 0.000000
106.385500 0.000000
106.446800 0.000000
106.508000 0.000000
106.569300 0.000000
106.630500 0.000000
106.691800 0.000000
106.753000 0.000000
106.814300 0.000000
106.875600 0.000000
106.936800 0.000000
106.998100 0.000000
107.059300 0.000000
107.120600 0.000000
107.181800 0.000000
107.243100 0.000000
107.304400 0.000000
107.365600 0.000000
107.426900 0.000000
107.488100 0.000000
107.549400 0.000000
107.610600 0.000000
107.671900 0.000000
107.733200 0.000000
107.794400 0.000000
107.855700 0.000000
107.916900 0.000000
107.978200 0.000000
108.039400 0.000000
108.100700 0.000000
108.162000 0.000000
108.223200 0.000000
108.284500 0.000000
108.345700 0.000000
e
