set title 'mp-169 - Density of States'
set xlabel 'Energy (eV)'
set ylabel 'DOS (states/eV)'
set grid
set xrange [-10:10]
set yrange [0:1.139]
set xzeroaxis lt -1
set terminal png size 800,600
set output 'mp-169_dos_gnuplot.png'
plot '-' using 1:2 with lines title 'DOS'
-23.813200 0.000000
-23.730600 0.000000
-23.648100 0.000000
-23.565500 0.000000
-23.482900 0.000000
-23.400300 0.000000
-23.317800 0.000000
-23.235200 0.000000
-23.152600 0.000000
-23.070000 0.000000
-22.987500 0.000000
-22.904900 0.000000
-22.822300 0.000000
-22.739800 0.000000
-22.657200 0.000000
-22.574600 0.000000
-22.492000 0.000000
-22.409500 0.000000
-22.326900 0.000000
-22.244300 0.000000
-22.161700 0.000000
-22.079200 0.000000
-21.996600 0.000000
-21.914000 0.000000
-21.831400 0.000000
-21.748900 0.000000
-21.666300 0.000000
-21.583700 0.000000
-21.501200 0.000000
-21.418600 0.000000
-21.336000 0.000000
-21.253400 0.000000
-21.170900 0.000000
-21.088300 0.000000
-21.005700 0.000000
-20.923100 0.000000
-20.840600 0.000000
-20.758000 0.000000
-20.675400 0.000000
-20.592800 0.000000
-20.510300 0.000000
-20.427700 0.000000
-20.345100 0.000000
-20.262600 0.000000
-20.180000 0.000000
-20.097400 0.000000
-20.014800 0.000000
-19.932300 0.000000
-19.849700 0.000000
-19.767100 0.000000
-19.684500 0.000000
-19.602000 0.000000
-19.519400 0.000000
-19.436800 0.000000
-19.354200 0.000000
-19.271700 0.000000
-19.189100 0.000000
-19.106500 0.000000
-19.024000 0.000000
-18.941400 0.000000
-18.858800 0.000000
-18.776200 0.000000
-18.693700 0.000000
-18.611100 0.000000
-18.528500 0.000000
-18.445900 0.000000
-18.363400 0.000000
-18.280800 0.000000
-18.198200 0.000000
-18.115600 0.000000
-18.033100 0.000000
-17.950500 0.000000
-17.867900 0.000000
-17.785400 0.000000
-17.702800 0.000000
-17.620200 0.000000
-17.537600 0.000000
-17.455100 0.000000
-17.372500 0.000000
-17.289900 0.000000
-17.207300 0.000000
-17.124800 0.000000
-17.042200 0.000000
-16.959600 0.000000
-16.877000 0.000000
-16.794500 0.000000
-16.711900 0.000000
-16.629300 0.000000
-16.546800 0.000000
-16.464200 0.000000
-16.381600 0.000000
-16.299000 0.002700
-16.216500 0.129800
-16.133900 0.307700
-16.051300 0.378200
-15.968700 0.268600
-15.886200 0.283700
-15.803600 0.298800
-15.721000 0.313800
-15.638400 0.328900
-15.555900 0.336600
-15.473300 0.319900
-15.390700 0.301900
-15.308200 0.292100
-15.225600 0.297600
-15.143000 0.303000
-15.060400 0.308400
-14.977900 0.313900
-14.895300 0.319300
-14.812700 0.324800
-14.730100 0.330200
-14.647600 0.325300
-14.565000 0.311500
-14.482400 0.310800
-14.399800 0.310100
-14.317300 0.309500
-14.234700 0.308800
-14.152100 0.309300
-14.069600 0.312300
-13.987000 0.315200
-13.904400 0.318200
-13.821800 0.321200
-13.739300 0.324200
-13.656700 0.327100
-13.574100 0.330100
-13.491500 0.332000
-13.409000 0.327300
-13.326400 0.322000
-13.243800 0.318800
-13.161200 0.320300
-13.078700 0.321700
-12.996100 0.323200
-12.913500 0.324700
-12.831000 0.326100
-12.748400 0.327600
-12.665800 0.329100
-12.583200 0.331200
-12.500700 0.335500
-12.418100 0.339900
-12.335500 0.344200
-12.252900 0.348600
-12.170400 0.352900
-12.087800 0.357300
-12.005200 0.361600
-11.922600 0.364000
-11.840100 0.373700
-11.757500 0.383500
-11.674900 0.393300
-11.592400 0.403100
-11.509800 0.733600
-11.427200 0.650500
-11.344600 0.567500
-11.262100 0.484400
-11.179500 0.401300
-11.096900 0.318300
-11.014300 0.263100
-10.931800 0.247300
-10.849200 0.231400
-10.766600 0.215500
-10.684000 0.199600
-10.601500 0.183800
-10.518900 0.167900
-10.436300 0.199400
-10.353800 0.780300
-10.271200 0.000000
-10.188600 0.000000
-10.106000 0.000000
-10.023500 0.000000
-9.940900 0.017100
-9.858300 0.042000
-9.775700 0.066900
-9.693200 0.091800
-9.610600 0.116800
-9.528000 0.141700
-9.445400 0.170700
-9.362900 0.352000
-9.280300 0.537400
-9.197700 0.722700
-9.115200 0.467500
-9.032600 0.405900
-8.950000 0.431000
-8.867400 0.456000
-8.784900 0.481100
-8.702300 0.506200
-8.619700 0.376600
-8.537100 0.371600
-8.454600 0.366700
-8.372000 0.361700
-8.289400 0.356700
-8.206800 0.351700
-8.124300 0.346800
-8.041700 0.342800
-7.959100 0.339400
-7.876500 0.336000
-7.794000 0.332600
-7.711400 0.312800
-7.628800 0.259200
-7.546300 0.257900
-7.463700 0.256600
-7.381100 0.255300
-7.298500 0.254000
-7.216000 0.252700
-7.133400 0.251400
-7.050800 0.250100
-6.968200 0.248900
-6.885700 0.342400
-6.803100 0.348400
-6.720500 0.353300
-6.637900 0.356300
-6.555400 0.359200
-6.472800 0.362200
-6.390200 0.365100
-6.307700 0.368100
-6.225100 0.371100
-6.142500 0.374000
-6.059900 0.377000
-5.977400 0.379900
-5.894800 0.382900
-5.812200 0.385800
-5.729600 0.388800
-5.647100 0.394900
-5.564500 0.400000
-5.481900 0.404100
-5.399300 0.408400
-5.316800 0.412700
-5.234200 0.454600
-5.151600 0.458200
-5.069100 0.461700
-4.986500 0.465200
-4.903900 0.468700
-4.821300 0.472200
-4.738800 0.475800
-4.656200 0.489400
-4.573600 0.524300
-4.491000 0.570700
-4.408500 0.605100
-4.325900 0.617200
-4.243300 0.733300
-4.160700 0.773400
-4.078200 0.804700
-3.995600 0.846100
-3.913000 0.887500
-3.830500 1.035000
-3.747900 1.017700
-3.665300 0.988700
-3.582700 0.955400
-3.500200 0.936200
-3.417600 0.930200
-3.335000 0.909200
-3.252400 0.877600
-3.169900 0.808300
-3.087300 0.661500
-3.004700 0.528100
-2.922100 0.450000
-2.839600 0.614000
-2.757000 0.786800
-2.674400 0.910000
-2.591900 0.958700
-2.509300 0.966400
-2.426700 0.991500
-2.344100 0.749500
-2.261600 0.596100
-2.179000 0.594200
-2.096400 0.597900
-2.013800 0.634900
-1.931300 0.672900
-1.848700 0.702600
-1.766100 0.724000
-1.683500 0.734300
-1.601000 0.723300
-1.518400 0.697400
-1.435800 0.671300
-1.353300 0.642800
-1.270700 0.631100
-1.188100 0.626800
-1.105500 0.615200
-1.023000 0.605500
-0.940400 0.596500
-0.857800 0.587500
-0.775200 0.578300
-0.692700 0.605700
-0.610100 0.587800
-0.527500 0.570700
-0.444900 0.553800
-0.362400 0.537800
-0.279800 0.643200
-0.197200 0.593400
-0.114700 0.544300
-0.032100 0.496100
0.050500 0.449500
0.133100 0.403200
0.215600 0.383400
0.298200 0.393500
0.380800 0.406400
0.463400 0.422100
0.545900 0.441300
0.628500 0.612300
0.711100 0.662200
0.793700 0.620700
0.876200 0.651600
0.958800 0.372800
1.041400 0.333700
1.123900 0.313100
1.206500 0.292500
1.289100 0.271900
1.371700 0.251300
1.454200 0.230700
1.536800 0.210000
1.619400 0.189400
1.702000 0.179500
1.784500 0.179400
1.867100 0.190900
1.949700 0.205800
2.032300 0.221000
2.114800 0.247900
2.197400 0.246200
2.280000 0.107900
2.362500 0.000000
2.445100 0.000000
2.527700 0.000000
2.610300 0.000000
2.692800 0.000000
2.775400 0.000000
2.858000 0.000000
2.940600 0.000000
3.023100 0.000000
3.105700 0.000000
3.188300 0.000000
3.270900 0.000000
3.353400 0.000000
3.436000 0.000000
3.518600 0.000000
3.601100 0.000000
3.683700 0.000000
3.766300 0.000000
3.848900 0.000000
3.931400 0.000000
4.014000 0.000000
4.096600 0.000000
4.179200 0.153500
4.261700 0.405300
4.344300 0.335200
4.426900 0.241400
4.509500 0.171700
4.592000 0.183200
4.674600 0.214900
4.757200 0.247000
4.839700 0.300400
4.922300 0.374500
5.004900 0.472000
5.087500 0.609200
5.170000 0.657200
5.252600 0.623300
5.335200 0.566800
5.417800 0.415700
5.500300 0.396400
5.582900 0.378400
5.665500 0.360300
5.748100 0.342300
5.830600 0.323500
5.913200 0.303600
5.995800 0.286800
6.078300 0.278500
6.160900 0.272300
6.243500 0.266400
6.326100 0.261300
6.408600 0.256800
6.491200 0.252800
6.573800 0.251600
6.656400 0.264700
6.738900 0.277100
6.821500 0.287200
6.904100 0.289400
6.986700 0.293500
7.069200 0.295700
7.151800 0.296400
7.234400 0.299100
7.316900 0.302000
7.399500 0.305200
7.482100 0.310100
7.564700 0.315400
7.647200 0.321900
7.729800 0.327700
7.812400 0.333300
7.895000 0.339000
7.977500 0.344800
8.060100 0.351000
8.142700 0.354800
8.225300 0.360200
8.307800 0.366400
8.390400 0.372900
8.473000 0.379800
8.555500 0.387200
8.638100 0.394500
8.720700 0.375500
8.803300 0.355400
8.885800 0.333900
8.968400 0.287700
9.051000 0.274200
9.133600 0.264500
9.216100 0.247200
9.298700 0.234100
9.381300 0.230400
9.463900 0.232000
9.546400 0.235900
9.629000 0.240100
9.711600 0.244000
9.794100 0.249500
9.876700 0.258800
9.959300 0.278400
10.041900 0.321600
10.124400 0.679500
10.207000 0.523000
10.289600 0.512700
10.372200 0.501100
10.454700 0.488200
10.537300 0.488100
10.619900 0.604900
10.702500 0.760500
10.785000 0.793400
10.867600 0.813800
10.950200 0.823500
11.032700 0.817500
11.115300 0.816200
11.197900 0.844400
11.280500 0.879300
11.363000 0.918400
11.445600 0.984000
11.528200 1.588100
11.610800 1.543800
11.693300 1.407000
11.775900 1.319800
11.858500 1.294600
11.941100 1.263500
12.023600 1.212600
12.106200 1.223300
12.188800 1.384500
12.271300 1.649800
12.353900 1.323800
12.436500 1.290200
12.519100 0.602700
12.601600 0.590700
12.684200 0.580000
12.766800 0.572400
12.849400 0.566500
12.931900 0.563000
13.014500 0.562000
13.097100 0.562900
13.179700 0.568000
13.262200 0.577200
13.344800 0.594600
13.427400 0.616900
13.509900 0.677700
13.592500 0.856600
13.675100 1.040000
13.757700 1.518300
13.840200 1.771400
13.922800 1.364300
14.005400 0.992600
14.088000 1.088400
14.170500 1.081500
14.253100 0.844700
14.335700 0.842600
14.418300 0.830400
14.500800 0.788100
14.583400 0.643800
14.666000 0.565800
14.748500 0.519300
14.831100 0.472900
14.913700 0.429100
14.996300 0.391200
15.078800 0.353400
15.161400 0.391000
15.244000 0.653300
15.326600 0.883400
15.409100 0.507500
15.491700 0.553300
15.574300 0.623200
15.656900 0.720300
15.739400 0.818400
15.822000 0.865500
15.904600 0.899600
15.987100 0.948100
16.069700 1.005300
16.152300 0.911000
16.234900 0.942600
16.317400 1.011600
16.400000 1.009700
16.482600 0.970200
16.565200 0.955500
16.647700 0.945100
16.730300 0.955500
16.812900 1.078000
16.895500 0.965200
16.978000 0.871100
17.060600 0.905500
17.143200 0.937100
17.225700 0.957400
17.308300 0.960000
17.390900 0.914600
17.473500 0.884600
17.556000 0.868200
17.638600 0.852300
17.721200 0.834600
17.803800 0.825400
17.886300 0.833600
17.968900 0.846500
18.051500 0.868200
18.134100 0.894000
18.216600 0.984600
18.299200 0.910100
18.381800 0.848000
18.464300 0.830200
18.546900 0.827000
18.629500 0.879500
18.712100 0.853700
18.794600 0.907900
18.877200 0.928200
18.959800 0.896900
19.042400 0.879400
19.124900 0.858000
19.207500 0.813400
19.290100 0.747600
19.372700 0.719200
19.455200 0.695000
19.537800 0.611100
19.620400 0.582100
19.702900 0.583400
19.785500 0.589800
19.868100 0.604200
19.950700 0.627000
20.033200 0.660500
20.115800 0.704300
20.198400 0.706700
20.281000 0.742200
20.363500 0.776100
20.446100 0.793900
20.528700 0.799100
20.611300 0.776000
20.693800 0.741100
20.776400 0.711000
20.859000 0.696100
20.941500 0.690300
21.024100 0.683100
21.106700 0.673800
21.189300 0.670600
21.271800 0.670400
21.354400 0.673000
21.437000 0.708800
21.519600 0.766000
21.602100 0.827100
21.684700 0.894500
21.767300 0.955700
21.849900 0.960400
21.932400 0.946000
22.015000 0.917400
22.097600 0.961600
22.180100 0.987700
22.262700 1.037400
22.345300 0.973900
22.427900 0.884000
22.510400 0.840300
22.593000 0.808200
22.675600 0.831400
22.758200 0.798400
22.840700 0.774700
22.923300 0.776300
23.005900 0.765800
23.088500 0.708800
23.171000 0.678600
23.253600 0.681100
23.336200 0.630500
23.418700 0.602900
23.501300 0.607800
23.583900 0.617400
23.666500 0.629600
23.749000 0.645900
23.831600 0.798600
23.914200 0.912400
23.996800 0.936100
24.079300 0.952900
24.161900 0.972300
24.244500 0.999500
24.327100 1.011700
24.409600 0.946200
24.492200 0.894700
24.574800 0.862500
24.657300 0.846700
24.739900 0.823800
24.822500 0.811600
24.905100 0.813400
24.987600 0.834400
25.070200 0.872000
25.152800 0.925900
25.235400 0.994700
25.317900 1.030200
25.400500 1.049500
25.483100 1.044200
25.565700 1.008900
25.648200 0.983100
25.730800 0.882200
25.813400 0.920000
25.895900 0.950700
25.978500 1.014600
26.061100 1.176400
26.143700 1.465200
26.226200 1.602900
26.308800 1.574800
26.391400 1.562800
26.474000 1.405900
26.556500 1.432900
26.639100 1.208700
26.721700 1.071100
26.804300 0.986500
26.886800 0.923300
26.969400 0.875300
27.052000 0.836400
27.134500 0.859400
27.217100 0.826900
27.299700 0.749600
27.382300 0.678100
27.464800 0.640500
27.547400 0.554600
27.630000 0.553100
27.712600 0.567300
27.795100 0.626600
27.877700 0.707900
27.960300 0.801100
28.042900 0.885700
28.125400 0.977000
28.208000 1.057400
28.290600 1.072800
28.373200 1.064000
28.455700 1.040000
28.538300 1.009800
28.620900 0.948500
28.703400 0.804000
28.786000 0.764300
28.868600 0.748200
28.951200 0.740900
29.033700 0.736800
29.116300 0.733700
29.198900 0.731900
29.281500 0.729400
29.364000 0.732900
29.446600 0.775800
29.529200 0.835000
29.611800 0.890700
29.694300 0.917300
29.776900 0.966500
29.859500 1.026900
29.942000 1.058000
30.024600 1.215800
30.107200 1.265700
30.189800 1.312900
30.272300 1.354600
30.354900 1.355700
30.437500 1.292800
30.520100 1.218100
30.602600 1.168900
30.685200 1.114100
30.767800 0.963900
30.850400 0.848200
30.932900 0.887500
31.015500 0.887300
31.098100 0.883000
31.180600 0.889300
31.263200 0.927600
31.345800 1.037300
31.428400 0.966000
31.510900 0.964200
31.593500 0.956600
31.676100 0.937300
31.758700 0.764700
31.841200 0.747100
31.923800 0.799200
32.006400 0.765500
32.089000 0.726800
32.171500 0.705200
32.254100 0.659200
32.336700 0.616300
32.419200 0.609300
32.501800 0.622300
32.584400 0.644800
32.667000 0.674100
32.749500 0.724200
32.832100 0.793300
32.914700 0.859500
32.997300 0.726100
33.079800 0.655400
33.162400 0.641300
33.245000 0.606800
33.327600 0.592100
33.410100 0.604100
33.492700 0.580000
33.575300 0.664400
33.657800 0.689000
33.740400 0.750100
33.823000 0.824800
33.905600 0.886200
33.988100 0.900700
34.070700 0.868100
34.153300 0.872800
34.235900 0.917100
34.318400 0.973500
34.401000 0.982600
34.483600 0.978500
34.566200 0.970400
34.648700 0.997600
34.731300 1.039800
34.813900 1.051800
34.896400 1.029500
34.979000 0.967500
35.061600 0.907400
35.144200 0.862700
35.226700 0.798600
35.309300 0.774200
35.391900 0.765000
35.474500 0.745000
35.557000 0.725400
35.639600 0.723100
35.722200 0.760800
35.804800 0.945500
35.887300 0.981600
35.969900 1.011400
36.052500 1.040700
36.135000 1.046800
36.217600 0.949200
36.300200 0.873900
36.382800 0.820600
36.465300 0.772200
36.547900 0.719500
36.630500 0.657300
36.713100 0.641400
36.795600 0.641000
36.878200 0.648800
36.960800 0.653500
37.043400 0.657700
37.125900 0.735300
37.208500 0.769500
37.291100 0.758500
37.373600 0.765200
37.456200 0.778200
37.538800 0.779800
37.621400 0.770700
37.703900 0.757400
37.786500 0.740200
37.869100 0.721600
37.951700 0.706700
38.034200 0.696700
38.116800 0.690600
38.199400 0.702400
38.282000 0.664500
38.364500 0.657200
38.447100 0.578900
38.529700 0.544100
38.612200 0.529800
38.694800 0.517600
38.777400 0.506500
38.860000 0.517600
38.942500 0.549400
39.025100 0.567500
39.107700 0.597200
39.190300 0.624200
39.272800 0.653200
39.355400 0.678900
39.438000 0.708200
39.520600 0.749600
39.603100 0.715100
39.685700 0.743800
39.768300 0.791200
39.850800 0.789400
39.933400 0.840400
40.016000 0.881100
40.098600 0.928800
40.181100 0.993900
40.263700 1.079100
40.346300 1.247000
40.428900 1.425800
40.511400 1.603300
40.594000 1.673000
40.676600 1.673600
40.759200 1.658400
40.841700 1.460700
40.924300 1.371100
41.006900 1.309300
41.089400 1.239000
41.172000 1.109800
41.254600 1.039700
41.337200 0.983700
41.419700 0.909500
41.502300 0.880100
41.584900 0.857800
41.667500 0.867100
41.750000 0.886700
41.832600 0.917500
41.915200 0.977500
41.997800 1.098300
42.080300 1.098200
42.162900 1.082600
42.245500 1.077500
42.328000 1.102900
42.410600 1.158800
42.493200 1.171000
42.575800 1.147000
42.658300 1.120600
42.740900 1.167200
42.823500 1.201500
42.906100 1.027700
42.988600 0.904100
43.071200 0.901300
43.153800 0.902400
43.236400 0.904600
43.318900 0.916300
43.401500 0.941000
43.484100 0.967400
43.566600 0.987600
43.649200 1.138800
43.731800 1.299300
43.814400 1.230300
43.896900 1.148500
43.979500 1.139800
44.062100 1.055200
44.144700 1.030000
44.227200 1.001100
44.309800 0.980500
44.392400 1.048100
44.475000 1.025000
44.557500 1.003400
44.640100 0.972000
44.722700 0.948400
44.805200 0.934500
44.887800 0.909900
44.970400 0.911100
45.053000 0.913200
45.135500 0.895400
45.218100 0.855100
45.300700 0.876100
45.383300 0.923100
45.465800 1.000200
45.548400 0.942400
45.631000 0.937500
45.713600 0.942700
45.796100 0.958900
45.878700 0.950000
45.961300 0.972200
46.043800 1.020600
46.126400 1.058300
46.209000 1.083400
46.291600 1.327600
46.374100 1.317900
46.456700 1.379600
46.539300 1.451000
46.621900 1.551100
46.704400 1.694300
46.787000 1.739600
46.869600 1.645500
46.952200 1.573900
47.034700 1.350200
47.117300 1.155100
47.199900 1.138300
47.282400 1.168600
47.365000 1.228400
47.447600 1.311400
47.530200 1.370200
47.612700 1.354200
47.695300 1.384300
47.777900 1.372100
47.860500 1.399000
47.943000 1.425600
48.025600 1.447700
48.108200 1.408600
48.190800 1.414300
48.273300 1.293000
48.355900 1.148900
48.438500 1.114200
48.521000 1.114300
48.603600 1.142200
48.686200 1.138000
48.768800 1.127400
48.851300 1.097800
48.933900 1.108700
49.016500 1.127800
49.099100 1.156800
49.181600 1.189400
49.264200 1.214300
49.346800 1.197700
49.429400 1.144600
49.511900 1.093200
49.594500 1.071500
49.677100 1.031700
49.759600 0.995800
49.842200 0.971100
49.924800 0.943700
50.007400 0.918700
50.089900 0.913800
50.172500 0.936400
50.255100 0.945000
50.337700 0.942400
50.420200 0.946700
50.502800 0.934500
50.585400 0.988600
50.668000 1.068700
50.750500 1.237200
50.833100 1.572100
50.915700 1.382700
50.998200 1.332100
51.080800 1.302100
51.163400 1.272600
51.246000 1.259300
51.328500 1.206400
51.411100 1.155600
51.493700 1.128700
51.576300 1.128500
51.658800 1.115200
51.741400 1.043600
51.824000 1.031500
51.906600 1.022700
51.989100 1.042200
52.071700 1.075200
52.154300 1.098000
52.236800 1.128600
52.319400 1.156700
52.402000 1.172000
52.484600 1.154200
52.567100 1.110300
52.649700 1.073000
52.732300 1.028900
52.814900 0.998000
52.897400 0.984600
52.980000 0.978200
53.062600 0.976000
53.145200 0.988000
53.227700 1.001900
53.310300 1.011300
53.392900 1.025800
53.475400 1.017400
53.558000 1.008600
53.640600 1.002000
53.723200 0.998800
53.805700 0.999200
53.888300 1.001300
53.970900 1.014400
54.053500 1.032900
54.136000 1.059900
54.218600 1.112200
54.301200 1.215000
54.383800 1.158600
54.466300 1.191900
54.548900 1.226600
54.631500 1.387200
54.714000 1.297900
54.796600 1.241500
54.879200 1.257300
54.961800 1.268500
55.044300 1.230100
55.126900 1.119900
55.209500 1.034200
55.292100 1.005900
55.374600 0.976100
55.457200 0.948200
55.539800 0.928000
55.622400 0.914800
55.704900 0.950600
55.787500 0.963900
55.870100 0.914400
55.952600 0.934100
56.035200 0.949500
56.117800 0.937300
56.200400 0.946600
56.282900 0.936400
56.365500 0.942700
56.448100 0.948000
56.530700 0.943300
56.613200 0.941000
56.695800 0.944700
56.778400 0.972300
56.861000 0.990100
56.943500 0.995200
57.026100 1.055200
57.108700 1.027600
57.191200 1.036200
57.273800 1.042600
57.356400 1.047100
57.439000 1.042100
57.521500 1.028900
57.604100 1.025000
57.686700 1.030700
57.769300 1.044100
57.851800 1.076600
57.934400 1.155200
58.017000 1.209700
58.099600 1.230600
58.182100 1.251000
58.264700 1.273900
58.347300 1.248100
58.429800 1.229300
58.512400 1.195800
58.595000 1.191200
58.677600 1.199200
58.760100 1.156100
58.842700 1.148100
58.925300 1.175600
59.007900 1.189500
59.090400 1.186700
59.173000 1.184500
59.255600 1.218800
59.338200 1.222900
59.420700 1.282800
59.503300 1.406400
59.585900 1.332300
59.668400 1.291800
59.751000 1.281200
59.833600 1.255400
59.916200 1.263400
59.998700 1.253800
60.081300 1.248400
60.163900 1.237500
60.246500 1.221100
60.329000 1.197500
60.411600 1.181900
60.494200 1.298200
60.576800 1.399800
60.659300 1.571100
60.741900 1.346900
60.824500 1.293800
60.907000 1.240500
60.989600 1.225900
61.072200 1.230600
61.154800 1.224400
61.237300 1.230900
61.319900 1.292400
61.402500 1.291300
61.485100 1.291000
61.567600 1.260400
61.650200 1.269500
61.732800 1.305300
61.815400 1.343000
61.897900 1.344000
61.980500 1.312300
62.063100 1.346100
62.145600 1.223100
62.228200 1.166300
62.310800 1.142100
62.393400 1.155100
62.475900 1.208700
62.558500 1.766500
62.641100 1.511300
62.723700 1.413300
62.806200 1.405500
62.888800 1.450000
62.971400 1.323000
63.054000 1.238500
63.136500 1.210200
63.219100 1.182400
63.301700 1.200100
63.384200 1.241400
63.466800 1.343400
63.549400 1.319000
63.632000 1.308000
63.714500 1.301500
63.797100 1.307100
63.879700 1.313200
63.962300 1.316500
64.044800 1.308600
64.127400 1.242800
64.210000 1.155900
64.292600 1.160700
64.375100 1.199500
64.457700 1.261400
64.540300 1.305500
64.622900 1.383100
64.705400 1.407600
64.788000 1.403300
64.870600 1.391900
64.953100 1.326700
65.035700 1.336800
65.118300 1.426900
65.200900 1.384000
65.283400 1.319600
65.366000 1.238900
65.448600 1.141200
65.531200 1.069200
65.613700 1.054100
65.696300 1.069300
65.778900 1.093100
65.861500 1.092100
65.944000 1.113800
66.026600 1.140200
66.109200 1.181700
66.191700 1.258900
66.274300 1.416400
66.356900 1.407200
66.439500 1.407000
66.522000 1.479400
66.604600 1.670300
66.687200 1.545600
66.769800 1.445000
66.852300 1.395300
66.934900 1.410300
67.017500 1.392000
67.100100 1.467000
67.182600 1.521600
67.265200 1.500900
67.347800 1.448800
67.430300 1.387700
67.512900 1.337700
67.595500 1.326700
67.678100 1.221500
67.760600 1.156800
67.843200 1.169600
67.925800 1.222600
68.008400 1.313200
68.090900 1.298000
68.173500 1.330600
68.256100 1.313900
68.338700 1.243900
68.421200 1.244900
68.503800 1.246200
68.586400 1.263400
68.668900 1.285100
68.751500 1.246900
68.834100 1.119400
68.916700 1.026200
68.999200 1.021700
69.081800 1.017200
69.164400 1.131100
69.247000 1.127800
69.329500 1.082400
69.412100 1.115900
69.494700 1.158700
69.577300 1.210900
69.659800 1.305300
69.742400 1.378600
69.825000 1.478400
69.907500 1.519400
69.990100 1.499000
70.072700 1.490200
70.155300 1.528300
70.237800 1.420100
70.320400 1.369300
70.403000 1.338900
70.485600 1.319100
70.568100 1.241000
70.650700 1.171200
70.733300 1.157500
70.815900 1.127000
70.898400 1.092900
70.981000 1.056200
71.063600 1.048700
71.146100 1.040700
71.228700 1.037000
71.311300 1.047300
71.393900 1.074200
71.476400 1.100000
71.559000 1.140700
71.641600 1.187100
71.724200 1.249500
71.806700 1.303200
71.889300 1.306200
71.971900 1.324900
72.054500 1.300300
72.137000 1.268200
72.219600 1.268800
72.302200 1.244700
72.384700 1.204200
72.467300 1.222900
72.549900 1.335700
72.632500 1.295100
72.715000 1.265800
72.797600 1.221200
72.880200 1.166800
72.962800 1.086800
73.045300 1.065500
73.127900 1.073200
73.210500 1.088500
73.293100 1.108300
73.375600 1.138000
73.458200 1.137100
73.540800 1.162600
73.623300 1.192000
73.705900 1.218300
73.788500 1.259700
73.871100 1.234700
73.953600 1.252600
74.036200 1.268500
74.118800 1.207200
74.201400 1.169000
74.283900 1.173500
74.366500 1.189300
74.449100 1.218600
74.531700 1.256200
74.614200 1.302100
74.696800 1.319700
74.779400 1.331100
74.861900 1.359300
74.944500 1.403400
75.027100 1.444300
75.109700 1.395800
75.192200 1.413700
75.274800 1.404000
75.357400 1.378000
75.440000 1.345400
75.522500 1.301200
75.605100 1.291400
75.687700 1.261100
75.770300 1.225400
75.852800 1.218800
75.935400 1.229500
76.018000 1.200500
76.100500 1.211500
76.183100 1.255000
76.265700 1.251200
76.348300 1.244100
76.430800 1.316700
76.513400 1.234000
76.596000 1.202200
76.678600 1.141500
76.761100 1.092700
76.843700 1.093100
76.926300 1.117100
77.008900 1.160300
77.091400 1.309400
77.174000 1.386400
77.256600 1.387700
77.339100 1.342200
77.421700 1.301800
77.504300 1.283900
77.586900 1.270400
77.669400 1.300600
77.752000 1.298500
77.834600 1.294900
77.917200 1.249600
77.999700 1.222100
78.082300 1.227400
78.164900 1.238000
78.247500 1.255500
78.330000 1.263100
78.412600 1.299100
78.495200 1.355800
78.577700 1.460200
78.660300 1.481400
78.742900 1.482600
78.825500 1.372100
78.908000 1.372800
78.990600 1.384000
79.073200 1.472600
79.155800 1.690600
79.238300 1.790600
79.320900 1.744400
79.403500 1.710900
79.486100 1.633200
79.568600 1.530400
79.651200 1.507100
79.733800 1.414100
79.816300 1.348300
79.898900 1.361800
79.981500 1.414700
80.064100 1.509900
80.146600 1.587000
80.229200 1.518900
80.311800 1.433900
80.394400 1.426700
80.476900 1.446800
80.559500 1.486000
80.642100 1.550000
80.724700 1.544700
80.807200 1.518700
80.889800 1.491600
80.972400 1.481500
81.054900 1.479000
81.137500 1.345500
81.220100 1.311000
81.302700 1.342600
81.385200 1.297400
81.467800 1.244900
81.550400 1.251000
81.633000 1.227200
81.715500 1.212300
81.798100 1.241400
81.880700 1.228500
81.963300 1.236900
82.045800 1.292200
82.128400 1.435100
82.211000 1.619500
82.293500 1.749300
82.376100 1.751800
82.458700 1.653300
82.541300 1.678500
82.623800 1.572000
82.706400 1.540000
82.789000 1.508500
82.871600 1.467700
82.954100 1.452800
83.036700 1.402900
83.119300 1.361800
83.201900 1.363500
83.284400 1.368100
83.367000 1.384700
83.449600 1.359200
83.532100 1.378700
83.614700 1.419800
83.697300 1.447000
83.779900 1.563600
83.862400 1.499500
83.945000 1.421300
84.027600 1.298600
84.110200 1.268700
84.192700 1.265100
84.275300 1.306600
84.357900 1.351900
84.440500 1.456700
84.523000 1.472900
84.605600 1.428400
84.688200 1.417800
84.770700 1.421400
84.853300 1.427100
84.935900 1.442200
85.018500 1.471700
85.101000 1.486000
85.183600 1.493500
85.266200 1.500500
85.348800 1.494200
85.431300 1.487300
85.513900 1.579600
85.596500 1.519400
85.679100 1.505300
85.761600 1.478900
85.844200 1.444700
85.926800 1.447400
86.009300 1.452400
86.091900 1.443400
86.174500 1.435100
86.257100 1.415900
86.339600 1.395100
86.422200 1.369600
86.504800 1.352100
86.587400 1.343000
86.669900 1.339200
86.752500 1.301600
86.835100 1.315700
86.917700 1.350400
87.000200 1.366300
87.082800 1.353600
87.165400 1.387000
87.247900 1.407800
87.330500 1.430000
87.413100 1.451400
87.495700 1.449200
87.578200 1.481000
87.660800 1.497000
87.743400 1.497000
87.826000 1.498000
87.908500 1.496000
87.991100 1.498600
88.073700 1.507100
88.156300 1.517200
88.238800 1.480200
88.321400 1.472800
88.404000 1.481900
88.486500 1.513300
88.569100 1.523600
88.651700 1.523900
88.734300 1.556500
88.816800 1.624800
88.899400 1.640500
88.982000 1.525600
89.064600 1.421500
89.147100 1.423900
89.229700 1.481200
89.312300 1.439400
89.394900 1.459700
89.477400 1.456100
89.560000 1.446900
89.642600 1.425000
89.725100 1.411100
89.807700 1.405100
89.890300 1.415900
89.972900 1.431200
90.055400 1.439300
90.138000 1.413400
90.220600 1.402300
90.303200 1.501700
90.385700 1.604000
90.468300 1.582800
90.550900 1.559200
90.633500 1.537700
90.716000 1.473400
90.798600 1.387000
90.881200 1.400300
90.963700 1.416900
91.046300 1.432700
91.128900 1.429500
91.211500 1.434200
91.294000 1.447000
91.376600 1.495500
91.459200 1.574100
91.541800 1.614600
91.624300 1.617200
91.706900 1.706800
91.789500 1.648200
91.872100 1.481700
91.954600 1.452100
92.037200 1.433900
92.119800 1.424900
92.202300 1.431000
92.284900 1.484300
92.367500 1.444000
92.450100 1.397700
92.532600 1.363800
92.615200 1.341400
92.697800 1.307600
92.780400 1.305800
92.862900 1.303500
92.945500 1.305100
93.028100 1.315100
93.110700 1.346000
93.193200 1.381300
93.275800 1.394400
93.358400 1.400900
93.440900 1.391200
93.523500 1.385600
93.606100 1.368100
93.688700 1.350600
93.771200 1.385400
93.853800 1.380800
93.936400 1.368900
94.019000 1.356200
94.101500 1.337100
94.184100 1.313500
94.266700 1.299800
94.349300 1.299300
94.431800 1.323500
94.514400 1.361700
94.597000 1.402500
94.679500 1.376500
94.762100 1.355000
94.844700 1.343000
94.927300 1.337300
95.009800 1.331000
95.092400 1.320000
95.175000 1.307600
95.257600 1.296600
95.340100 1.290800
95.422700 1.293800
95.505300 1.299500
95.587900 1.304600
95.670400 1.330700
95.753000 1.367900
95.835600 1.408900
95.918100 1.448400
96.000700 1.491800
96.083300 1.526800
96.165900 1.527100
96.248400 1.517500
96.331000 1.509800
96.413600 1.499400
96.496200 1.488700
96.578700 1.463400
96.661300 1.596400
96.743900 1.565800
96.826500 1.558700
96.909000 1.543000
96.991600 1.520800
97.074200 1.482900
97.156700 1.458900
97.239300 1.461300
97.321900 1.465400
97.404500 1.480200
97.487000 1.500500
97.569600 1.520200
97.652200 1.564300
97.734800 1.613000
97.817300 1.629500
97.899900 1.643600
97.982500 1.658800
98.065100 1.661100
98.147600 1.638400
98.230200 1.776100
98.312800 1.615400
98.395300 1.623700
98.477900 1.592300
98.560500 1.577300
98.643100 1.565700
98.725600 1.557400
98.808200 1.566100
98.890800 1.602700
98.973400 1.604000
99.055900 1.594300
99.138500 1.537800
99.221100 1.524000
99.303700 1.483800
99.386200 1.493700
99.468800 1.537500
99.551400 1.522300
99.633900 1.507500
99.716500 1.516000
99.799100 1.527400
99.881700 1.498600
99.964200 1.474500
100.046800 1.466500
100.129400 1.462000
100.212000 1.470100
100.294500 1.493100
100.377100 1.490300
100.459700 1.528700
100.542300 1.518700
100.624800 1.537500
100.707400 1.565900
100.790000 1.561700
100.872600 1.560600
100.955100 1.583700
101.037700 1.577700
101.120300 1.578100
101.202800 1.576500
101.285400 1.586000
101.368000 1.669000
101.450600 1.645100
101.533100 1.624400
101.615700 1.558800
101.698300 1.478100
101.780900 1.424900
101.863400 1.392200
101.946000 1.375700
102.028600 1.368000
102.111200 1.393100
102.193700 1.493200
102.276300 1.620500
102.358900 1.530800
102.441400 1.437300
102.524000 1.410800
102.606600 1.391800
102.689200 1.379700
102.771700 1.372100
102.854300 1.369500
102.936900 1.392000
103.019500 1.416300
103.102000 1.444100
103.184600 1.459500
103.267200 1.677600
103.349800 1.595700
103.432300 1.593000
103.514900 1.606100
103.597500 1.589600
103.680000 1.496800
103.762600 1.471400
103.845200 1.450200
103.927800 1.461300
104.010300 1.480000
104.092900 1.455800
104.175500 1.481600
104.258100 1.538100
104.340600 1.481200
104.423200 1.487600
104.505800 1.465200
104.588400 1.436800
104.670900 1.428800
104.753500 1.400800
104.836100 1.436000
104.918600 1.508600
105.001200 1.544000
105.083800 1.552700
105.166400 1.556100
105.248900 1.531200
105.331500 1.517700
105.414100 1.527900
105.496700 1.487500
105.579200 1.508200
105.661800 1.566800
105.744400 1.634300
105.827000 1.646300
105.909500 1.677800
105.992100 1.644600
106.074700 1.532500
106.157200 1.494400
106.239800 1.423300
106.322400 1.454500
106.405000 1.593200
106.487500 1.724400
106.570100 1.770800
106.652700 1.763300
106.735300 1.645200
106.817800 1.490100
106.900400 1.433900
106.983000 1.466800
107.065600 1.511100
107.148100 1.542400
107.230700 1.550300
107.313300 1.476800
107.395800 1.475700
107.478400 1.490000
107.561000 1.548900
107.643600 1.604500
107.726100 1.670100
107.808700 1.651600
107.891300 1.632300
107.973900 1.625000
108.056400 1.596400
108.139000 1.599300
108.221600 1.637500
108.304200 1.685900
108.386700 1.768300
108.469300 1.770800
108.551900 1.770800
108.634400 1.726000
108.717000 1.769700
108.799600 1.782700
108.882200 1.727800
108.964700 1.669600
109.047300 1.581100
109.129900 1.537100
109.212500 1.526800
109.295000 1.491500
109.377600 1.453900
109.460200 1.431800
109.542800 1.426400
109.625300 1.495400
109.707900 1.559800
109.790500 1.535800
109.873000 1.533600
109.955600 1.541300
110.038200 1.567600
110.120800 1.565800
110.203300 1.575800
110.285900 1.660200
110.368500 1.721700
110.451100 1.697100
110.533600 1.717500
110.616200 1.743300
110.698800 1.756200
110.781400 1.719000
110.863900 1.691600
110.946500 1.637800
111.029100 1.596100
111.111600 1.573700
111.194200 1.571500
111.276800 1.632300
111.359400 1.646900
111.441900 1.621800
111.524500 1.577500
111.607100 1.577100
111.689700 1.548400
111.772200 1.528800
111.854800 1.561400
111.937400 1.630200
112.020000 1.616600
112.102500 1.632700
112.185100 1.695000
112.267700 1.745200
112.350200 1.719400
112.432800 1.664900
112.515400 1.647100
112.598000 1.626300
112.680500 1.627000
112.763100 1.611500
112.845700 1.602600
112.928300 1.580900
113.010800 1.567200
113.093400 1.524800
113.176000 1.515600
113.258600 1.506300
113.341100 1.465400
113.423700 1.437000
113.506300 1.429400
113.588800 1.453600
113.671400 1.498500
113.754000 1.546700
113.836600 1.605000
113.919100 1.590400
114.001700 1.584700
114.084300 1.605900
114.166900 1.506800
114.249400 1.465900
114.332000 1.443100
114.414600 1.429600
114.497200 1.428700
114.579700 1.452800
114.662300 1.460800
114.744900 1.462400
114.827400 1.502100
114.910000 1.538500
114.992600 1.573700
115.075200 1.626200
115.157700 1.710500
115.240300 1.712200
115.322900 1.719600
115.405500 1.721300
115.488000 1.711700
115.570600 1.667800
115.653200 1.677500
115.735800 1.443700
115.818300 1.418400
115.900900 1.450500
115.983500 1.557900
116.066000 1.498200
116.148600 1.529400
116.231200 1.494500
116.313800 1.479800
116.396300 1.469800
116.478900 1.458000
116.561500 1.451900
116.644100 1.457400
116.726600 1.461500
116.809200 1.467500
116.891800 1.479800
116.974400 1.498300
117.056900 1.530300
117.139500 1.556600
117.222100 1.587400
117.304600 1.604300
117.387200 1.609100
117.469800 1.677900
117.552400 1.711000
117.634900 1.680100
117.717500 1.643400
117.800100 1.628500
117.882700 1.632200
117.965200 1.635400
118.047800 1.630000
118.130400 1.664400
118.213000 1.724300
118.295500 1.692900
118.378100 1.687500
118.460700 1.700200
118.543200 1.686200
118.625800 1.680500
118.708400 1.744400
118.791000 1.741800
118.873500 1.631500
118.956100 1.671800
119.038700 1.679700
119.121300 1.682300
119.203800 1.700300
119.286400 1.737500
119.369000 1.808800
119.451600 1.906500
119.534100 2.045000
119.616700 2.035300
119.699300 1.931100
119.781800 1.937300
119.864400 1.951500
119.947000 1.942500
120.029600 1.908700
120.112100 1.845900
120.194700 1.822000
120.277300 1.790500
120.359900 1.771600
120.442400 1.756000
120.525000 1.737000
120.607600 1.715000
120.690200 1.629000
120.772700 1.530800
120.855300 1.473800
120.937900 1.458800
121.020400 1.531700
121.103000 1.603200
121.185600 1.706300
121.268200 1.840900
121.350700 1.782500
121.433300 1.776300
121.515900 1.757900
121.598500 1.690100
121.681000 1.618100
121.763600 1.547800
121.846200 1.496500
121.928800 1.511300
122.011300 1.524500
122.093900 1.521100
122.176500 1.550900
122.259000 1.574100
122.341600 1.651600
122.424200 1.739800
122.506800 1.912900
122.589300 1.943100
122.671900 1.955200
122.754500 1.845500
122.837100 1.842600
122.919600 1.844600
123.002200 1.796400
123.084800 1.790400
123.167400 1.618100
123.249900 1.586000
123.332500 1.597900
123.415100 1.613300
123.497600 1.623600
123.580200 1.632500
123.662800 1.650600
123.745400 1.730300
123.827900 1.764400
123.910500 1.669200
123.993100 1.604700
124.075700 1.594100
124.158200 1.669100
124.240800 1.628000
124.323400 1.618700
124.406000 1.639500
124.488500 1.514300
124.571100 1.489800
124.653700 1.484000
124.736200 1.491000
124.818800 1.513600
124.901400 1.549700
124.984000 1.627100
125.066500 1.606300
125.149100 1.550400
125.231700 1.547900
125.314300 1.576200
125.396800 1.613000
125.479400 1.553700
125.562000 1.519600
125.644600 1.516000
125.727100 1.527700
125.809700 1.525300
125.892300 1.509500
125.974800 1.476700
126.057400 1.457700
126.140000 1.471800
126.222600 1.493600
126.305100 1.478600
126.387700 1.543500
126.470300 1.478400
126.552900 1.460900
126.635400 1.468700
126.718000 1.488900
126.800600 1.531100
126.883200 1.572100
126.965700 1.604500
127.048300 1.602100
127.130900 1.591100
127.213400 1.567100
127.296000 1.530200
127.378600 1.527800
127.461200 1.542900
127.543700 1.574600
127.626300 1.604300
127.708900 1.585500
127.791500 1.508700
127.874000 1.494200
127.956600 1.537600
128.039200 1.545800
128.121800 1.505600
128.204300 1.405200
128.286900 1.355500
128.369500 1.362700
128.452000 1.380000
128.534600 1.327900
128.617200 1.265900
128.699800 1.176500
128.782300 1.104300
128.864900 1.052100
128.947500 0.992500
129.030100 0.955400
129.112600 0.932800
129.195200 0.918500
129.277800 0.907800
129.360400 0.904600
129.442900 0.925700
129.525500 0.903100
129.608100 0.872600
129.690600 0.851500
129.773200 0.839700
129.855800 0.797200
129.938400 0.732400
130.020900 0.685500
130.103500 0.656800
130.186100 0.607800
130.268700 0.562500
130.351200 0.528300
130.433800 0.513900
130.516400 0.504400
130.599000 0.506200
130.681500 0.510400
130.764100 0.500500
130.846700 0.480000
130.929200 0.461300
131.011800 0.442200
131.094400 0.417100
131.177000 0.439400
131.259500 0.479100
131.342100 0.404000
131.424700 0.312500
131.507300 0.263500
131.589800 0.220200
131.672400 0.197200
131.755000 0.201500
131.837600 0.166600
131.920100 0.138200
132.002700 0.118700
132.085300 0.108700
132.167800 0.104400
132.250400 0.100500
132.333000 0.097100
132.415600 0.094100
132.498100 0.091600
132.580700 0.089400
132.663300 0.103100
132.745900 0.082300
132.828400 0.078800
132.911000 0.074700
132.993600 0.070000
133.076200 0.064800
133.158700 0.059000
133.241300 0.052600
133.323900 0.045700
133.406400 0.038600
133.489000 0.031100
133.571600 0.019200
133.654200 0.007000
133.736700 0.001000
133.819300 0.000000
133.901900 0.000000
133.984500 0.000000
134.067000 0.000000
134.149600 0.000000
134.232200 0.000000
134.314800 0.000000
134.397300 0.000000
134.479900 0.000000
134.562500 0.000000
134.645000 0.000000
134.727600 0.000000
134.810200 0.000000
134.892800 0.000000
134.975300 0.000000
135.057900 0.000000
135.140500 0.000000
135.223100 0.000000
135.305600 0.000000
135.388200 0.000000
135.470800 0.000000
135.553400 0.000000
135.635900 0.000000
135.718500 0.000000
135.801100 0.000000
135.883600 0.000000
135.966200 0.000000
136.048800 0.000000
136.131400 0.000000
136.213900 0.000000
136.296500 0.000000
136.379100 0.000000
136.461700 0.000000
136.544200 0.000000
136.626800 0.000000
136.709400 0.000000
136.792000 0.000000
136.874500 0.000000
136.957100 0.000000
137.039700 0.000000
137.122300 0.000000
137.204800 0.000000
137.287400 0.000000
137.370000 0.000000
137.452500 0.000000
137.535100 0.000000
137.617700 0.000000
137.700300 0.000000
137.782800 0.000000
137.865400 0.000000
137.948000 0.000000
138.030600 0.000000
138.113100 0.000000
138.195700 0.000000
138.278300 0.000000
138.360900 0.000000
138.443400 0.000000
138.526000 0.000000
138.608600 0.000000
138.691100 0.000000
138.773700 0.000000
138.856300 0.000000
138.938900 0.000000
139.021400 0.000000
139.104000 0.000000
139.186600 0.000000
139.269200 0.000000
139.351700 0.000000
139.434300 0.000000
139.516900 0.000000
139.599500 0.000000
139.682000 0.000000
139.764600 0.000000
139.847200 0.000000
139.929700 0.000000
140.012300 0.000000
140.094900 0.000000
140.177500 0.000000
140.260000 0.000000
140.342600 0.000000
140.425200 0.000000
140.507800 0.000000
140.590300 0.000000
140.672900 0.000000
140.755500 0.000000
140.838100 0.000000
140.920600 0.000000
141.003200 0.000000
141.085800 0.000000
141.168300 0.000000
141.250900 0.000000
141.333500 0.000000
e
