set title 'mp-1008806 - Density of States'
set xlabel 'Energy (eV)'
set ylabel 'DOS (states/eV)'
set grid
set xrange [-10:10]
set yrange [0:3.553]
set xzeroaxis lt -1
set terminal png size 800,600
set output 'mp-1008806_dos_gnuplot.png'
plot '-' using 1:2 with lines title 'DOS'
-39.352800 0.000000
-39.293600 0.000000
-39.234300 0.000000
-39.175000 0.000000
-39.115800 0.000000
-39.056500 0.000000
-38.997200 0.000000
-38.937900 0.000000
-38.878700 0.000000
-38.819400 0.000000
-38.760100 0.000000
-38.700900 0.000000
-38.641600 0.000000
-38.582300 0.000000
-38.523000 0.000000
-38.463800 0.000000
-38.404500 0.000000
-38.345200 0.000000
-38.285900 0.000000
-38.226700 0.000000
-38.167400 0.000000
-38.108100 0.000000
-38.048900 0.000000
-37.989600 0.000000
-37.930300 0.000000
-37.871000 0.000000
-37.811800 0.000000
-37.752500 0.000000
-37.693200 0.000000
-37.633900 0.000000
-37.574700 0.000000
-37.515400 0.000000
-37.456100 0.000000
-37.396900 0.000000
-37.337600 0.000000
-37.278300 0.000000
-37.219000 0.000000
-37.159800 0.000000
-37.100500 0.000000
-37.041200 0.000000
-36.981900 0.000000
-36.922700 0.000000
-36.863400 0.000000
-36.804100 0.000000
-36.744900 0.000000
-36.685600 0.000000
-36.626300 0.000000
-36.567000 0.000000
-36.507800 0.000000
-36.448500 0.000000
-36.389200 0.000000
-36.329900 0.000000
-36.270700 0.000000
-36.211400 0.000000
-36.152100 0.000000
-36.092900 0.000000
-36.033600 0.000000
-35.974300 0.000000
-35.915000 0.000000
-35.855800 0.000000
-35.796500 0.000000
-35.737200 0.000000
-35.678000 0.000000
-35.618700 0.000000
-35.559400 0.000000
-35.500100 0.000000
-35.440900 0.000000
-35.381600 0.000000
-35.322300 0.000000
-35.263000 0.000000
-35.203800 0.000000
-35.144500 0.000000
-35.085200 0.000000
-35.026000 0.000000
-34.966700 0.000000
-34.907400 0.000000
-34.848100 0.000000
-34.788900 0.000000
-34.729600 0.000000
-34.670300 0.000000
-34.611000 0.000000
-34.551800 0.000000
-34.492500 0.000000
-34.433200 0.000000
-34.374000 0.000000
-34.314700 0.000000
-34.255400 0.000000
-34.196100 0.000000
-34.136900 0.000000
-34.077600 0.000600
-34.018300 0.089600
-33.959000 1.562900
-33.899800 5.378300
-33.840500 7.633500
-33.781200 6.155100
-33.722000 5.051900
-33.662700 4.251900
-33.603400 4.378600
-33.544100 4.911000
-33.484900 10.000100
-33.425600 18.346000
-33.366300 17.241900
-33.307100 10.457400
-33.247800 4.978100
-33.188500 0.772000
-33.129200 0.018600
-33.070000 0.000000
-33.010700 0.000000
-32.951400 0.000000
-32.892100 0.000000
-32.832900 0.000000
-32.773600 0.000000
-32.714300 0.000000
-32.655100 0.000000
-32.595800 0.000000
-32.536500 0.000000
-32.477200 0.000000
-32.418000 0.000000
-32.358700 0.000000
-32.299400 0.000000
-32.240100 0.000000
-32.180900 0.000000
-32.121600 0.000000
-32.062300 0.000000
-32.003100 0.000000
-31.943800 0.000000
-31.884500 0.000000
-31.825200 0.000000
-31.766000 0.000000
-31.706700 0.000000
-31.647400 0.000000
-31.588100 0.000000
-31.528900 0.000000
-31.469600 0.000000
-31.410300 0.000000
-31.351100 0.000000
-31.291800 0.000000
-31.232500 0.000000
-31.173200 0.000000
-31.114000 0.000000
-31.054700 0.000000
-30.995400 0.000000
-30.936100 0.000000
-30.876900 0.000000
-30.817600 0.000000
-30.758300 0.000000
-30.699100 0.000000
-30.639800 0.000000
-30.580500 0.000000
-30.521200 0.000000
-30.462000 0.000000
-30.402700 0.000000
-30.343400 0.000000
-30.284200 0.000000
-30.224900 0.000000
-30.165600 0.000000
-30.106300 0.000000
-30.047100 0.000000
-29.987800 0.000000
-29.928500 0.000000
-29.869200 0.000000
-29.810000 0.000000
-29.750700 0.000000
-29.691400 0.000000
-29.632200 0.000000
-29.572900 0.000000
-29.513600 0.000000
-29.454300 0.000000
-29.395100 0.000000
-29.335800 0.000000
-29.276500 0.000000
-29.217200 0.000000
-29.158000 0.000000
-29.098700 0.000000
-29.039400 0.000000
-28.980200 0.000000
-28.920900 0.000000
-28.861600 0.000000
-28.802300 0.000000
-28.743100 0.000000
-28.683800 0.000000
-28.624500 0.000000
-28.565200 0.000000
-28.506000 0.000000
-28.446700 0.000000
-28.387400 0.000000
-28.328200 0.000000
-28.268900 0.000000
-28.209600 0.000000
-28.150300 0.000000
-28.091100 0.000000
-28.031800 0.000000
-27.972500 0.000000
-27.913300 0.000000
-27.854000 0.000000
-27.794700 0.000000
-27.735400 0.000000
-27.676200 0.000000
-27.616900 0.000000
-27.557600 0.000000
-27.498300 0.000000
-27.439100 0.000000
-27.379800 0.000000
-27.320500 0.000000
-27.261300 0.000000
-27.202000 0.000000
-27.142700 0.000000
-27.083400 0.000000
-27.024200 0.000000
-26.964900 0.000000
-26.905600 0.000000
-26.846300 0.000000
-26.787100 0.000000
-26.727800 0.000000
-26.668500 0.000000
-26.609300 0.000000
-26.550000 0.000000
-26.490700 0.000000
-26.431400 0.000000
-26.372200 0.000000
-26.312900 0.000000
-26.253600 0.000000
-26.194300 0.000000
-26.135100 0.000000
-26.075800 0.000000
-26.016500 0.000000
-25.957300 0.000000
-25.898000 0.000000
-25.838700 0.000000
-25.779400 0.000000
-25.720200 0.000000
-25.660900 0.000000
-25.601600 0.000000
-25.542300 0.000000
-25.483100 0.000000
-25.423800 0.000000
-25.364500 0.000000
-25.305300 0.000000
-25.246000 0.000000
-25.186700 0.000000
-25.127400 0.000000
-25.068200 0.000000
-25.008900 0.000000
-24.949600 0.000000
-24.890400 0.000000
-24.831100 0.000000
-24.771800 0.000000
-24.712500 0.000000
-24.653300 0.000000
-24.594000 0.000000
-24.534700 0.000000
-24.475400 0.000000
-24.416200 0.000000
-24.356900 0.000000
-24.297600 0.000000
-24.238400 0.000000
-24.179100 0.000000
-24.119800 0.000000
-24.060500 0.000000
-24.001300 0.000000
-23.942000 0.000000
-23.882700 0.000000
-23.823400 0.000000
-23.764200 0.000000
-23.704900 0.000000
-23.645600 0.000000
-23.586400 0.000000
-23.527100 0.000000
-23.467800 0.000000
-23.408500 0.000000
-23.349300 0.000000
-23.290000 0.000000
-23.230700 0.000000
-23.171400 0.000000
-23.112200 0.000000
-23.052900 0.000000
-22.993600 0.000000
-22.934400 0.000000
-22.875100 0.000000
-22.815800 0.000000
-22.756500 0.000000
-22.697300 0.000000
-22.638000 0.000000
-22.578700 0.000000
-22.519500 0.000000
-22.460200 0.000000
-22.400900 0.000000
-22.341600 0.000000
-22.282400 0.000000
-22.223100 0.000000
-22.163800 0.000000
-22.104500 0.000000
-22.045300 0.000000
-21.986000 0.000000
-21.926700 0.000000
-21.867500 0.000000
-21.808200 0.000000
-21.748900 0.000000
-21.689600 0.000000
-21.630400 0.000000
-21.571100 0.000000
-21.511800 0.000000
-21.452500 0.000000
-21.393300 0.000000
-21.334000 0.000000
-21.274700 0.000000
-21.215500 0.000000
-21.156200 0.000000
-21.096900 0.000000
-21.037600 0.000000
-20.978400 0.000000
-20.919100 0.000000
-20.859800 0.000000
-20.800500 0.000000
-20.741300 0.000000
-20.682000 0.000000
-20.622700 0.000000
-20.563500 0.000000
-20.504200 0.000000
-20.444900 0.000000
-20.385600 0.000000
-20.326400 0.000000
-20.267100 0.000000
-20.207800 0.000000
-20.148500 0.000000
-20.089300 0.000000
-20.030000 0.000000
-19.970700 0.000000
-19.911500 0.000000
-19.852200 0.000000
-19.792900 0.000000
-19.733600 0.000000
-19.674400 0.000000
-19.615100 0.000000
-19.555800 0.000000
-19.496600 0.000000
-19.437300 0.000000
-19.378000 0.000000
-19.318700 0.000000
-19.259500 0.000000
-19.200200 0.000000
-19.140900 0.000000
-19.081600 0.000000
-19.022400 0.000000
-18.963100 0.000000
-18.903800 0.000000
-18.844600 0.000000
-18.785300 0.000000
-18.726000 0.000000
-18.666700 0.000000
-18.607500 0.000000
-18.548200 0.000000
-18.488900 0.000000
-18.429600 0.000000
-18.370400 0.000000
-18.311100 0.000000
-18.251800 0.000000
-18.192600 0.000000
-18.133300 0.000000
-18.074000 0.000000
-18.014700 0.000000
-17.955500 0.000000
-17.896200 0.000000
-17.836900 0.000000
-17.777600 0.000000
-17.718400 0.000000
-17.659100 0.000000
-17.599800 0.000000
-17.540600 0.000000
-17.481300 0.000000
-17.422000 0.000000
-17.362700 0.000000
-17.303500 0.000000
-17.244200 0.000000
-17.184900 0.000000
-17.125700 0.000000
-17.066400 0.000000
-17.007100 0.000000
-16.947800 0.000000
-16.888600 0.000000
-16.829300 0.000000
-16.770000 0.000000
-16.710700 0.000000
-16.651500 0.000000
-16.592200 0.000000
-16.532900 0.000000
-16.473700 0.000000
-16.414400 0.000000
-16.355100 0.000000
-16.295800 0.000000
-16.236600 0.000000
-16.177300 0.000000
-16.118000 0.000000
-16.058700 0.000000
-15.999500 0.000000
-15.940200 0.000000
-15.880900 0.000000
-15.821700 0.000000
-15.762400 0.000000
-15.703100 0.000000
-15.643800 0.000000
-15.584600 0.000000
-15.525300 0.000000
-15.466000 0.000000
-15.406700 0.000000
-15.347500 0.000000
-15.288200 0.000000
-15.228900 0.000000
-15.169700 0.000000
-15.110400 0.000000
-15.051100 0.000000
-14.991800 0.000000
-14.932600 0.000000
-14.873300 0.000000
-14.814000 0.000000
-14.754800 0.000000
-14.695500 0.000000
-14.636200 0.000000
-14.576900 0.000000
-14.517700 0.000000
-14.458400 0.000000
-14.399100 0.000000
-14.339800 0.000000
-14.280600 0.000000
-14.221300 0.000000
-14.162000 0.000000
-14.102800 0.000000
-14.043500 0.000000
-13.984200 0.000000
-13.924900 0.000000
-13.865700 0.000000
-13.806400 0.000000
-13.747100 0.000000
-13.687800 0.000000
-13.628600 0.000000
-13.569300 0.000000
-13.510000 0.000000
-13.450800 0.000000
-13.391500 0.000000
-13.332200 0.000000
-13.272900 0.000000
-13.213700 0.000000
-13.154400 0.000000
-13.095100 0.000000
-13.035800 0.000000
-12.976600 0.000000
-12.917300 0.000000
-12.858000 0.000000
-12.798800 0.000000
-12.739500 0.000000
-12.680200 0.000000
-12.620900 0.000000
-12.561700 0.000000
-12.502400 0.000000
-12.443100 0.000000
-12.383800 0.000000
-12.324600 0.000000
-12.265300 0.000000
-12.206000 0.000000
-12.146800 0.000000
-12.087500 0.000000
-12.028200 0.000000
-11.968900 0.000000
-11.909700 0.000000
-11.850400 0.000000
-11.791100 0.000000
-11.731900 0.000000
-11.672600 0.000000
-11.613300 0.000000
-11.554000 0.000000
-11.494800 0.000000
-11.435500 0.000000
-11.376200 0.000000
-11.316900 0.000000
-11.257700 0.000000
-11.198400 0.000000
-11.139100 0.000000
-11.079900 0.000000
-11.020600 0.000000
-10.961300 0.000000
-10.902000 0.000000
-10.842800 0.000000
-10.783500 0.000000
-10.724200 0.000000
-10.664900 0.000000
-10.605700 0.000000
-10.546400 0.000000
-10.487100 0.000000
-10.427900 0.000000
-10.368600 0.000000
-10.309300 0.000000
-10.250000 0.000000
-10.190800 0.000000
-10.131500 0.000000
-10.072200 0.000000
-10.012900 0.000000
-9.953700 0.000000
-9.894400 0.000000
-9.835100 0.000000
-9.775900 0.000000
-9.716600 0.000000
-9.657300 0.000000
-9.598000 0.000000
-9.538800 0.000000
-9.479500 0.000000
-9.420200 0.000000
-9.361000 0.000000
-9.301700 0.000000
-9.242400 0.000000
-9.183100 0.000000
-9.123900 0.000000
-9.064600 0.000000
-9.005300 0.000000
-8.946000 0.000000
-8.886800 0.000000
-8.827500 0.000000
-8.768200 0.000000
-8.709000 0.000000
-8.649700 0.000000
-8.590400 0.000000
-8.531100 0.000000
-8.471900 0.000000
-8.412600 0.000000
-8.353300 0.000000
-8.294000 0.000000
-8.234800 0.000000
-8.175500 0.000000
-8.116200 0.000000
-8.057000 0.000000
-7.997700 0.000000
-7.938400 0.000000
-7.879100 0.000000
-7.819900 0.000100
-7.760600 0.003500
-7.701300 0.015300
-7.642000 0.038700
-7.582800 0.079700
-7.523500 0.056300
-7.464200 0.051500
-7.405000 0.114900
-7.345700 0.096000
-7.286400 0.138500
-7.227100 0.115100
-7.167900 0.075000
-7.108600 0.152300
-7.049300 0.142500
-6.990000 0.117000
-6.930800 0.160100
-6.871500 0.156700
-6.812200 0.230800
-6.753000 0.206500
-6.693700 0.155300
-6.634400 0.134500
-6.575100 0.118300
-6.515900 0.193400
-6.456600 0.265900
-6.397300 0.220400
-6.338100 0.243600
-6.278800 0.289300
-6.219500 0.299000
-6.160200 0.188300
-6.101000 0.143700
-6.041700 0.179800
-5.982400 0.246500
-5.923100 0.370500
-5.863900 0.323200
-5.804600 0.256500
-5.745300 0.285400
-5.686100 0.294600
-5.626800 0.288600
-5.567500 0.258100
-5.508200 0.458200
-5.449000 0.449900
-5.389700 0.247700
-5.330400 0.191700
-5.271100 0.424900
-5.211900 0.424200
-5.152600 0.218200
-5.093300 0.268000
-5.034100 0.412500
-4.974800 0.519500
-4.915500 0.615300
-4.856200 0.561000
-4.797000 0.430900
-4.737700 0.315000
-4.678400 0.427100
-4.619100 0.403800
-4.559900 0.536600
-4.500600 0.525900
-4.441300 0.569000
-4.382100 0.591200
-4.322800 0.282600
-4.263500 0.445100
-4.204200 0.765400
-4.145000 0.788900
-4.085700 0.711900
-4.026400 0.701900
-3.967200 0.466700
-3.907900 0.780900
-3.848600 1.103900
-3.789300 0.882500
-3.730100 0.904600
-3.670800 1.172400
-3.611500 1.066400
-3.552200 1.091500
-3.493000 1.196500
-3.433700 1.379200
-3.374400 1.211600
-3.315200 1.003200
-3.255900 0.889600
-3.196600 0.689600
-3.137300 0.727400
-3.078100 0.693300
-3.018800 0.444400
-2.959500 0.481800
-2.900200 0.540300
-2.841000 0.402800
-2.781700 0.298600
-2.722400 0.624400
-2.663200 1.026900
-2.603900 0.990600
-2.544600 0.952800
-2.485300 0.734700
-2.426100 0.759300
-2.366800 0.980400
-2.307500 1.078900
-2.248200 0.751800
-2.189000 0.895700
-2.129700 0.890300
-2.070400 0.688200
-2.011200 0.675700
-1.951900 0.761300
-1.892600 1.016400
-1.833300 0.889500
-1.774100 0.654700
-1.714800 0.587100
-1.655500 0.710400
-1.596200 0.537700
-1.537000 0.526000
-1.477700 0.823500
-1.418400 0.558300
-1.359200 0.599800
-1.299900 0.626800
-1.240600 0.703100
-1.181300 0.705000
-1.122100 0.502600
-1.062800 0.436800
-1.003500 0.339100
-0.944300 0.349300
-0.885000 0.522800
-0.825700 0.531000
-0.766400 0.627200
-0.707200 0.522400
-0.647900 0.367300
-0.588600 0.344600
-0.529300 0.407200
-0.470100 0.367500
-0.410800 0.338300
-0.351500 0.300500
-0.292300 0.282900
-0.233000 0.354000
-0.173700 0.424900
-0.114400 0.412700
-0.055200 0.248500
0.004100 0.332900
0.063400 0.232500
0.122700 0.147600
0.181900 0.140700
0.241200 0.252600
0.300500 0.409600
0.359700 0.321100
0.419000 0.385700
0.478300 0.343800
0.537600 0.129800
0.596800 0.201600
0.656100 0.356000
0.715400 0.317800
0.774700 0.272100
0.833900 0.303300
0.893200 0.444200
0.952500 0.689700
1.011700 0.556300
1.071000 0.915000
1.130300 1.001900
1.189600 0.749200
1.248800 0.955100
1.308100 0.919200
1.367400 1.046700
1.426600 0.978900
1.485900 0.839100
1.545200 0.990900
1.604500 0.950600
1.663700 0.947700
1.723000 1.073700
1.782300 1.086100
1.841600 1.595700
1.900800 1.587800
1.960100 0.886300
2.019400 0.894900
2.078600 1.120400
2.137900 1.321600
2.197200 1.281800
2.256500 1.126000
2.315700 1.168900
2.375000 1.116700
2.434300 0.957700
2.493600 0.708200
2.552800 0.585600
2.612100 0.625300
2.671400 0.615400
2.730600 0.870800
2.789900 0.912500
2.849200 0.808500
2.908500 0.657800
2.967700 0.593100
3.027000 0.834300
3.086300 1.015600
3.145600 0.991500
3.204800 1.164300
3.264100 1.401700
3.323400 0.802100
3.382600 0.575200
3.441900 0.760100
3.501200 1.396900
3.560500 1.651000
3.619700 1.637700
3.679000 1.814700
3.738300 1.549300
3.797600 1.154900
3.856800 0.975500
3.916100 1.058600
3.975400 1.314900
4.034600 1.388500
4.093900 1.257600
4.153200 1.433900
4.212500 1.377300
4.271700 1.221400
4.331000 1.142700
4.390300 1.091000
4.449500 1.338100
4.508800 1.888100
4.568100 2.087000
4.627400 1.952200
4.686600 1.424300
4.745900 1.899000
4.805200 2.016500
4.864500 1.723800
4.923700 2.446900
4.983000 3.138900
5.042300 3.229900
5.101500 2.363800
5.160800 1.915300
5.220100 2.084500
5.279400 2.611900
5.338600 2.239800
5.397900 2.157400
5.457200 2.311100
5.516500 2.315100
5.575700 2.549700
5.635000 3.063900
5.694300 3.222300
5.753500 2.942600
5.812800 2.991300
5.872100 2.925500
5.931400 2.925100
5.990600 2.293100
6.049900 1.834500
6.109200 1.744300
6.168500 1.733500
6.227700 1.655200
6.287000 1.724900
6.346300 1.763800
6.405500 1.237400
6.464800 1.104800
6.524100 1.277500
6.583400 1.307400
6.642600 1.491700
6.701900 1.446600
6.761200 1.238000
6.820400 1.141200
6.879700 1.012600
6.939000 0.840100
6.998300 0.901100
7.057500 1.147200
7.116800 1.063600
7.176100 0.682500
7.235400 0.669700
7.294600 0.588000
7.353900 0.600400
7.413200 0.578400
7.472400 0.328600
7.531700 0.542900
7.591000 0.773800
7.650300 0.722900
7.709500 0.656200
7.768800 0.648700
7.828100 0.606100
7.887400 0.693200
7.946600 1.022900
8.005900 0.956400
8.065200 0.866300
8.124400 0.874100
8.183700 0.991400
8.243000 0.838900
8.302300 0.845100
8.361500 1.024900
8.420800 0.800000
8.480100 0.690600
8.539400 0.675700
8.598600 0.712000
8.657900 0.722900
8.717200 0.699800
8.776400 0.889600
8.835700 0.781000
8.895000 0.807100
8.954300 0.918700
9.013500 0.907500
9.072800 0.810600
9.132100 0.679500
9.191400 0.870300
9.250600 0.808200
9.309900 0.854900
9.369200 0.784200
9.428400 0.674000
9.487700 0.891000
9.547000 0.897400
9.606300 0.734000
9.665500 0.841400
9.724800 1.110200
9.784100 1.034500
9.843300 1.150000
9.902600 1.068800
9.961900 1.426800
10.021200 1.317000
10.080400 0.996200
10.139700 1.262600
10.199000 1.228000
10.258300 1.333600
10.317500 1.556700
10.376800 1.341600
10.436100 1.247300
10.495300 1.449600
10.554600 1.345000
10.613900 1.323900
10.673200 1.089400
10.732400 1.219800
10.791700 1.559400
10.851000 1.185600
10.910300 1.317500
10.969500 1.721100
11.028800 1.609900
11.088100 1.759400
11.147300 1.458400
11.206600 1.086200
11.265900 1.155800
11.325200 1.524700
11.384400 1.495800
11.443700 1.215400
11.503000 1.327700
11.562300 1.593300
11.621500 1.578600
11.680800 1.596900
11.740100 1.863000
11.799300 2.087100
11.858600 2.452300
11.917900 2.216000
11.977200 2.082800
12.036400 1.943800
12.095700 1.494100
12.155000 1.354100
12.214200 1.035300
12.273500 0.831400
12.332800 1.221500
12.392100 1.439000
12.451300 1.456300
12.510600 1.557100
12.569900 1.125500
12.629200 0.714400
12.688400 0.752500
12.747700 1.196900
12.807000 1.608900
12.866200 1.514000
12.925500 1.290500
12.984800 1.342200
13.044100 1.523000
13.103300 1.424000
13.162600 1.198300
13.221900 1.575200
13.281200 1.662100
13.340400 1.329300
13.399700 1.065600
13.459000 0.975500
13.518200 1.226300
13.577500 1.504800
13.636800 1.480800
13.696100 1.632400
13.755300 1.632100
13.814600 1.549000
13.873900 1.263600
13.933200 1.172900
13.992400 1.332100
14.051700 1.323100
14.111000 1.615200
14.170200 1.841700
14.229500 1.789900
14.288800 1.568600
14.348100 1.125500
14.407300 1.266800
14.466600 1.271700
14.525900 1.563600
14.585200 2.379600
14.644400 2.495600
14.703700 2.771100
14.763000 3.394300
14.822200 3.666900
14.881500 3.637800
14.940800 3.578400
15.000100 3.489900
15.059300 3.038800
15.118600 2.712100
15.177900 2.232800
15.237100 2.147400
15.296400 2.470400
15.355700 2.272400
15.415000 1.848700
15.474200 1.892100
15.533500 1.813400
15.592800 1.955500
15.652100 1.771200
15.711300 1.819500
15.770600 1.695700
15.829900 1.622700
15.889100 1.856500
15.948400 1.739800
16.007700 1.933300
16.067000 2.071900
16.126200 1.784000
16.185500 1.531700
16.244800 1.215600
16.304100 0.820700
16.363300 0.589200
16.422600 0.236400
16.481900 0.086200
16.541100 0.159500
16.600400 0.209900
16.659700 0.093900
16.719000 0.033100
16.778200 0.067800
16.837500 0.048800
16.896800 0.017300
16.956100 0.001700
17.015300 0.008300
17.074600 0.039900
17.133900 0.059900
17.193100 0.120100
17.252400 0.111400
17.311700 0.032100
17.371000 0.131300
17.430200 0.237100
17.489500 0.138500
17.548800 0.143100
17.608000 0.140700
17.667300 0.344500
17.726600 0.319800
17.785900 0.222000
17.845100 0.169200
17.904400 0.240800
17.963700 0.217400
18.023000 0.169000
18.082200 0.229600
18.141500 0.228000
18.200800 0.389300
18.260000 0.522300
18.319300 0.456100
18.378600 0.319300
18.437900 0.210700
18.497100 0.291700
18.556400 0.475200
18.615700 0.502600
18.675000 0.442800
18.734200 0.513800
18.793500 0.485200
18.852800 0.521200
18.912000 0.608500
18.971300 0.640200
19.030600 0.535600
19.089900 0.569200
19.149100 0.669700
19.208400 0.761500
19.267700 0.705900
19.327000 0.799700
19.386200 0.720400
19.445500 0.823100
19.504800 1.140600
19.564000 0.864100
19.623300 0.782100
19.682600 1.128400
19.741900 1.261000
19.801100 1.088400
19.860400 0.882000
19.919700 1.023600
19.979000 1.428600
20.038200 1.261400
20.097500 1.327200
20.156800 1.534600
20.216000 1.123600
20.275300 1.149100
20.334600 1.094500
20.393900 0.739800
20.453100 0.429000
20.512400 0.394900
20.571700 0.374700
20.630900 0.301200
20.690200 0.339000
20.749500 0.264200
20.808800 0.191900
20.868000 0.202800
20.927300 0.166300
20.986600 0.172400
21.045900 0.173900
21.105100 0.249000
21.164400 0.175900
21.223700 0.208300
21.282900 0.256400
21.342200 0.174700
21.401500 0.194700
21.460800 0.219700
21.520000 0.333500
21.579300 0.420400
21.638600 0.503500
21.697900 0.476700
21.757100 0.273600
21.816400 0.257200
21.875700 0.506800
21.934900 0.506100
21.994200 0.356000
22.053500 0.401700
22.112800 0.426000
22.172000 0.241800
22.231300 0.237100
22.290600 0.468200
22.349900 0.871500
22.409100 0.693800
22.468400 0.637900
22.527700 0.778300
22.586900 0.776900
22.646200 0.700600
22.705500 0.385100
22.764800 0.475200
22.824000 0.602000
22.883300 0.493200
22.942600 0.488200
23.001800 0.605300
23.061100 0.596100
23.120400 0.535200
23.179700 0.477400
23.238900 0.522000
23.298200 0.423000
23.357500 0.363900
23.416800 0.460700
23.476000 0.474700
23.535300 0.432200
23.594600 0.369200
23.653800 0.656300
23.713100 0.820200
23.772400 0.670500
23.831700 0.613400
23.890900 0.485600
23.950200 0.271800
24.009500 0.188200
24.068800 0.316500
24.128000 0.524800
24.187300 0.575700
24.246600 0.733900
24.305800 0.963000
24.365100 0.849700
24.424400 0.373400
24.483700 0.464900
24.542900 0.547900
24.602200 0.675600
24.661500 0.605000
24.720800 0.645200
24.780000 0.528100
24.839300 0.344400
24.898600 0.231600
24.957800 0.392500
25.017100 0.353600
25.076400 0.442600
25.135700 0.360000
25.194900 0.515200
25.254200 0.554700
25.313500 0.841700
25.372700 1.133400
25.432000 1.147000
25.491300 0.913100
25.550600 0.692700
25.609800 0.729900
25.669100 1.030900
25.728400 1.202700
25.787700 0.996000
25.846900 0.937500
25.906200 0.996900
25.965500 1.067900
26.024700 1.169600
26.084000 0.863200
26.143300 0.829300
26.202600 0.716900
26.261800 0.628400
26.321100 0.709100
26.380400 0.580300
26.439700 0.612900
26.498900 0.772900
26.558200 0.886100
26.617500 0.920400
26.676700 0.878700
26.736000 0.828600
26.795300 1.049900
26.854600 1.092900
26.913800 1.032800
26.973100 1.104500
27.032400 1.280700
27.091700 0.995600
27.150900 0.900600
27.210200 0.819300
27.269500 1.092900
27.328700 1.277700
27.388000 1.431600
27.447300 1.324500
27.506600 1.381700
27.565800 1.278800
27.625100 1.296800
27.684400 1.218400
27.743700 1.193600
27.802900 1.349600
27.862200 1.498300
27.921500 2.093400
27.980700 2.058700
28.040000 1.480100
28.099300 1.065500
28.158600 1.186200
28.217800 1.584800
28.277100 1.877900
28.336400 1.871900
28.395600 1.702500
28.454900 1.595500
28.514200 1.145600
28.573500 1.044400
28.632700 1.407300
28.692000 1.450100
28.751300 1.126600
28.810600 1.327700
28.869800 1.350600
28.929100 1.441600
28.988400 1.409200
29.047600 1.196000
29.106900 1.113800
29.166200 1.033600
29.225500 1.081800
29.284700 0.938800
29.344000 0.990700
29.403300 1.469000
29.462600 1.361100
29.521800 1.067900
29.581100 0.989600
29.640400 0.847200
29.699600 0.795600
29.758900 0.909600
29.818200 1.121600
29.877500 0.678200
29.936700 0.779500
29.996000 1.199000
30.055300 1.174100
30.114600 0.930600
30.173800 0.799900
30.233100 0.774500
30.292400 0.800100
30.351600 0.745900
30.410900 0.680100
30.470200 0.654600
30.529500 0.821500
30.588700 0.893200
30.648000 1.015600
30.707300 0.772500
30.766500 0.430200
30.825800 0.529800
30.885100 0.682700
30.944400 0.615000
31.003600 0.695600
31.062900 0.689000
31.122200 0.676500
31.181500 0.964500
31.240700 1.188300
31.300000 0.963800
31.359300 0.676400
31.418500 0.789000
31.477800 1.083500
31.537100 1.043300
31.596400 0.905000
31.655600 0.869300
31.714900 1.146800
31.774200 0.989000
31.833500 0.918600
31.892700 0.983400
31.952000 1.148500
32.011300 1.165900
32.070500 1.107700
32.129800 1.764200
32.189100 1.948300
32.248400 2.007600
32.307600 1.878600
32.366900 1.925900
32.426200 1.931400
32.485500 1.701200
32.544700 1.945900
32.604000 2.394000
32.663300 2.660700
32.722500 2.059400
32.781800 1.353300
32.841100 1.110600
32.900400 1.006800
32.959600 0.913500
33.018900 1.364700
33.078200 1.041900
33.137500 0.810100
33.196700 0.769000
33.256000 0.793200
33.315300 0.741300
33.374500 0.728600
33.433800 0.678600
33.493100 0.988300
33.552400 1.133400
33.611600 0.926400
33.670900 1.070700
33.730200 1.140300
33.789400 0.977400
33.848700 0.947500
33.908000 1.046100
33.967300 0.901800
34.026500 1.171200
34.085800 1.247800
34.145100 1.315200
34.204400 1.073700
34.263600 1.117100
34.322900 1.206100
34.382200 1.278700
34.441400 1.043400
34.500700 1.032400
34.560000 0.982100
34.619300 1.085800
34.678500 1.117200
34.737800 0.867100
34.797100 0.587100
34.856400 0.929800
34.915600 1.101100
34.974900 1.211000
35.034200 1.091400
35.093400 1.368200
35.152700 1.551700
35.212000 1.337200
35.271300 1.330500
35.330500 1.289300
35.389800 1.456600
35.449100 1.343600
35.508400 1.437600
35.567600 1.341400
35.626900 1.156000
35.686200 0.913600
35.745400 0.728800
35.804700 0.674100
35.864000 0.847900
35.923300 1.131000
35.982500 1.092400
36.041800 1.335300
36.101100 1.642300
36.160300 1.337400
36.219600 1.342600
36.278900 1.485200
36.338200 1.267100
36.397400 1.301800
36.456700 1.642300
36.516000 1.962400
36.575300 1.567100
36.634500 1.337500
36.693800 1.255200
36.753100 1.141300
36.812300 1.502100
36.871600 2.071400
36.930900 1.660700
36.990200 1.204800
37.049400 1.591600
37.108700 1.432400
37.168000 1.073200
37.227300 1.151100
37.286500 1.187100
37.345800 0.908100
37.405100 1.058900
37.464300 1.006600
37.523600 0.792200
37.582900 0.930900
37.642200 1.322000
37.701400 1.410300
37.760700 1.420900
37.820000 1.247200
37.879300 0.784600
37.938500 0.611500
37.997800 0.854300
38.057100 1.052200
38.116300 1.145200
38.175600 1.066400
38.234900 1.024200
38.294200 1.247500
38.353400 1.244400
38.412700 0.981000
38.472000 1.118600
38.531300 1.169500
38.590500 1.095700
38.649800 1.198500
38.709100 1.281200
38.768300 1.591400
38.827600 1.239000
38.886900 0.907600
38.946200 0.855900
39.005400 1.066300
39.064700 1.037600
39.124000 1.059900
39.183200 1.039100
39.242500 0.932000
39.301800 1.172200
39.361100 1.039100
39.420300 0.891500
39.479600 0.856100
39.538900 0.817100
39.598200 0.968100
39.657400 1.151300
39.716700 1.113400
39.776000 0.975000
39.835200 1.055300
39.894500 1.154400
39.953800 1.391300
40.013100 1.609100
40.072300 1.262600
40.131600 0.979500
40.190900 1.200400
40.250200 1.313200
40.309400 1.090900
40.368700 1.213000
40.428000 1.406000
40.487200 1.437800
40.546500 1.246900
40.605800 1.347200
40.665100 1.081300
40.724300 0.918300
40.783600 1.089900
40.842900 1.218500
40.902200 1.011300
40.961400 1.068700
41.020700 1.006400
41.080000 1.151000
41.139200 1.313000
41.198500 1.398800
41.257800 1.136000
41.317100 1.252400
41.376300 1.493600
41.435600 1.537500
41.494900 1.316500
41.554100 1.174500
41.613400 1.589800
41.672700 1.534500
41.732000 1.226200
41.791200 1.883100
41.850500 2.100500
41.909800 1.852900
41.969100 1.391000
42.028300 1.817900
42.087600 1.940500
42.146900 2.030300
42.206100 1.813700
42.265400 1.275500
42.324700 1.338500
42.384000 1.674700
42.443200 1.900300
42.502500 1.879000
42.561800 2.067800
42.621100 2.258600
42.680300 1.446000
42.739600 1.478100
42.798900 1.732500
42.858100 1.741200
42.917400 1.828300
42.976700 1.862000
43.036000 1.872800
43.095200 1.899200
43.154500 1.808300
43.213800 1.510100
43.273100 1.708900
43.332300 1.259300
43.391600 1.021200
43.450900 1.225500
43.510100 1.245000
43.569400 1.172400
43.628700 1.405700
43.688000 1.295800
43.747200 1.166400
43.806500 1.297600
43.865800 1.055200
43.925100 0.796300
43.984300 0.761900
44.043600 1.123200
44.102900 1.202000
44.162100 1.181800
44.221400 1.147700
44.280700 1.746800
44.340000 1.763500
44.399200 1.298700
44.458500 1.416400
44.517800 1.407600
44.577000 1.139300
44.636300 0.987900
44.695600 1.139500
44.754900 1.259800
44.814100 1.211500
44.873400 1.295900
44.932700 1.393500
44.992000 1.241700
45.051200 1.240100
45.110500 1.100700
45.169800 0.852400
45.229000 0.940400
45.288300 1.095700
45.347600 0.974600
45.406900 0.566000
45.466100 0.714000
45.525400 1.071900
45.584700 1.140700
45.644000 1.323100
45.703200 1.130300
45.762500 0.825200
45.821800 0.648300
45.881000 1.092800
45.940300 1.305500
45.999600 1.138000
46.058900 1.274800
46.118100 1.420700
46.177400 1.413800
46.236700 1.582100
46.296000 1.543600
46.355200 1.403300
46.414500 1.319400
46.473800 1.486100
46.533000 1.494500
46.592300 1.269000
46.651600 1.255000
46.710900 1.471100
46.770100 1.247700
46.829400 1.177500
46.888700 1.298600
46.947900 1.358800
47.007200 1.334600
47.066500 1.583300
47.125800 1.293000
47.185000 1.089600
47.244300 1.066200
47.303600 1.015500
47.362900 1.015800
47.422100 1.277600
47.481400 1.741400
47.540700 1.766400
47.599900 1.888700
47.659200 2.015500
47.718500 1.877700
47.777800 1.387200
47.837000 0.940500
47.896300 0.907500
47.955600 1.444200
48.014900 1.892800
48.074100 1.919700
48.133400 1.746200
48.192700 1.345400
48.251900 1.176800
48.311200 1.269900
48.370500 1.153000
48.429800 1.024200
48.489000 1.573900
48.548300 1.686100
48.607600 1.268900
48.666900 1.302800
48.726100 1.199600
48.785400 1.281300
48.844700 1.103700
48.903900 1.186300
48.963200 1.835100
49.022500 1.892700
49.081800 1.362100
49.141000 1.334200
49.200300 1.396200
49.259600 1.462900
49.318900 1.561400
49.378100 1.434800
49.437400 1.527400
49.496700 1.516400
49.555900 1.378000
49.615200 1.143300
49.674500 1.227000
49.733800 1.925700
49.793000 2.476300
49.852300 2.493200
49.911600 2.999900
49.970800 2.768500
50.030100 2.605800
50.089400 2.792500
50.148700 3.054000
50.207900 2.422200
50.267200 2.086400
50.326500 2.499300
50.385800 2.768300
50.445000 2.051200
50.504300 1.625900
50.563600 1.813500
50.622800 1.283200
50.682100 1.001100
50.741400 1.322800
50.800700 1.826000
50.859900 2.029900
50.919200 2.183000
50.978500 2.122200
51.037800 1.833100
51.097000 1.647900
51.156300 1.371200
51.215600 1.335100
51.274800 1.719800
51.334100 1.722500
51.393400 2.019100
51.452700 2.031900
51.511900 2.091200
51.571200 2.051800
51.630500 1.985900
51.689800 1.857800
51.749000 1.553400
51.808300 1.148600
51.867600 1.140100
51.926800 1.493500
51.986100 1.635500
52.045400 1.762400
52.104700 1.910300
52.163900 2.036400
52.223200 1.536100
52.282500 1.242800
52.341700 1.836600
52.401000 2.093000
52.460300 1.666300
52.519600 1.281400
52.578800 1.300800
52.638100 1.560400
52.697400 1.498300
52.756700 1.920600
52.815900 2.158700
52.875200 1.924700
52.934500 1.656600
52.993700 1.687200
53.053000 2.105900
53.112300 1.843600
53.171600 1.627900
53.230800 1.762300
53.290100 1.931400
53.349400 1.896600
53.408700 1.631200
53.467900 1.610800
53.527200 1.574100
53.586500 1.596800
53.645700 1.492500
53.705000 1.651200
53.764300 1.941100
53.823600 1.804300
53.882800 1.690200
53.942100 1.424600
54.001400 1.743800
54.060700 1.761100
54.119900 1.883300
54.179200 1.694400
54.238500 1.307900
54.297700 1.359900
54.357000 1.276200
54.416300 1.174800
54.475600 1.037500
54.534800 0.843300
54.594100 0.717100
54.653400 1.019200
54.712700 1.659700
54.771900 1.371300
54.831200 0.920900
54.890500 1.484600
54.949700 1.739400
55.009000 1.112100
55.068300 1.117300
55.127600 1.630500
55.186800 1.343700
55.246100 1.337900
55.305400 1.414000
55.364600 1.289900
55.423900 1.106100
55.483200 0.816800
55.542500 0.827800
55.601700 1.168600
55.661000 1.637500
55.720300 1.920600
55.779600 1.715300
55.838800 1.386400
55.898100 1.449600
55.957400 1.583000
56.016600 1.516900
56.075900 1.283600
56.135200 1.179900
56.194500 1.276100
56.253700 1.515200
56.313000 1.645500
56.372300 1.582000
56.431600 1.671400
56.490800 1.685400
56.550100 1.620300
56.609400 1.424200
56.668600 1.916800
56.727900 1.592600
56.787200 1.268000
56.846500 1.412600
56.905700 1.718300
56.965000 1.328500
57.024300 1.434000
57.083600 1.848600
57.142800 1.544700
57.202100 1.560400
57.261400 1.674300
57.320600 1.715900
57.379900 1.818800
57.439200 1.864800
57.498500 1.291100
57.557700 0.961000
57.617000 1.771600
57.676300 1.995500
57.735500 1.382600
57.794800 1.147700
57.854100 1.332300
57.913400 1.306100
57.972600 1.444100
58.031900 1.484100
58.091200 1.416800
58.150500 1.505500
58.209700 1.743900
58.269000 1.428000
58.328300 1.133200
58.387500 1.143700
58.446800 1.133600
58.506100 0.985700
58.565400 0.942500
58.624600 1.100900
58.683900 1.174600
58.743200 1.163000
58.802500 1.093800
58.861700 1.468500
58.921000 1.518800
58.980300 1.392600
59.039500 1.488100
59.098800 1.171400
59.158100 1.219200
59.217400 1.669400
59.276600 1.348500
59.335900 0.972600
59.395200 1.024900
59.454500 1.240900
59.513700 1.972700
59.573000 1.911900
59.632300 1.500300
59.691500 1.270900
59.750800 1.434900
59.810100 1.578100
59.869400 1.618200
59.928600 1.877500
59.987900 1.765900
60.047200 1.293100
60.106500 1.098800
60.165700 1.182600
60.225000 1.478100
60.284300 1.533400
60.343500 1.054800
60.402800 0.834900
60.462100 1.434500
60.521400 1.747900
60.580600 1.780500
60.639900 1.709500
60.699200 1.370700
60.758400 1.381100
60.817700 1.554600
60.877000 1.240300
60.936300 0.961600
60.995500 1.008600
61.054800 1.251700
61.114100 1.526300
61.173400 1.381400
61.232600 1.427100
61.291900 1.568700
61.351200 1.229800
61.410400 1.405400
61.469700 1.999300
61.529000 1.587100
61.588300 1.475800
61.647500 1.640300
61.706800 1.513000
61.766100 1.530600
61.825400 1.990900
61.884600 2.217100
61.943900 2.054900
62.003200 1.888100
62.062400 1.709200
62.121700 1.359200
62.181000 1.141600
62.240300 1.080800
62.299500 1.106500
62.358800 1.220400
62.418100 1.287700
62.477400 1.582200
62.536600 1.862100
62.595900 2.217100
62.655200 1.831600
62.714400 1.215400
62.773700 1.257800
62.833000 1.221400
62.892300 1.187900
62.951500 1.506900
63.010800 1.603900
63.070100 1.145300
63.129300 1.163000
63.188600 1.175000
63.247900 1.207900
63.307200 1.347100
63.366400 1.293300
63.425700 1.215900
63.485000 1.000200
63.544300 1.374200
63.603500 1.834500
63.662800 1.538700
63.722100 1.356300
63.781300 1.203300
63.840600 1.069800
63.899900 1.224200
63.959200 1.453800
64.018400 1.177500
64.077700 1.170700
64.137000 1.066200
64.196300 0.831800
64.255500 1.287300
64.314800 1.350300
64.374100 1.295300
64.433300 1.253100
64.492600 1.531300
64.551900 1.665600
64.611200 1.314200
64.670400 1.363700
64.729700 1.428700
64.789000 1.350700
64.848300 1.595500
64.907500 1.254800
64.966800 1.106800
65.026100 1.290100
65.085300 1.222600
65.144600 1.046300
65.203900 1.071100
65.263200 1.200700
65.322400 1.284600
65.381700 0.948400
65.441000 1.442700
65.500200 1.952700
65.559500 1.693500
65.618800 1.545200
65.678100 1.500500
65.737300 1.225200
65.796600 1.120100
65.855900 1.660700
65.915200 1.440900
65.974400 1.179200
66.033700 1.199500
66.093000 1.209900
66.152200 1.157200
66.211500 1.418500
66.270800 1.384900
66.330100 1.492300
66.389300 1.259100
66.448600 1.167500
66.507900 1.043100
66.567200 1.404300
66.626400 1.433000
66.685700 1.318700
66.745000 1.389400
66.804200 1.261600
66.863500 1.448000
66.922800 1.593000
66.982100 1.603700
67.041300 1.352000
67.100600 1.240700
67.159900 1.171100
67.219200 1.138100
67.278400 1.408200
67.337700 1.357200
67.397000 1.198400
67.456200 1.061000
67.515500 1.701300
67.574800 1.972900
67.634100 1.672100
67.693300 1.374800
67.752600 1.370900
67.811900 1.331800
67.871200 1.262300
67.930400 1.316000
67.989700 1.189400
68.049000 1.124200
68.108200 1.559600
68.167500 1.461000
68.226800 1.435700
68.286100 1.443400
68.345300 1.089400
68.404600 1.178500
68.463900 0.996100
68.523100 0.886700
68.582400 1.095500
68.641700 1.205200
68.701000 1.114800
68.760200 1.165600
68.819500 1.333500
68.878800 1.364200
68.938100 1.074200
68.997300 0.672100
69.056600 0.594800
69.115900 0.634900
69.175100 0.844000
69.234400 0.630700
69.293700 0.488400
69.353000 0.613000
69.412200 0.690400
69.471500 0.825000
69.530800 0.659600
69.590100 0.626000
69.649300 0.529300
69.708600 0.604000
69.767900 0.721700
69.827100 0.606600
69.886400 0.449000
69.945700 0.536700
70.005000 0.516300
70.064200 0.416900
70.123500 0.310200
70.182800 0.594200
70.242100 0.450600
70.301300 0.234500
70.360600 0.279600
70.419900 0.445400
70.479100 0.446800
70.538400 0.481700
70.597700 0.452500
70.657000 0.273900
70.716200 0.214800
70.775500 0.201900
70.834800 0.339900
70.894000 0.374200
70.953300 0.207900
71.012600 0.244900
71.071900 0.392800
71.131100 0.394300
71.190400 0.171900
71.249700 0.156300
71.309000 0.219100
71.368200 0.145100
71.427500 0.121800
71.486800 0.049400
71.546000 0.135900
71.605300 0.214200
71.664600 0.110400
71.723900 0.119100
71.783100 0.110500
71.842400 0.094600
71.901700 0.070700
71.961000 0.061100
72.020200 0.064700
72.079500 0.102900
72.138800 0.112700
72.198000 0.079500
72.257300 0.025100
72.316600 0.079800
72.375900 0.090300
72.435100 0.047600
72.494400 0.045600
72.553700 0.041600
72.613000 0.030300
72.672200 0.033900
72.731500 0.024900
72.790800 0.044400
72.850000 0.055700
72.909300 0.076600
72.968600 0.059000
73.027900 0.028500
73.087100 0.010800
73.146400 0.010600
73.205700 0.015900
73.265000 0.071200
73.324200 0.063400
73.383500 0.057300
73.442800 0.061800
73.502000 0.026700
73.561300 0.002900
73.620600 0.003500
73.679900 0.011900
73.739100 0.013000
73.798400 0.011500
73.857700 0.008400
73.916900 0.001000
73.976200 0.000000
74.035500 0.000000
74.094800 0.000000
74.154000 0.000000
74.213300 0.000000
74.272600 0.000000
74.331900 0.000000
74.391100 0.000000
74.450400 0.000000
74.509700 0.000000
74.568900 0.000000
74.628200 0.000000
74.687500 0.000000
74.746800 0.000000
74.806000 0.000000
74.865300 0.000000
74.924600 0.000000
74.983900 0.000000
75.043100 0.000000
75.102400 0.000000
75.161700 0.000000
75.220900 0.000000
75.280200 0.000000
75.339500 0.000000
75.398800 0.000000
75.458000 0.000000
75.517300 0.000000
75.576600 0.000000
75.635900 0.000000
75.695100 0.000000
75.754400 0.000000
75.813700 0.000000
75.872900 0.000000
75.932200 0.000000
75.991500 0.000000
76.050800 0.000000
76.110000 0.000000
76.169300 0.000000
76.228600 0.000000
76.287800 0.000000
76.347100 0.000000
76.406400 0.000000
76.465700 0.000000
76.524900 0.000000
76.584200 0.000000
76.643500 0.000000
76.702800 0.000000
76.762000 0.000000
76.821300 0.000000
76.880600 0.000000
76.939800 0.000000
76.999100 0.000000
77.058400 0.000000
77.117700 0.000000
77.176900 0.000000
77.236200 0.000000
77.295500 0.000000
77.354800 0.000000
77.414000 0.000000
77.473300 0.000000
77.532600 0.000000
77.591800 0.000000
77.651100 0.000000
77.710400 0.000000
77.769700 0.000000
77.828900 0.000000
77.888200 0.000000
77.947500 0.000000
78.006800 0.000000
78.066000 0.000000
78.125300 0.000000
78.184600 0.000000
78.243800 0.000000
78.303100 0.000000
78.362400 0.000000
78.421700 0.000000
78.480900 0.000000
78.540200 0.000000
78.599500 0.000000
78.658800 0.000000
78.718000 0.000000
78.777300 0.000000
78.836600 0.000000
78.895800 0.000000
78.955100 0.000000
79.014400 0.000000
79.073700 0.000000
79.132900 0.000000
79.192200 0.000000
e
