set title 'mp-684673 - Density of States'
set xlabel 'Energy (eV)'
set ylabel 'DOS (states/eV)'
set grid
set xrange [-10:10]
set yrange [0:1.016]
set xzeroaxis lt -1
set terminal png size 800,600
set output 'mp-684673_dos_gnuplot.png'
plot '-' using 1:2 with lines title 'DOS'
-11.770600 0.000000
-11.743100 0.000000
-11.715600 0.000000
-11.688100 0.000000
-11.660700 0.000000
-11.633200 0.000000
-11.605700 0.000000
-11.578200 0.000000
-11.550700 0.000000
-11.523300 0.000000
-11.495800 0.000000
-11.468300 0.000000
-11.440800 0.000000
-11.413300 0.000000
-11.385900 0.000000
-11.358400 0.000000
-11.330900 0.000000
-11.303400 0.000000
-11.275900 0.000000
-11.248500 0.000000
-11.221000 0.000000
-11.193500 0.000000
-11.166000 0.000000
-11.138500 0.000000
-11.111100 0.000000
-11.083600 0.000000
-11.056100 0.000000
-11.028600 0.000000
-11.001100 0.000000
-10.973700 0.000000
-10.946200 0.000000
-10.918700 0.000000
-10.891200 0.000000
-10.863700 0.000000
-10.836300 0.000000
-10.808800 0.000000
-10.781300 0.000000
-10.753800 0.000000
-10.726300 0.000000
-10.698900 0.000000
-10.671400 0.000000
-10.643900 0.000000
-10.616400 0.000000
-10.588900 0.000000
-10.561500 0.000000
-10.534000 0.000000
-10.506500 0.000000
-10.479000 0.000000
-10.451500 0.000000
-10.424100 0.000000
-10.396600 0.000000
-10.369100 0.000000
-10.341600 0.000000
-10.314100 0.000000
-10.286700 0.000000
-10.259200 0.000000
-10.231700 0.000000
-10.204200 0.000000
-10.176700 0.000000
-10.149300 0.000000
-10.121800 0.000000
-10.094300 0.000000
-10.066800 0.000000
-10.039300 0.000000
-10.011900 0.000000
-9.984400 0.000000
-9.956900 0.000000
-9.929400 0.000000
-9.901900 0.000000
-9.874500 0.000000
-9.847000 0.000000
-9.819500 0.000000
-9.792000 0.000000
-9.764500 0.000000
-9.737100 0.000000
-9.709600 0.000000
-9.682100 0.000000
-9.654600 0.000000
-9.627100 0.000000
-9.599700 0.000000
-9.572200 0.000000
-9.544700 0.000000
-9.517200 0.000000
-9.489700 0.000000
-9.462300 0.000000
-9.434800 0.000000
-9.407300 0.000000
-9.379800 0.000000
-9.352300 0.000000
-9.324900 0.000000
-9.297400 0.000000
-9.269900 0.000100
-9.242400 0.019100
-9.214900 0.028400
-9.187500 0.037500
-9.160000 0.046900
-9.132500 0.050200
-9.105000 0.055000
-9.077500 0.060600
-9.050100 0.066300
-9.022600 0.070300
-8.995100 0.073700
-8.967600 0.076900
-8.940100 0.080300
-8.912700 0.084400
-8.885200 0.088600
-8.857700 0.092600
-8.830200 0.094700
-8.802700 0.097400
-8.775300 0.100200
-8.747800 0.103100
-8.720300 0.106000
-8.692800 0.109200
-8.665300 0.112500
-8.637900 0.115800
-8.610400 0.117900
-8.582900 0.120100
-8.555400 0.122200
-8.527900 0.124700
-8.500500 0.127200
-8.473000 0.129800
-8.445500 0.132300
-8.418000 0.135000
-8.390500 0.137700
-8.363100 0.140400
-8.335600 0.142300
-8.308100 0.144400
-8.280600 0.146500
-8.253100 0.148500
-8.225700 0.150600
-8.198200 0.152900
-8.170700 0.155200
-8.143200 0.157600
-8.115700 0.159900
-8.088300 0.162300
-8.060800 0.164700
-8.033300 0.166800
-8.005800 0.168700
-7.978300 0.170500
-7.950900 0.172500
-7.923400 0.174600
-7.895900 0.176600
-7.868400 0.178700
-7.840900 0.180700
-7.813500 0.182900
-7.786000 0.185100
-7.758500 0.187300
-7.731000 0.189500
-7.703500 0.191800
-7.676100 0.193800
-7.648600 0.195600
-7.621100 0.197500
-7.593600 0.199400
-7.566100 0.201400
-7.538700 0.203400
-7.511200 0.205400
-7.483700 0.207400
-7.456200 0.209500
-7.428700 0.211600
-7.401300 0.213700
-7.373800 0.215800
-7.346300 0.218000
-7.318800 0.220200
-7.291300 0.222300
-7.263900 0.224300
-7.236400 0.226200
-7.208900 0.228200
-7.181400 0.230200
-7.153900 0.232300
-7.126500 0.234300
-7.099000 0.236400
-7.071500 0.238600
-7.044000 0.240700
-7.016500 0.242900
-6.989100 0.245100
-6.961600 0.247300
-6.934100 0.249500
-6.906600 0.251700
-6.879100 0.254000
-6.851700 0.256300
-6.824200 0.258400
-6.796700 0.260600
-6.769200 0.262900
-6.741700 0.265100
-6.714300 0.267400
-6.686800 0.269700
-6.659300 0.272100
-6.631800 0.274400
-6.604300 0.276800
-6.576900 0.279300
-6.549400 0.281700
-6.521900 0.284200
-6.494400 0.286700
-6.466900 0.289300
-6.439500 0.291800
-6.412000 0.294400
-6.384500 0.297100
-6.357000 0.299700
-6.329500 0.302500
-6.302100 0.305300
-6.274600 0.308100
-6.247100 0.310900
-6.219600 0.313800
-6.192100 0.316800
-6.164700 0.319800
-6.137200 0.322800
-6.109700 0.325900
-6.082200 0.329100
-6.054700 0.332300
-6.027300 0.335600
-5.999800 0.338900
-5.972300 0.342300
-5.944800 0.345700
-5.917300 0.349300
-5.889900 0.353100
-5.862400 0.357000
-5.834900 0.361100
-5.807400 0.365200
-5.779900 0.369500
-5.752500 0.373900
-5.725000 0.378400
-5.697500 0.383100
-5.670000 0.387900
-5.642500 0.392900
-5.615100 0.398000
-5.587600 0.403400
-5.560100 0.409000
-5.532600 0.415000
-5.505100 0.421100
-5.477700 0.427600
-5.450200 0.434300
-5.422700 0.441900
-5.395200 0.450400
-5.367700 0.459700
-5.340300 0.470000
-5.312800 0.481500
-5.285300 0.494200
-5.257800 0.508400
-5.230300 0.529300
-5.202900 0.565100
-5.175400 0.578500
-5.147900 0.617500
-5.120400 0.592200
-5.092900 0.584400
-5.065500 0.581500
-5.038000 0.577500
-5.010500 0.573800
-4.983000 0.569700
-4.955500 0.570400
-4.928100 0.580100
-4.900600 0.580000
-4.873100 0.574400
-4.845600 0.570400
-4.818100 0.568300
-4.790700 0.566800
-4.763200 0.565400
-4.735700 0.563600
-4.708200 0.560900
-4.680700 0.557300
-4.653300 0.553400
-4.625800 0.553400
-4.598300 0.553200
-4.570800 0.553500
-4.543300 0.554600
-4.515900 0.555500
-4.488400 0.552600
-4.460900 0.550900
-4.433400 0.549200
-4.405900 0.548400
-4.378500 0.548100
-4.351000 0.547300
-4.323500 0.546300
-4.296000 0.545200
-4.268500 0.544000
-4.241100 0.541800
-4.213600 0.541900
-4.186100 0.542900
-4.158600 0.545200
-4.131100 0.547300
-4.103700 0.548400
-4.076200 0.548600
-4.048700 0.548600
-4.021200 0.548600
-3.993700 0.549100
-3.966300 0.550300
-3.938800 0.552200
-3.911300 0.554600
-3.883800 0.558300
-3.856300 0.564100
-3.828900 0.568800
-3.801400 0.573900
-3.773900 0.580800
-3.746400 0.587000
-3.718900 0.594200
-3.691500 0.603800
-3.664000 0.620400
-3.636500 0.641100
-3.609000 0.664000
-3.581500 0.722600
-3.554100 0.783600
-3.526600 0.852800
-3.499100 0.690100
-3.471600 0.470600
-3.444100 0.393900
-3.416700 0.305400
-3.389200 0.197900
-3.361700 0.120300
-3.334200 0.000000
-3.306700 0.000000
-3.279300 0.000000
-3.251800 0.000000
-3.224300 0.000000
-3.196800 0.000000
-3.169300 0.000000
-3.141900 0.000000
-3.114400 0.000000
-3.086900 0.000000
-3.059400 0.000000
-3.031900 0.000000
-3.004500 0.000000
-2.977000 0.000000
-2.949500 0.000000
-2.922000 0.000000
-2.894500 0.000000
-2.867100 0.000000
-2.839600 0.000000
-2.812100 0.000000
-2.784600 0.000000
-2.757100 0.000000
-2.729700 0.000000
-2.702200 0.000000
-2.674700 0.000000
-2.647200 0.000000
-2.619700 0.000000
-2.592300 0.000000
-2.564800 0.000000
-2.537300 0.000000
-2.509800 0.000000
-2.482300 0.000000
-2.454900 0.000000
-2.427400 0.000000
-2.399900 0.000000
-2.372400 0.000000
-2.344900 0.000000
-2.317500 0.000000
-2.290000 0.000000
-2.262500 0.000000
-2.235000 0.000000
-2.207500 0.000000
-2.180100 0.000000
-2.152600 0.000000
-2.125100 0.000000
-2.097600 0.000000
-2.070100 0.000000
-2.042700 0.000000
-2.015200 0.000000
-1.987700 0.000000
-1.960200 0.000000
-1.932700 0.000000
-1.905300 0.000000
-1.877800 0.000000
-1.850300 0.000000
-1.822800 0.000000
-1.795300 0.000000
-1.767900 0.000000
-1.740400 0.000000
-1.712900 0.000000
-1.685400 0.000000
-1.657900 0.000000
-1.630500 0.000000
-1.603000 0.000000
-1.575500 0.000000
-1.548000 0.000000
-1.520500 0.000000
-1.493100 0.000000
-1.465600 0.000000
-1.438100 0.000000
-1.410600 0.000000
-1.383100 0.000000
-1.355700 0.000000
-1.328200 0.000000
-1.300700 0.000000
-1.273200 0.000000
-1.245700 0.000000
-1.218300 0.000000
-1.190800 0.000000
-1.163300 0.000000
-1.135800 0.000000
-1.108300 0.000000
-1.080900 0.000000
-1.053400 0.000000
-1.025900 0.000000
-0.998400 0.000000
-0.970900 0.000000
-0.943500 0.000000
-0.916000 0.000000
-0.888500 0.000000
-0.861000 0.000000
-0.833500 0.000000
-0.806100 0.000000
-0.778600 0.000000
-0.751100 0.000000
-0.723600 0.000000
-0.696100 0.000000
-0.668700 0.000000
-0.641200 0.000000
-0.613700 0.000000
-0.586200 0.000000
-0.558700 0.000000
-0.531300 0.000000
-0.503800 0.000000
-0.476300 0.000000
-0.448800 0.000000
-0.421300 0.000000
-0.393900 0.000000
-0.366400 0.000000
-0.338900 0.000000
-0.311400 0.000000
-0.283900 0.000000
-0.256500 0.000000
-0.229000 0.000000
-0.201500 0.000000
-0.174000 0.000000
-0.146500 0.000000
-0.119100 0.000000
-0.091600 0.000000
-0.064100 0.000000
-0.036600 0.000000
-0.009100 0.000000
0.018300 0.000000
0.045800 0.000000
0.073300 0.000000
0.100800 0.036000
0.128300 0.052800
0.155700 0.072500
0.183200 0.093600
0.210700 0.095900
0.238200 0.102800
0.265700 0.107800
0.293100 0.115100
0.320600 0.123300
0.348100 0.132800
0.375600 0.144100
0.403000 0.153800
0.430500 0.157400
0.458000 0.160600
0.485500 0.165500
0.513000 0.170900
0.540400 0.176300
0.567900 0.181900
0.595400 0.188200
0.622900 0.194900
0.650400 0.201500
0.677800 0.208600
0.705300 0.215900
0.732800 0.220800
0.760300 0.224600
0.787800 0.229000
0.815200 0.233900
0.842700 0.238700
0.870200 0.243400
0.897700 0.248100
0.925200 0.253100
0.952600 0.258300
0.980100 0.264300
1.007600 0.270400
1.035100 0.276600
1.062600 0.295800
1.090000 0.319300
1.117500 0.331900
1.145000 0.354400
1.172500 0.362000
1.200000 0.380700
1.227400 0.388300
1.254900 0.399600
1.282400 0.414000
1.309900 0.431500
1.337400 0.443400
1.364800 0.455000
1.392300 0.465100
1.419800 0.476100
1.447300 0.487900
1.474800 0.501800
1.502200 0.517600
1.529700 0.533900
1.557200 0.549600
1.584700 0.562600
1.612200 0.578700
1.639600 0.594800
1.667100 0.611500
1.694600 0.630600
1.722100 0.652500
1.749600 0.677300
1.777000 0.706500
1.804500 0.743300
1.832000 0.788100
1.859500 0.845100
1.887000 0.923700
1.914400 0.875100
1.941900 0.850400
1.969400 0.862800
1.996900 0.863300
2.024400 0.851000
2.051800 0.839000
2.079300 0.819300
2.106800 0.810600
2.134300 0.806100
2.161800 0.797900
2.189200 0.790100
2.216700 0.784800
2.244200 0.783600
2.271700 0.781500
2.299200 0.781200
2.326600 0.776600
2.354100 0.766200
2.381600 0.766100
2.409100 0.767100
2.436600 0.752000
2.464000 0.738100
2.491500 0.708900
2.519000 0.633700
2.546500 0.573200
2.574000 0.535300
2.601400 0.513200
2.628900 0.489300
2.656400 0.473500
2.683900 0.426800
2.711400 0.402700
2.738800 0.382700
2.766300 0.366300
2.793800 0.352500
2.821300 0.352600
2.848800 0.353700
2.876200 0.357900
2.903700 0.365200
2.931200 0.374400
2.958700 0.381900
2.986200 0.380500
3.013600 0.385400
3.041100 0.388700
3.068600 0.398000
3.096100 0.406900
3.123600 0.461500
3.151000 0.460100
3.178500 0.459800
3.206000 0.460500
3.233500 0.464100
3.261000 0.465800
3.288400 0.468000
3.315900 0.470800
3.343400 0.472700
3.370900 0.474100
3.398400 0.474900
3.425800 0.473700
3.453300 0.474700
3.480800 0.472200
3.508300 0.471700
3.535800 0.472900
3.563200 0.474800
3.590700 0.476800
3.618200 0.478800
3.645700 0.480800
3.673200 0.482800
3.700600 0.485000
3.728100 0.487000
3.755600 0.489300
3.783100 0.492300
3.810600 0.493200
3.838000 0.494000
3.865500 0.494600
3.893000 0.494900
3.920500 0.492800
3.948000 0.490100
3.975400 0.487900
4.002900 0.487600
4.030400 0.487900
4.057900 0.488300
4.085400 0.488800
4.112800 0.489600
4.140300 0.490600
4.167800 0.491900
4.195300 0.493600
4.222800 0.494300
4.250200 0.494600
4.277700 0.494500
4.305200 0.494500
4.332700 0.494500
4.360200 0.495800
4.387600 0.495300
4.415100 0.494700
4.442600 0.494100
4.470100 0.493300
4.497600 0.493200
4.525000 0.492100
4.552500 0.489800
4.580000 0.488600
4.607500 0.487600
4.635000 0.487400
4.662400 0.488100
4.689900 0.488200
4.717400 0.488000
4.744900 0.488600
4.772400 0.489900
4.799800 0.489800
4.827300 0.489600
4.854800 0.489300
4.882300 0.488700
4.909800 0.488000
4.937200 0.487300
4.964700 0.486800
4.992200 0.486500
5.019700 0.507800
5.047200 0.513300
5.074600 0.525300
5.102100 0.517300
5.129600 0.518900
5.157100 0.521400
5.184600 0.523700
5.212000 0.528200
5.239500 0.534600
5.267000 0.541400
5.294500 0.548400
5.322000 0.555100
5.349400 0.554300
5.376900 0.554000
5.404400 0.558300
5.431900 0.561800
5.459400 0.565600
5.486800 0.572500
5.514300 0.573800
5.541800 0.575000
5.569300 0.576700
5.596800 0.579500
5.624200 0.582600
5.651700 0.586000
5.679200 0.589800
5.706700 0.608400
5.734200 0.596700
5.761600 0.602100
5.789100 0.609900
5.816600 0.611600
5.844100 0.612400
5.871600 0.612700
5.899000 0.623100
5.926500 0.623000
5.954000 0.633300
5.981500 0.631300
6.009000 0.636600
6.036400 0.642500
6.063900 0.649000
6.091400 0.656400
6.118900 0.664800
6.146400 0.669200
6.173800 0.676800
6.201300 0.687900
6.228800 0.686000
6.256300 0.687600
6.283800 0.692200
6.311200 0.698400
6.338700 0.706200
6.366200 0.716400
6.393700 0.729100
6.421200 0.743800
6.448600 0.767100
6.476100 0.769800
6.503600 0.785200
6.531100 0.815500
6.558600 0.835300
6.586000 0.858300
6.613500 0.896700
6.641000 0.885300
6.668500 0.897200
6.696000 0.881000
6.723400 0.877600
6.750900 0.875400
6.778400 0.875500
6.805900 0.880300
6.833400 0.872000
6.860800 0.865000
6.888300 0.863000
6.915800 0.861700
6.943300 0.864500
6.970800 0.862000
6.998200 0.859800
7.025700 0.860600
7.053200 0.859700
7.080700 0.857900
7.108200 0.856900
7.135600 0.854700
7.163100 0.852800
7.190600 0.852400
7.218100 0.851100
7.245600 0.850000
7.273000 0.848000
7.300500 0.845600
7.328000 0.842200
7.355500 0.838500
7.383000 0.835300
7.410400 0.832700
7.437900 0.832700
7.465400 0.833100
7.492900 0.833500
7.520400 0.832000
7.547800 0.830100
7.575300 0.827900
7.602800 0.825500
7.630300 0.823400
7.657800 0.821700
7.685200 0.821100
7.712700 0.821300
7.740200 0.820500
7.767700 0.819000
7.795200 0.817300
7.822600 0.815700
7.850100 0.815000
7.877600 0.816900
7.905100 0.817100
7.932600 0.815900
7.960000 0.813700
7.987500 0.810800
8.015000 0.807600
8.042500 0.805200
8.070000 0.803500
8.097400 0.801500
8.124900 0.799400
8.152400 0.797900
8.179900 0.796900
8.207400 0.797100
8.234800 0.798700
8.262300 0.800100
8.289800 0.801500
8.317300 0.802300
8.344800 0.801500
8.372200 0.799100
8.399700 0.797600
8.427200 0.796900
8.454700 0.796100
8.482200 0.795000
8.509600 0.793700
8.537100 0.792700
8.564600 0.792600
8.592100 0.792200
8.619600 0.791000
8.647000 0.789900
8.674500 0.788900
8.702000 0.788900
8.729500 0.788700
8.757000 0.788500
8.784400 0.790400
8.811900 0.790200
8.839400 0.789900
8.866900 0.789800
8.894400 0.789100
8.921800 0.788400
8.949300 0.788200
8.976800 0.788800
9.004300 0.787400
9.031800 0.784700
9.059200 0.782300
9.086700 0.779900
9.114200 0.784000
9.141700 0.789800
9.169200 0.790400
9.196600 0.787200
9.224100 0.784600
9.251600 0.788400
9.279100 0.783100
9.306600 0.753900
9.334000 0.699900
9.361500 0.652100
9.389000 0.628300
9.416500 0.605300
9.444000 0.588500
9.471400 0.574400
9.498900 0.558000
9.526400 0.541900
9.553900 0.528400
9.581400 0.516600
9.608800 0.504000
9.636300 0.491200
9.663800 0.478700
9.691300 0.466600
9.718800 0.457200
9.746200 0.447700
9.773700 0.438800
9.801200 0.431700
9.828700 0.422000
9.856200 0.411500
9.883600 0.401800
9.911100 0.392400
9.938600 0.383600
9.966100 0.374900
9.993600 0.366200
10.021000 0.358300
10.048500 0.349800
10.076000 0.340600
10.103500 0.331700
10.131000 0.323700
10.158400 0.316300
10.185900 0.311200
10.213400 0.303500
10.240900 0.291300
10.268400 0.278800
10.295800 0.266500
10.323300 0.254600
10.350800 0.250400
10.378300 0.239100
10.405800 0.229600
10.433200 0.219300
10.460700 0.212500
10.488200 0.196200
10.515700 0.172300
10.543200 0.137500
10.570600 0.084200
10.598100 0.014900
10.625600 0.000000
10.653100 0.000000
10.680600 0.000000
10.708000 0.000000
10.735500 0.000000
10.763000 0.000000
10.790500 0.000000
10.818000 0.000000
10.845400 0.000000
10.872900 0.000000
10.900400 0.000000
10.927900 0.000000
10.955400 0.000000
10.982800 0.000000
11.010300 0.000000
11.037800 0.000000
11.065300 0.000000
11.092800 0.000000
11.120200 0.000000
11.147700 0.000000
11.175200 0.000000
11.202700 0.000000
11.230200 0.000000
11.257600 0.000000
11.285100 0.000000
11.312600 0.000000
11.340100 0.000000
11.367600 0.000000
11.395000 0.000000
11.422500 0.000000
11.450000 0.000000
11.477500 0.000000
11.505000 0.000000
11.532400 0.000000
11.559900 0.000000
11.587400 0.000000
11.614900 0.000000
11.642400 0.000000
11.669800 0.000000
11.697300 0.000000
11.724800 0.000000
11.752300 0.000000
11.779800 0.000000
11.807200 0.000000
11.834700 0.000000
11.862200 0.000000
11.889700 0.000000
11.917200 0.000000
11.944600 0.000000
11.972100 0.000000
11.999600 0.000000
12.027100 0.000000
12.054600 0.000000
12.082000 0.000000
12.109500 0.000000
12.137000 0.000000
12.164500 0.000000
12.192000 0.000000
12.219400 0.000000
12.246900 0.000000
12.274400 0.000000
12.301900 0.000000
12.329400 0.000000
12.356800 0.000000
12.384300 0.000000
12.411800 0.000000
12.439300 0.000000
12.466800 0.000000
12.494200 0.000000
12.521700 0.000000
12.549200 0.000000
12.576700 0.000000
12.604200 0.000000
12.631600 0.000000
12.659100 0.000000
12.686600 0.000000
12.714100 0.000000
12.741600 0.000000
12.769000 0.000000
12.796500 0.000000
12.824000 0.000000
12.851500 0.001300
12.879000 0.007200
12.906400 0.011800
12.933900 0.015900
12.961400 0.021600
12.988900 0.027900
13.016400 0.034800
13.043800 0.037000
13.071300 0.040100
13.098800 0.042500
13.126300 0.046900
13.153800 0.052200
13.181200 0.057700
13.208700 0.063300
13.236200 0.069200
13.263700 0.075200
13.291200 0.081400
13.318600 0.081500
13.346100 0.084700
13.373600 0.089700
13.401100 0.096100
13.428600 0.104100
13.456000 0.112900
13.483500 0.122500
13.511000 0.132500
13.538500 0.141400
13.566000 0.148100
13.593400 0.153800
13.620900 0.158300
13.648400 0.160800
13.675900 0.161300
13.703400 0.164600
13.730800 0.168500
13.758300 0.172900
13.785800 0.176800
13.813300 0.181300
13.840800 0.186100
13.868200 0.191000
13.895700 0.196100
13.923200 0.201300
13.950700 0.206800
13.978200 0.212300
14.005600 0.216900
14.033100 0.222700
14.060600 0.228500
14.088100 0.232800
14.115600 0.236400
14.143000 0.239000
14.170500 0.241700
14.198000 0.244900
14.225500 0.248500
14.253000 0.252500
14.280400 0.256700
14.307900 0.260400
14.335400 0.263900
14.362900 0.267500
14.390400 0.270800
14.417800 0.274600
14.445300 0.277900
14.472800 0.281400
14.500300 0.285100
14.527800 0.288900
14.555200 0.292800
14.582700 0.296700
14.610200 0.300800
14.637700 0.304900
14.665200 0.308300
14.692600 0.310500
14.720100 0.314200
14.747600 0.317800
14.775100 0.321200
14.802600 0.324700
14.830000 0.327300
14.857500 0.330600
14.885000 0.334500
14.912500 0.338600
14.940000 0.342500
14.967400 0.346400
14.994900 0.350400
15.022400 0.354400
15.049900 0.358400
15.077400 0.362100
15.104800 0.366100
15.132300 0.370800
15.159800 0.376200
15.187300 0.380600
15.214800 0.384500
15.242200 0.388500
15.269700 0.391400
15.297200 0.395000
15.324700 0.398600
15.352200 0.402200
15.379600 0.405100
15.407100 0.408200
15.434600 0.411700
15.462100 0.415500
15.489600 0.419500
15.517000 0.423500
15.544500 0.427400
15.572000 0.431400
15.599500 0.435400
15.627000 0.439500
15.654400 0.443800
15.681900 0.448100
15.709400 0.452700
15.736900 0.457200
15.764400 0.461200
15.791800 0.465800
15.819300 0.470500
15.846800 0.475200
15.874300 0.479400
15.901800 0.483800
15.929200 0.488400
15.956700 0.493200
15.984200 0.498200
16.011700 0.501900
16.039200 0.507000
16.066600 0.512300
16.094100 0.517700
16.121600 0.523600
16.149100 0.529700
16.176600 0.535400
16.204000 0.541000
16.231500 0.546700
16.259000 0.552500
16.286500 0.558500
16.314000 0.564400
16.341400 0.570700
16.368900 0.577500
16.396400 0.584600
16.423900 0.592000
16.451400 0.599600
16.478800 0.607600
16.506300 0.615900
16.533800 0.624300
16.561300 0.633100
16.588800 0.642500
16.616200 0.652700
16.643700 0.663500
16.671200 0.675400
16.698700 0.689500
16.726200 0.705000
16.753600 0.724600
16.781100 0.749100
16.808600 0.778900
16.836100 0.802400
16.863600 0.821700
16.891000 0.843000
16.918500 0.875800
16.946000 0.920600
16.973500 0.984500
17.001000 0.949200
17.028400 0.985200
17.055900 0.939100
17.083400 0.934700
17.110900 0.951300
17.138400 0.954800
17.165800 0.934600
17.193300 0.879600
17.220800 0.873100
17.248300 0.887300
17.275800 0.892200
17.303200 0.878600
17.330700 0.919000
17.358200 0.919400
17.385700 0.862900
17.413200 0.825900
17.440600 0.809600
17.468100 0.796000
17.495600 0.785800
17.523100 0.724000
17.550600 0.697300
17.578000 0.676700
17.605500 0.659400
17.633000 0.644000
17.660500 0.634000
17.688000 0.625800
17.715400 0.613700
17.742900 0.602000
17.770400 0.594100
17.797900 0.587000
17.825400 0.577000
17.852800 0.565800
17.880300 0.556800
17.907800 0.549200
17.935300 0.542200
17.962800 0.535600
17.990200 0.529200
18.017700 0.522900
18.045200 0.517800
18.072700 0.531200
18.100200 0.559800
18.127600 0.579800
18.155100 0.594900
18.182600 0.610200
18.210100 0.621300
18.237600 0.634200
18.265000 0.652300
18.292500 0.680500
18.320000 0.702300
18.347500 0.713300
18.375000 0.725600
18.402400 0.741600
18.429900 0.753900
18.457400 0.767500
18.484900 0.782200
18.512400 0.800300
18.539800 0.819800
18.567300 0.843400
18.594800 0.868500
18.622300 0.911000
18.649800 0.939700
18.677200 0.921700
18.704700 0.910300
18.732200 0.919800
18.759700 0.940000
18.787200 0.963300
18.814600 0.966300
18.842100 0.963300
18.869600 0.973800
18.897100 0.970100
18.924600 0.970400
18.952000 0.970900
18.979500 0.976500
19.007000 0.980200
19.034500 0.984200
19.062000 0.994400
19.089400 1.003700
19.116900 0.966500
19.144400 0.894500
19.171900 0.874700
19.199400 0.861400
19.226800 0.834400
19.254300 0.810100
19.281800 0.788600
19.309300 0.771200
19.336800 0.759200
19.364200 0.750800
19.391700 0.746800
19.419200 0.745200
19.446700 0.731600
19.474200 0.717000
19.501600 0.703000
19.529100 0.691100
19.556600 0.682100
19.584100 0.680000
19.611600 0.685900
19.639000 0.692100
19.666500 0.691800
19.694000 0.692800
19.721500 0.697900
19.749000 0.705800
19.776400 0.708100
19.803900 0.703800
19.831400 0.701900
19.858900 0.697500
19.886400 0.696600
19.913800 0.696500
19.941300 0.696700
19.968800 0.696100
19.996300 0.694400
20.023800 0.694500
20.051200 0.703500
20.078700 0.707400
20.106200 0.714400
20.133700 0.726000
20.161200 0.743200
20.188600 0.769600
20.216100 0.805200
20.243600 0.880200
20.271100 0.796900
20.298600 0.751800
20.326000 0.726600
20.353500 0.708600
20.381000 0.687500
20.408500 0.657800
20.436000 0.654200
20.463400 0.661000
20.490900 0.640200
20.518400 0.621600
20.545900 0.609500
20.573400 0.599400
20.600800 0.590800
20.628300 0.585900
20.655800 0.585500
20.683300 0.597800
20.710800 0.679000
20.738200 0.654800
20.765700 0.665100
20.793200 0.691100
20.820700 0.715900
20.848200 0.784400
20.875600 0.891200
20.903100 0.867800
20.930600 0.872700
20.958100 0.874700
20.985600 0.878600
21.013000 0.885200
21.040500 0.906200
21.068000 0.893600
21.095500 0.837000
21.123000 0.798400
21.150400 0.769100
21.177900 0.747600
21.205400 0.728100
21.232900 0.713500
21.260400 0.699400
21.287800 0.693500
21.315300 0.693900
21.342800 0.703700
21.370300 0.712400
21.397800 0.721100
21.425200 0.728500
21.452700 0.736200
21.480200 0.743100
21.507700 0.748200
21.535200 0.750000
21.562600 0.743200
21.590100 0.729700
21.617600 0.720500
21.645100 0.714000
21.672600 0.702300
21.700000 0.695200
21.727500 0.692900
21.755000 0.690200
21.782500 0.688000
21.810000 0.685400
21.837400 0.682400
21.864900 0.678600
21.892400 0.674500
21.919900 0.672200
21.947400 0.665600
21.974800 0.662700
22.002300 0.670400
22.029800 0.684400
22.057300 0.699200
22.084800 0.689800
22.112200 0.691100
22.139700 0.696100
22.167200 0.699600
22.194700 0.696500
22.222200 0.680600
22.249600 0.668200
22.277100 0.654600
22.304600 0.642300
22.332100 0.633300
22.359600 0.627800
22.387000 0.620500
22.414500 0.621000
22.442000 0.620800
22.469500 0.618800
22.497000 0.615300
22.524400 0.610900
22.551900 0.604300
22.579400 0.600000
22.606900 0.595200
22.634400 0.594300
22.661800 0.590500
22.689300 0.591100
22.716800 0.588800
22.744300 0.575800
22.771800 0.562000
22.799200 0.546700
22.826700 0.535100
22.854200 0.525700
22.881700 0.517200
22.909200 0.511700
22.936600 0.506800
22.964100 0.502700
22.991600 0.499300
23.019100 0.497200
23.046600 0.495800
23.074000 0.507200
23.101500 0.514500
23.129000 0.518200
23.156500 0.524800
23.184000 0.531700
23.211400 0.540800
23.238900 0.553700
23.266400 0.570300
23.293900 0.590600
23.321400 0.616700
23.348800 0.627100
23.376300 0.644200
23.403800 0.667000
23.431300 0.695300
23.458800 0.737000
23.486200 0.783600
23.513700 0.813900
23.541200 0.836600
23.568700 0.890200
23.596200 0.960200
23.623600 1.008700
23.651100 1.055900
23.678600 1.083400
23.706100 1.088200
23.733600 1.115400
23.761000 1.101000
23.788500 1.074300
23.816000 1.058800
23.843500 1.064100
23.871000 1.128100
23.898400 1.140800
23.925900 1.218100
23.953400 1.245600
23.980900 1.148600
24.008400 1.077400
24.035800 1.021200
24.063300 0.977500
24.090800 0.944800
24.118300 0.922400
24.145800 0.904700
24.173200 0.888600
24.200700 0.874800
24.228200 0.861000
24.255700 0.847900
24.283200 0.835500
24.310600 0.820700
24.338100 0.809900
24.365600 0.801000
24.393100 0.793400
24.420600 0.786300
24.448000 0.779300
24.475500 0.773400
24.503000 0.769000
24.530500 0.765000
24.558000 0.761900
24.585400 0.759700
24.612900 0.761500
24.640400 0.766800
24.667900 0.772100
24.695400 0.776500
24.722800 0.779700
24.750300 0.791800
24.777800 0.798700
24.805300 0.802200
24.832800 0.803900
24.860200 0.788700
24.887700 0.778000
24.915200 0.773500
24.942700 0.774700
24.970200 0.777900
24.997600 0.782900
25.025100 0.788300
25.052600 0.793200
25.080100 0.800500
25.107600 0.806500
25.135000 0.794000
25.162500 0.779400
25.190000 0.754900
25.217500 0.746100
25.245000 0.738900
25.272400 0.732400
25.299900 0.741200
25.327400 0.741700
25.354900 0.731800
25.382400 0.722100
25.409800 0.715300
25.437300 0.711400
25.464800 0.706500
25.492300 0.697500
25.519800 0.692700
25.547200 0.688800
25.574700 0.684700
25.602200 0.679900
25.629700 0.672500
25.657200 0.670000
25.684600 0.666700
25.712100 0.661600
25.739600 0.654800
25.767100 0.646800
25.794600 0.638700
25.822000 0.628100
25.849500 0.615200
25.877000 0.600000
25.904500 0.582300
25.932000 0.561400
25.959400 0.540200
25.986900 0.527500
26.014400 0.523300
26.041900 0.525300
26.069400 0.524700
26.096800 0.524200
26.124300 0.523900
26.151800 0.523800
26.179300 0.524000
26.206800 0.524200
26.234200 0.525100
26.261700 0.528200
26.289200 0.531600
26.316700 0.533700
26.344200 0.535300
26.371600 0.535400
26.399100 0.534900
26.426600 0.534100
26.454100 0.534100
26.481600 0.534200
26.509000 0.534100
26.536500 0.533600
26.564000 0.533000
26.591500 0.532700
26.619000 0.532600
26.646400 0.534800
26.673900 0.549500
26.701400 0.543100
26.728900 0.536700
26.756400 0.535900
26.783800 0.537400
26.811300 0.540600
26.838800 0.544000
26.866300 0.549300
26.893800 0.553300
26.921200 0.556400
26.948700 0.559100
26.976200 0.562000
27.003700 0.565200
27.031200 0.568400
27.058600 0.571400
27.086100 0.574700
27.113600 0.578200
27.141100 0.581800
27.168600 0.585800
27.196000 0.590200
27.223500 0.595400
27.251000 0.601400
27.278500 0.608200
27.306000 0.614900
27.333400 0.620100
27.360900 0.623800
27.388400 0.626700
27.415900 0.628800
27.443400 0.631800
27.470800 0.640400
27.498300 0.647800
27.525800 0.652000
27.553300 0.660100
27.580800 0.669300
27.608200 0.679200
27.635700 0.688000
27.663200 0.697000
27.690700 0.709000
27.718200 0.720300
27.745600 0.734600
27.773100 0.755400
27.800600 0.773300
27.828100 0.782500
27.855600 0.787000
27.883000 0.788800
27.910500 0.788200
27.938000 0.784800
27.965500 0.778800
27.993000 0.769800
28.020400 0.757800
28.047900 0.752200
28.075400 0.749900
28.102900 0.774400
28.130400 0.766100
28.157800 0.760600
28.185300 0.756500
28.212800 0.754300
28.240300 0.754400
28.267800 0.749500
28.295200 0.741400
28.322700 0.734400
28.350200 0.729600
28.377700 0.726400
28.405200 0.724500
28.432600 0.729100
28.460100 0.735700
28.487600 0.736900
28.515100 0.744800
28.542600 0.775200
28.570000 0.796200
28.597500 0.780600
28.625000 0.771000
28.652500 0.802600
28.680000 0.779000
28.707400 0.781500
28.734900 0.787400
28.762400 0.784000
28.789900 0.786100
28.817400 0.793400
28.844800 0.799600
28.872300 0.806000
28.899800 0.810800
28.927300 0.811500
28.954800 0.837700
28.982200 0.839600
29.009700 0.828000
29.037200 0.829200
29.064700 0.785500
29.092200 0.760500
29.119600 0.743800
29.147100 0.720700
29.174600 0.704900
29.202100 0.694000
29.229600 0.685700
29.257000 0.677900
29.284500 0.670800
29.312000 0.663800
29.339500 0.657600
29.367000 0.652100
29.394400 0.647600
29.421900 0.644400
29.449400 0.641700
29.476900 0.638100
29.504400 0.633700
29.531800 0.628200
29.559300 0.621400
29.586800 0.614500
29.614300 0.609200
29.641800 0.608700
29.669200 0.609600
29.696700 0.608400
29.724200 0.597700
29.751700 0.581900
29.779200 0.566300
29.806600 0.553200
29.834100 0.539700
29.861600 0.525900
29.889100 0.515000
29.916600 0.506400
29.944000 0.501500
29.971500 0.499700
29.999000 0.495600
30.026500 0.488600
30.054000 0.482400
30.081400 0.479800
30.108900 0.485800
30.136400 0.483000
30.163900 0.477500
30.191400 0.473800
30.218800 0.468200
30.246300 0.457800
30.273800 0.452800
30.301300 0.449700
30.328800 0.446400
30.356200 0.442900
30.383700 0.439000
30.411200 0.434800
30.438700 0.430400
30.466200 0.425700
30.493600 0.445500
30.521100 0.566400
30.548600 0.473000
30.576100 0.321100
30.603600 0.322300
30.631000 0.323300
30.658500 0.324200
30.686000 0.325200
30.713500 0.326400
30.741000 0.327700
30.768400 0.329000
30.795900 0.330400
30.823400 0.332000
30.850900 0.333600
30.878400 0.335600
30.905800 0.338300
30.933300 0.341300
30.960800 0.343600
30.988300 0.346000
31.015800 0.348500
31.043200 0.351100
31.070700 0.353800
31.098200 0.356500
31.125700 0.359500
31.153200 0.362800
31.180600 0.366500
31.208100 0.370300
31.235600 0.374400
31.263100 0.378700
31.290600 0.383200
31.318000 0.388100
31.345500 0.393900
31.373000 0.403000
31.400500 0.411400
31.428000 0.453500
31.455400 0.479900
31.482900 0.501500
31.510400 0.514100
31.537900 0.515400
31.565400 0.519400
31.592800 0.529000
31.620300 0.541900
31.647800 0.554100
31.675300 0.565600
31.702800 0.576500
31.730200 0.584400
31.757700 0.570700
31.785200 0.566700
31.812700 0.568200
31.840200 0.571000
31.867600 0.571700
31.895100 0.570600
31.922600 0.567600
31.950100 0.563800
31.977600 0.563800
32.005000 0.537000
32.032500 0.530000
32.060000 0.525800
32.087500 0.524000
32.115000 0.523300
32.142400 0.523300
32.169900 0.520000
32.197400 0.516500
32.224900 0.519700
32.252400 0.518000
32.279800 0.516000
32.307300 0.514700
32.334800 0.514000
32.362300 0.513300
32.389800 0.512500
32.417200 0.508800
32.444700 0.504000
32.472200 0.503200
32.499700 0.502700
32.527200 0.501400
32.554600 0.500800
32.582100 0.501000
32.609600 0.501500
32.637100 0.502000
32.664600 0.501200
32.692000 0.492300
32.719500 0.490300
32.747000 0.488200
32.774500 0.487400
32.802000 0.485100
32.829400 0.483900
32.856900 0.483900
32.884400 0.483100
32.911900 0.479500
32.939400 0.476500
32.966800 0.474200
32.994300 0.472900
33.021800 0.473500
33.049300 0.475600
33.076800 0.479100
33.104200 0.483300
33.131700 0.483900
33.159200 0.483500
33.186700 0.482000
33.214200 0.481600
33.241600 0.482200
33.269100 0.482700
33.296600 0.484000
33.324100 0.484300
33.351600 0.483800
33.379000 0.483700
33.406500 0.484000
33.434000 0.484800
33.461500 0.485900
33.489000 0.487200
33.516400 0.488600
33.543900 0.490600
33.571400 0.493200
33.598900 0.495100
33.626400 0.497000
33.653800 0.498900
33.681300 0.500200
33.708800 0.501500
33.736300 0.503000
33.763800 0.504800
33.791200 0.507200
33.818700 0.510200
33.846200 0.513800
33.873700 0.517600
33.901200 0.521500
33.928600 0.525100
33.956100 0.528000
33.983600 0.530500
34.011100 0.533300
34.038500 0.537300
34.066000 0.572000
34.093500 0.626700
34.121000 0.658100
34.148500 0.656500
34.175900 0.651100
34.203400 0.646600
34.230900 0.636500
34.258400 0.637300
34.285900 0.638100
34.313300 0.644000
34.340800 0.643700
34.368300 0.643500
34.395800 0.642100
34.423300 0.640200
34.450700 0.631300
34.478200 0.617500
34.505700 0.605800
34.533200 0.600300
34.560700 0.596300
34.588100 0.591200
34.615600 0.586500
34.643100 0.582500
34.670600 0.578900
34.698100 0.575400
34.725500 0.572100
34.753000 0.569200
34.780500 0.565300
34.808000 0.561800
34.835500 0.558400
34.862900 0.554900
34.890400 0.551100
34.917900 0.547500
34.945400 0.544100
34.972900 0.541600
35.000300 0.547200
35.027800 0.554700
35.055300 0.552600
35.082800 0.560600
35.110300 0.550800
35.137700 0.554000
35.165200 0.556700
35.192700 0.558600
35.220200 0.560000
35.247700 0.560800
35.275100 0.561900
35.302600 0.563900
35.330100 0.566700
35.357600 0.570500
35.385100 0.600500
35.412500 0.582300
35.440000 0.594200
35.467500 0.606300
35.495000 0.615600
35.522500 0.601500
35.549900 0.603700
35.577400 0.607800
35.604900 0.612800
35.632400 0.625900
35.659900 0.633200
35.687300 0.632300
35.714800 0.630600
35.742300 0.634400
35.769800 0.632200
35.797300 0.628600
35.824700 0.621300
35.852200 0.615300
35.879700 0.611700
35.907200 0.617200
35.934700 0.617200
35.962100 0.625200
35.989600 0.629300
36.017100 0.653600
36.044600 0.690600
36.072100 0.726500
36.099500 0.760900
36.127000 0.825300
36.154500 0.911500
36.182000 0.906400
36.209500 0.876900
36.236900 0.873700
36.264400 0.896100
36.291900 0.914000
36.319400 0.984400
36.346900 0.892600
36.374300 0.896600
36.401800 0.894600
36.429300 0.880100
36.456800 0.879700
36.484300 0.889700
36.511700 0.920800
36.539200 0.966600
36.566700 0.961300
36.594200 0.949300
36.621700 0.948300
36.649100 0.947800
36.676600 0.947500
36.704100 0.959300
36.731600 0.961400
36.759100 0.958500
36.786500 0.945300
36.814000 0.922700
36.841500 0.897100
36.869000 0.878300
36.896500 0.859300
36.923900 0.843800
36.951400 0.834600
36.978900 0.851900
37.006400 0.849800
37.033900 0.830500
37.061300 0.816300
37.088800 0.810100
37.116300 0.807900
37.143800 0.798300
37.171300 0.790300
37.198700 0.784200
37.226200 0.779500
37.253700 0.776700
37.281200 0.776400
37.308700 0.778400
37.336100 0.782600
37.363600 0.787100
37.391100 0.795500
37.418600 0.804100
37.446100 0.811000
37.473500 0.812900
37.501000 0.807100
37.528500 0.798300
37.556000 0.785700
37.583500 0.773700
37.610900 0.769800
37.638400 0.755100
37.665900 0.740400
37.693400 0.733700
37.720900 0.728300
37.748300 0.723000
37.775800 0.771600
37.803300 0.709600
37.830800 0.702300
37.858300 0.690200
37.885700 0.679200
37.913200 0.678100
37.940700 0.689000
37.968200 0.656800
37.995700 0.619300
38.023100 0.604100
38.050600 0.594900
38.078100 0.589100
38.105600 0.583600
38.133100 0.582800
38.160500 0.669700
38.188000 0.545400
38.215500 0.528500
38.243000 0.517800
38.270500 0.511600
38.297900 0.500300
38.325400 0.481500
38.352900 0.451900
38.380400 0.417700
38.407900 0.400700
38.435300 0.388500
38.462800 0.375600
38.490300 0.360200
38.517800 0.350300
38.545300 0.340000
38.572700 0.328200
38.600200 0.314100
38.627700 0.299100
38.655200 0.287000
38.682700 0.278800
38.710100 0.271700
38.737600 0.263900
38.765100 0.255600
38.792600 0.247400
38.820100 0.239000
38.847500 0.230200
38.875000 0.222300
38.902500 0.214800
38.930000 0.207700
38.957500 0.200900
38.984900 0.194600
39.012400 0.188600
39.039900 0.182800
39.067400 0.177300
39.094900 0.172000
39.122300 0.166900
39.149800 0.161800
39.177300 0.157000
39.204800 0.152700
39.232300 0.150400
39.259700 0.163500
39.287200 0.167600
39.314700 0.157200
39.342200 0.146900
39.369700 0.134500
39.397100 0.127800
39.424600 0.119400
39.452100 0.108800
39.479600 0.100600
39.507100 0.093500
39.534500 0.087200
39.562000 0.079300
39.589500 0.068700
39.617000 0.057300
39.644500 0.047200
39.671900 0.038400
39.699400 0.030900
39.726900 0.024500
39.754400 0.019300
39.781900 0.013700
39.809300 0.007200
39.836800 0.006500
39.864300 0.005900
39.891800 0.005400
39.919300 0.004900
39.946700 0.004500
39.974200 0.004100
40.001700 0.003700
40.029200 0.003400
40.056700 0.003100
40.084100 0.002900
40.111600 0.002600
40.139100 0.002400
40.166600 0.002100
40.194100 0.001900
40.221500 0.001700
40.249000 0.001500
40.276500 0.001300
40.304000 0.001200
40.331500 0.001000
40.358900 0.000900
40.386400 0.000700
40.413900 0.000600
40.441400 0.000500
40.468900 0.000400
40.496300 0.000300
40.523800 0.000200
40.551300 0.000200
40.578800 0.000100
40.606300 0.000100
40.633700 0.000000
40.661200 0.000000
40.688700 0.000000
40.716200 0.000000
40.743700 0.000000
40.771100 0.000000
40.798600 0.000000
40.826100 0.000000
40.853600 0.000000
40.881100 0.000000
40.908500 0.000000
40.936000 0.000000
40.963500 0.000000
40.991000 0.000000
41.018500 0.000000
41.045900 0.000000
41.073400 0.000000
41.100900 0.000000
41.128400 0.000000
41.155900 0.000000
41.183300 0.000000
41.210800 0.000000
41.238300 0.000000
41.265800 0.000000
41.293300 0.000000
41.320700 0.000000
41.348200 0.000000
41.375700 0.000000
41.403200 0.000000
41.430700 0.000000
41.458100 0.000000
41.485600 0.000000
41.513100 0.000000
41.540600 0.000000
41.568100 0.000000
41.595500 0.000000
41.623000 0.000000
41.650500 0.000000
41.678000 0.000000
41.705500 0.000000
41.732900 0.000000
41.760400 0.000000
41.787900 0.000000
41.815400 0.000000
41.842900 0.000000
41.870300 0.000000
41.897800 0.000000
41.925300 0.000000
41.952800 0.000000
41.980300 0.000000
42.007700 0.000000
42.035200 0.000000
42.062700 0.000000
42.090200 0.000000
42.117700 0.000000
42.145100 0.000000
42.172600 0.000000
42.200100 0.000000
42.227600 0.000000
42.255100 0.000000
42.282500 0.000000
42.310000 0.000000
42.337500 0.000000
42.365000 0.000000
42.392500 0.000000
42.419900 0.000000
42.447400 0.000000
42.474900 0.000000
42.502400 0.000000
42.529900 0.000000
42.557300 0.000000
42.584800 0.000000
42.612300 0.000000
42.639800 0.000000
42.667300 0.000000
42.694700 0.000000
42.722200 0.000000
42.749700 0.000000
42.777200 0.000000
42.804700 0.000000
42.832100 0.000000
42.859600 0.000000
42.887100 0.000000
42.914600 0.000000
42.942100 0.000000
42.969500 0.000000
42.997000 0.000000
43.024500 0.000000
43.052000 0.000000
43.079500 0.000000
43.106900 0.000000
43.134400 0.000000
43.161900 0.000000
43.189400 0.000000
e
