set title 'mp-23 - Density of States'
set xlabel 'Energy (eV)'
set ylabel 'DOS (states/eV)'
set grid
set xrange [-10:10]
set yrange [0:2.829]
set xzeroaxis lt -1
set terminal png size 800,600
set output 'mp-23_dos_gnuplot.png'
plot '-' using 1:2 with lines title 'DOS'
-69.795800 0.000000
-69.644500 0.000000
-69.493200 0.000000
-69.342000 0.000000
-69.190700 0.000000
-69.039500 0.000000
-68.888200 0.000000
-68.736900 0.000000
-68.585700 0.000000
-68.434400 0.000000
-68.283100 0.000000
-68.131900 0.000000
-67.980600 0.000000
-67.829400 0.000000
-67.678100 0.000000
-67.526800 0.000000
-67.375600 0.000000
-67.224300 0.000000
-67.073100 0.000000
-66.921800 0.000000
-66.770500 0.000000
-66.619300 0.000000
-66.468000 0.000000
-66.316800 0.000000
-66.165500 0.000000
-66.014200 0.000000
-65.863000 0.000000
-65.711700 0.000000
-65.560500 0.000000
-65.409200 0.000000
-65.257900 0.000000
-65.106700 0.000000
-64.955400 0.000000
-64.804100 0.000000
-64.652900 0.000000
-64.501600 0.000000
-64.350400 0.000000
-64.199100 0.000000
-64.047800 0.000000
-63.896600 0.000000
-63.745300 0.000000
-63.594100 0.000000
-63.442800 0.000000
-63.291500 0.000000
-63.140300 0.000000
-62.989000 0.000000
-62.837800 0.000000
-62.686500 0.000000
-62.535200 0.000000
-62.384000 0.000000
-62.232700 0.000000
-62.081500 0.000000
-61.930200 0.000000
-61.778900 0.000000
-61.627700 0.000000
-61.476400 0.000000
-61.325100 0.000000
-61.173900 0.000000
-61.022600 0.000000
-60.871400 0.000000
-60.720100 0.000000
-60.568800 0.000000
-60.417600 0.000000
-60.266300 0.000000
-60.115100 0.000000
-59.963800 0.000000
-59.812500 0.000000
-59.661300 0.000000
-59.510000 0.000000
-59.358800 0.000000
-59.207500 0.000000
-59.056200 0.000000
-58.905000 0.000000
-58.753700 0.000000
-58.602500 0.000000
-58.451200 0.000000
-58.299900 0.000000
-58.148700 0.000000
-57.997400 0.000000
-57.846100 0.000000
-57.694900 0.000000
-57.543600 0.000000
-57.392400 0.000000
-57.241100 0.000000
-57.089800 0.000000
-56.938600 0.000000
-56.787300 0.000000
-56.636100 0.000000
-56.484800 0.000000
-56.333500 0.000000
-56.182300 0.000000
-56.031000 4.886700
-55.879800 23.369000
-55.728500 0.000000
-55.577200 0.000000
-55.426000 0.000000
-55.274700 0.000000
-55.123500 0.000000
-54.972200 0.000000
-54.820900 0.000000
-54.669700 0.000000
-54.518400 0.000000
-54.367100 0.000000
-54.215900 0.000000
-54.064600 0.000000
-53.913400 0.000000
-53.762100 0.000000
-53.610800 0.000000
-53.459600 0.000000
-53.308300 0.000000
-53.157100 0.000000
-53.005800 0.000000
-52.854500 0.000000
-52.703300 0.000000
-52.552000 0.000000
-52.400800 0.000000
-52.249500 0.000000
-52.098200 0.000000
-51.947000 0.000000
-51.795700 0.000000
-51.644500 0.000000
-51.493200 0.000000
-51.341900 0.000000
-51.190700 0.000000
-51.039400 0.000000
-50.888200 0.000000
-50.736900 0.000000
-50.585600 0.000000
-50.434400 0.000000
-50.283100 0.000000
-50.131800 0.000000
-49.980600 0.000000
-49.829300 0.000000
-49.678100 0.000000
-49.526800 0.000000
-49.375500 0.000000
-49.224300 0.000000
-49.073000 0.000000
-48.921800 0.000000
-48.770500 0.000000
-48.619200 0.000000
-48.468000 0.000000
-48.316700 0.000000
-48.165500 0.000000
-48.014200 0.000000
-47.862900 0.000000
-47.711700 0.000000
-47.560400 0.000000
-47.409200 0.000000
-47.257900 0.000000
-47.106600 0.000000
-46.955400 0.000000
-46.804100 0.000000
-46.652800 0.000000
-46.501600 0.000000
-46.350300 0.000000
-46.199100 0.000000
-46.047800 0.000000
-45.896500 0.000000
-45.745300 0.000000
-45.594000 0.000000
-45.442800 0.000000
-45.291500 0.000000
-45.140200 0.000000
-44.989000 0.000000
-44.837700 0.000000
-44.686500 0.000000
-44.535200 0.000000
-44.383900 0.000000
-44.232700 0.000000
-44.081400 0.000000
-43.930200 0.000000
-43.778900 0.000000
-43.627600 0.000000
-43.476400 0.000000
-43.325100 0.000000
-43.173800 0.000000
-43.022600 0.000000
-42.871300 0.000000
-42.720100 0.000000
-42.568800 0.000000
-42.417500 0.000000
-42.266300 0.000000
-42.115000 0.000000
-41.963800 0.000000
-41.812500 0.000000
-41.661200 0.000000
-41.510000 0.000000
-41.358700 0.000000
-41.207500 0.000000
-41.056200 0.000000
-40.904900 0.000000
-40.753700 0.000000
-40.602400 0.000000
-40.451200 0.000000
-40.299900 0.000000
-40.148600 0.000000
-39.997400 0.000000
-39.846100 0.000000
-39.694800 0.000000
-39.543600 0.000000
-39.392300 0.000000
-39.241100 0.000000
-39.089800 0.000000
-38.938500 0.000000
-38.787300 0.000000
-38.636000 0.000000
-38.484800 0.000000
-38.333500 0.000000
-38.182200 0.000000
-38.031000 0.000000
-37.879700 0.000000
-37.728500 0.000000
-37.577200 0.000000
-37.425900 0.000000
-37.274700 0.000000
-37.123400 0.000000
-36.972200 0.000000
-36.820900 0.000000
-36.669600 0.000000
-36.518400 0.000000
-36.367100 0.000000
-36.215800 0.000000
-36.064600 0.000000
-35.913300 0.000000
-35.762100 0.000000
-35.610800 0.000000
-35.459500 0.000000
-35.308300 0.000000
-35.157000 0.000000
-35.005800 0.000000
-34.854500 0.000000
-34.703200 0.000000
-34.552000 0.000000
-34.400700 0.000000
-34.249500 0.000000
-34.098200 0.000000
-33.946900 0.000000
-33.795700 0.000000
-33.644400 0.000000
-33.493200 0.000000
-33.341900 0.000000
-33.190600 0.000000
-33.039400 0.000000
-32.888100 0.000000
-32.736800 0.000000
-32.585600 0.000000
-32.434300 0.000000
-32.283100 0.000000
-32.131800 0.000000
-31.980500 0.000000
-31.829300 0.000000
-31.678000 0.000000
-31.526800 0.000000
-31.375500 0.000000
-31.224200 0.000000
-31.073000 0.000000
-30.921700 0.000000
-30.770500 0.000000
-30.619200 0.000000
-30.467900 0.000000
-30.316700 0.000000
-30.165400 0.000000
-30.014200 0.000000
-29.862900 0.000000
-29.711600 0.000000
-29.560400 0.000000
-29.409100 0.000000
-29.257800 0.000000
-29.106600 0.000000
-28.955300 0.000000
-28.804100 0.000000
-28.652800 0.000000
-28.501500 0.000000
-28.350300 0.000000
-28.199000 0.000000
-28.047800 0.000000
-27.896500 0.000000
-27.745200 0.000000
-27.594000 0.000000
-27.442700 0.000000
-27.291500 0.000000
-27.140200 0.000000
-26.988900 0.000000
-26.837700 0.000000
-26.686400 0.000000
-26.535200 0.000000
-26.383900 0.000000
-26.232600 0.000000
-26.081400 0.000000
-25.930100 0.000000
-25.778900 0.000000
-25.627600 0.000000
-25.476300 0.000000
-25.325100 0.000000
-25.173800 0.000000
-25.022500 0.000000
-24.871300 0.000000
-24.720000 0.000000
-24.568800 0.000000
-24.417500 0.000000
-24.266200 0.000000
-24.115000 0.000000
-23.963700 0.000000
-23.812500 0.000000
-23.661200 0.000000
-23.509900 0.000000
-23.358700 0.000000
-23.207400 0.000000
-23.056200 0.000000
-22.904900 0.000000
-22.753600 0.000000
-22.602400 0.000000
-22.451100 0.000000
-22.299900 0.000000
-22.148600 0.000000
-21.997300 0.000000
-21.846100 0.000000
-21.694800 0.000000
-21.543500 0.000000
-21.392300 0.000000
-21.241000 0.000000
-21.089800 0.000000
-20.938500 0.000000
-20.787200 0.000000
-20.636000 0.000000
-20.484700 0.000000
-20.333500 0.000000
-20.182200 0.000000
-20.030900 0.000000
-19.879700 0.000000
-19.728400 0.000000
-19.577200 0.000000
-19.425900 0.000000
-19.274600 0.000000
-19.123400 0.000000
-18.972100 0.000000
-18.820900 0.000000
-18.669600 0.000000
-18.518300 0.000000
-18.367100 0.000000
-18.215800 0.000000
-18.064500 0.000000
-17.913300 0.000000
-17.762000 0.000000
-17.610800 0.000000
-17.459500 0.000000
-17.308200 0.000000
-17.157000 0.000000
-17.005700 0.000000
-16.854500 0.000000
-16.703200 0.000000
-16.551900 0.000000
-16.400700 0.000000
-16.249400 0.000000
-16.098200 0.000000
-15.946900 0.000000
-15.795600 0.000000
-15.644400 0.000000
-15.493100 0.000000
-15.341900 0.000000
-15.190600 0.000000
-15.039300 0.000000
-14.888100 0.000000
-14.736800 0.000000
-14.585500 0.000000
-14.434300 0.000000
-14.283000 0.000000
-14.131800 0.000000
-13.980500 0.000000
-13.829200 0.000000
-13.678000 0.000000
-13.526700 0.000000
-13.375500 0.000000
-13.224200 0.000000
-13.072900 0.000000
-12.921700 0.000000
-12.770400 0.000000
-12.619200 0.000000
-12.467900 0.000000
-12.316600 0.000000
-12.165400 0.000000
-12.014100 0.000000
-11.862900 0.000000
-11.711600 0.000000
-11.560300 0.000000
-11.409100 0.000000
-11.257800 0.000000
-11.106500 0.000000
-10.955300 0.000000
-10.804000 0.000000
-10.652800 0.000000
-10.501500 0.000000
-10.350200 0.000000
-10.199000 0.000000
-10.047700 0.000000
-9.896500 0.000000
-9.745200 0.000000
-9.593900 0.000000
-9.442700 0.000000
-9.291400 0.000000
-9.140200 0.000000
-8.988900 0.000000
-8.837600 0.000000
-8.686400 0.000000
-8.535100 0.000000
-8.383900 0.000000
-8.232600 0.000000
-8.081300 0.000000
-7.930100 0.000000
-7.778800 0.000000
-7.627500 0.000000
-7.476300 0.000000
-7.325000 0.000000
-7.173800 0.000000
-7.022500 0.000000
-6.871200 0.000000
-6.720000 0.000000
-6.568700 0.000000
-6.417500 0.000000
-6.266200 0.000000
-6.114900 0.000000
-5.963700 0.000000
-5.812400 0.000000
-5.661200 0.000000
-5.509900 0.000000
-5.358600 0.000000
-5.207400 0.000000
-5.056100 0.000000
-4.904900 0.000000
-4.753600 0.000000
-4.602300 0.000000
-4.451100 0.000000
-4.299800 0.000000
-4.148500 0.000000
-3.997300 0.000000
-3.846000 0.000000
-3.694800 0.000000
-3.543500 0.000000
-3.392200 0.000000
-3.241000 0.000000
-3.089700 0.000000
-2.938500 0.000000
-2.787200 0.000000
-2.635900 0.000000
-2.484700 0.000000
-2.333400 0.000000
-2.182200 0.000000
-2.030900 0.000000
-1.879600 0.000000
-1.728400 0.000000
-1.577100 0.000000
-1.425900 0.000000
-1.274600 0.000000
-1.123300 0.000000
-0.972100 0.012600
-0.820800 0.018300
-0.669600 0.022500
-0.518300 0.026500
-0.367000 0.030100
-0.215800 0.033300
-0.064500 0.036600
0.086800 0.039700
0.238000 0.042800
0.389300 0.046100
0.540500 0.049100
0.691800 0.052400
0.843100 0.055800
0.994300 0.059200
1.145600 0.063100
1.296800 0.067000
1.448100 0.071300
1.599400 0.076000
1.750600 0.081400
1.901900 0.087300
2.053100 0.094300
2.204400 0.102700
2.355700 0.112400
2.506900 0.125700
2.658200 0.142200
2.809400 0.167200
2.960700 0.206100
3.112000 0.317100
3.263200 0.553700
3.414500 0.538400
3.565800 0.552600
3.717000 0.578000
3.868300 0.765000
4.019500 0.894900
4.170800 1.036800
4.322100 0.955500
4.473300 0.765900
4.624600 0.866800
4.775800 0.785400
4.927100 0.953300
5.078400 1.110900
5.229600 1.242200
5.380900 1.236400
5.532100 1.584700
5.683400 1.623800
5.834700 1.550300
5.985900 1.190400
6.137200 0.967100
6.288400 0.940700
6.439700 1.346400
6.591000 1.448300
6.742200 1.326300
6.893500 1.200900
7.044800 1.232000
7.196000 1.436100
7.347300 2.571400
7.498500 1.285400
7.649800 0.192700
7.801100 0.183300
7.952300 0.174700
8.103600 0.168800
8.254800 0.163200
8.406100 0.158500
8.557400 0.155000
8.708600 0.150900
8.859900 0.148000
9.011100 0.145000
9.162400 0.142200
9.313700 0.140000
9.464900 0.137200
9.616200 0.135400
9.767400 0.133600
9.918700 0.131400
10.070000 0.129900
10.221200 0.129200
10.372500 0.128700
10.523800 0.128600
10.675000 0.125600
10.826300 0.123000
10.977500 0.119700
11.128800 0.116600
11.280100 0.113500
11.431300 0.110000
11.582600 0.107000
11.733800 0.103300
11.885100 0.099600
12.036400 0.095900
12.187600 0.092400
12.338900 0.088600
12.490100 0.084600
12.641400 0.080300
12.792700 0.076500
12.943900 0.072900
13.095200 0.068000
13.246400 0.063800
13.397700 0.059700
13.549000 0.055500
13.700200 0.050500
13.851500 0.110600
14.002800 0.133600
14.154000 0.134900
14.305300 0.137300
14.456500 0.140000
14.607800 0.148900
14.759100 0.161800
14.910300 0.154000
15.061600 0.145800
15.212800 0.141300
15.364100 0.132900
15.515400 0.130000
15.666600 0.127400
15.817900 0.123900
15.969100 0.121400
16.120400 0.117700
16.271700 0.115400
16.422900 0.113600
16.574200 0.111900
16.725400 0.110300
16.876700 0.109400
17.028000 0.109000
17.179200 0.108900
17.330500 0.156300
17.481800 0.155500
17.633000 0.143300
17.784300 0.127800
17.935500 0.114800
18.086800 0.174200
18.238100 0.175300
18.389300 0.182300
18.540600 0.175300
18.691800 0.173300
18.843100 0.172200
18.994400 0.172600
19.145600 0.172700
19.296900 0.169200
19.448100 0.174300
19.599400 0.177100
19.750700 0.177900
19.901900 0.181000
20.053200 0.180600
20.204400 0.181400
20.355700 0.182200
20.507000 0.182800
20.658200 0.184000
20.809500 0.186700
20.960800 0.186800
21.112000 0.186500
21.263300 0.187800
21.414500 0.189700
21.565800 0.191600
21.717100 0.192300
21.868300 0.194800
22.019600 0.195600
22.170800 0.196900
22.322100 0.199000
22.473400 0.202900
22.624600 0.206500
22.775900 0.211000
22.927100 0.225700
23.078400 0.220800
23.229700 0.217800
23.380900 0.215700
23.532200 0.215000
23.683400 0.212100
23.834700 0.209700
23.986000 0.209200
24.137200 0.206100
24.288500 0.203300
24.439800 0.201100
24.591000 0.199700
24.742300 0.197400
24.893500 0.195100
25.044800 0.192700
25.196100 0.190100
25.347300 0.188600
25.498600 0.186800
25.649800 0.184700
25.801100 0.181600
25.952400 0.178900
26.103600 0.176400
26.254900 0.175600
26.406100 0.173600
26.557400 0.171300
26.708700 0.168700
26.859900 0.166200
27.011200 0.163500
27.162400 0.162000
27.313700 0.160100
27.465000 0.157100
27.616200 0.154400
27.767500 0.152400
27.918700 0.158600
28.070000 0.161000
28.221300 0.165100
28.372500 0.165200
28.523800 0.166500
28.675100 0.169100
28.826300 0.176000
28.977600 0.176100
29.128800 0.180900
29.280100 0.192400
29.431400 0.202900
29.582600 0.209200
29.733900 0.219700
29.885100 0.226700
30.036400 0.232300
30.187700 0.239000
30.338900 0.233700
30.490200 0.233600
30.641400 0.237000
30.792700 0.234100
30.944000 0.235700
31.095200 0.241900
31.246500 0.238100
31.397700 0.239100
31.549000 0.255000
31.700300 0.257600
31.851500 0.256200
32.002800 0.263200
32.154100 0.270000
32.305300 0.286500
32.456600 0.286000
32.607800 0.273600
32.759100 0.261100
32.910400 0.251800
33.061600 0.247600
33.212900 0.249200
33.364100 0.240400
33.515400 0.232800
33.666700 0.231700
33.817900 0.221100
33.969200 0.218400
34.120400 0.213800
34.271700 0.207500
34.423000 0.204400
34.574200 0.192100
34.725500 0.182400
34.876700 0.172800
35.028000 0.167000
35.179300 0.162000
35.330500 0.157600
35.481800 0.155900
35.633100 0.170800
35.784300 0.173600
35.935600 0.160100
36.086800 0.154200
36.238100 0.144500
36.389400 0.141200
36.540600 0.137300
36.691900 0.141200
36.843100 0.158000
36.994400 0.196000
37.145700 0.221500
37.296900 0.254400
37.448200 0.283300
37.599400 0.297700
37.750700 0.306700
37.902000 0.295900
38.053200 0.303300
38.204500 0.322400
38.355700 0.308500
38.507000 0.305500
38.658300 0.290500
38.809500 0.266700
38.960800 0.250100
39.112100 0.247300
39.263300 0.235100
39.414600 0.224700
39.565800 0.215700
39.717100 0.206600
39.868400 0.201400
40.019600 0.197200
40.170900 0.198600
40.322100 0.198900
40.473400 0.205600
40.624700 0.204800
40.775900 0.202300
40.927200 0.202400
41.078400 0.204000
41.229700 0.208500
41.381000 0.211800
41.532200 0.230400
41.683500 0.267800
41.834700 0.301000
41.986000 0.302700
42.137300 0.295300
42.288500 0.281600
42.439800 0.280900
42.591100 0.281500
42.742300 0.283800
42.893600 0.280600
43.044800 0.280000
43.196100 0.281600
43.347400 0.284300
43.498600 0.281000
43.649900 0.282100
43.801100 0.288800
43.952400 0.307400
44.103700 0.331500
44.254900 0.375200
44.406200 0.541500
44.557400 1.276000
44.708700 1.884400
44.860000 1.976200
45.011200 0.588700
45.162500 0.406100
45.313700 0.331400
45.465000 0.292000
45.616300 0.267000
45.767500 0.253500
45.918800 0.246800
46.070100 0.243300
46.221300 0.241600
46.372600 0.235700
46.523800 0.252700
46.675100 0.262900
46.826400 0.267900
46.977600 0.271700
47.128900 0.275500
47.280100 0.273600
47.431400 0.273400
47.582700 0.273300
47.733900 0.275500
47.885200 0.260300
48.036400 0.252600
48.187700 0.250400
48.339000 0.245900
48.490200 0.257500
48.641500 0.266400
48.792700 0.278100
48.944000 0.284700
49.095300 0.290100
49.246500 0.294000
49.397800 0.297100
49.549100 0.293400
49.700300 0.290600
49.851600 0.281400
50.002800 0.273000
50.154100 0.264300
50.305400 0.258800
50.456600 0.255000
50.607900 0.252300
50.759100 0.264600
50.910400 0.271700
51.061700 0.281100
51.212900 0.288300
51.364200 0.289000
51.515400 0.293600
51.666700 0.293300
51.818000 0.293900
51.969200 0.291900
52.120500 0.290100
52.271700 0.289800
52.423000 0.287200
52.574300 0.283800
52.725500 0.280600
52.876800 0.282500
53.028000 0.286900
53.179300 0.290500
53.330600 0.290400
53.481800 0.292200
53.633100 0.293000
53.784400 0.295400
53.935600 0.300200
54.086900 0.298600
54.238100 0.298000
54.389400 0.301800
54.540700 0.305000
54.691900 0.308000
54.843200 0.312700
54.994400 0.313900
55.145700 0.316700
55.297000 0.319600
55.448200 0.319100
55.599500 0.326300
55.750700 0.328000
55.902000 0.319500
56.053300 0.322100
56.204500 0.329400
56.355800 0.333300
56.507000 0.335300
56.658300 0.338400
56.809600 0.331300
56.960800 0.327300
57.112100 0.318900
57.263400 0.313100
57.414600 0.305600
57.565900 0.301000
57.717100 0.290700
57.868400 0.283900
58.019700 0.277000
58.170900 0.267100
58.322200 0.259900
58.473400 0.258800
58.624700 0.263500
58.776000 0.266900
58.927200 0.265700
59.078500 0.276200
59.229700 0.297100
59.381000 0.263400
59.532300 0.255000
59.683500 0.256800
59.834800 0.267300
59.986000 0.281400
60.137300 0.293900
60.288600 0.311500
60.439800 0.314800
60.591100 0.320700
60.742400 0.322600
60.893600 0.328500
61.044900 0.344200
61.196100 0.364600
61.347400 0.340400
61.498700 0.306700
61.649900 0.299700
61.801200 0.285300
61.952400 0.272200
62.103700 0.262400
62.255000 0.252000
62.406200 0.248100
62.557500 0.255800
62.708700 0.270300
62.860000 0.276700
63.011300 0.284100
63.162500 0.284700
63.313800 0.279200
63.465000 0.270100
63.616300 0.276600
63.767600 0.320000
63.918800 0.318000
64.070100 0.316900
64.221400 0.319100
64.372600 0.334000
64.523900 0.374900
64.675100 0.363000
64.826400 0.341900
64.977700 0.331100
65.128900 0.321900
65.280200 0.310600
65.431400 0.301100
65.582700 0.289900
65.734000 0.294800
65.885200 0.320500
66.036500 0.328700
66.187700 0.333500
66.339000 0.330300
66.490300 0.327400
66.641500 0.322100
66.792800 0.327200
66.944000 0.347500
67.095300 0.369400
67.246600 0.398800
67.397800 0.425900
67.549100 0.394900
67.700400 0.385800
67.851600 0.369700
68.002900 0.359600
68.154100 0.368800
68.305400 0.356600
68.456700 0.344300
68.607900 0.337200
68.759200 0.340900
68.910400 0.337200
69.061700 0.323000
69.213000 0.309100
69.364200 0.294200
69.515500 0.296800
69.666700 0.287800
69.818000 0.277900
69.969300 0.265500
70.120500 0.283200
70.271800 0.270500
70.423000 0.262700
70.574300 0.261000
70.725600 0.264700
70.876800 0.264200
71.028100 0.271700
71.179400 0.287500
71.330600 0.306100
71.481900 0.312800
71.633100 0.312800
71.784400 0.306400
71.935700 0.299800
72.086900 0.301300
72.238200 0.307600
72.389400 0.311600
72.540700 0.318200
72.692000 0.319100
72.843200 0.324200
72.994500 0.318700
73.145700 0.318000
73.297000 0.323200
73.448300 0.321300
73.599500 0.318300
73.750800 0.324700
73.902000 0.327000
74.053300 0.331000
74.204600 0.348000
74.355800 0.349500
74.507100 0.351000
74.658400 0.358600
74.809600 0.371300
74.960900 0.401500
75.112100 0.425900
75.263400 0.409800
75.414700 0.404900
75.565900 0.400700
75.717200 0.409500
75.868400 0.393400
76.019700 0.366900
76.171000 0.344100
76.322200 0.334900
76.473500 0.327000
76.624700 0.332800
76.776000 0.320000
76.927300 0.307200
77.078500 0.301100
77.229800 0.291300
77.381000 0.260600
77.532300 0.239700
77.683600 0.250600
77.834800 0.278200
77.986100 0.314500
78.137300 0.338400
78.288600 0.357100
78.439900 0.376200
78.591100 0.379500
78.742400 0.363900
78.893700 0.352100
79.044900 0.334200
79.196200 0.312500
79.347400 0.309700
79.498700 0.317100
79.650000 0.335800
79.801200 0.368000
79.952500 0.367400
80.103700 0.362000
80.255000 0.352500
80.406300 0.334000
80.557500 0.322800
80.708800 0.323500
80.860000 0.326900
81.011300 0.329800
81.162600 0.336300
81.313800 0.342900
81.465100 0.344400
81.616300 0.344300
81.767600 0.335000
81.918900 0.330300
82.070100 0.330300
82.221400 0.331300
82.372700 0.334100
82.523900 0.334700
82.675200 0.337900
82.826400 0.339600
82.977700 0.332300
83.129000 0.333200
83.280200 0.329000
83.431500 0.325700
83.582700 0.343500
83.734000 0.371700
83.885300 0.384000
84.036500 0.369500
84.187800 0.374400
84.339000 0.397100
84.490300 0.395500
84.641600 0.410700
84.792800 0.414700
84.944100 0.408200
85.095300 0.384100
85.246600 0.359700
85.397900 0.339000
85.549100 0.329300
85.700400 0.324800
85.851700 0.326500
86.002900 0.338700
86.154200 0.346000
86.305400 0.353900
86.456700 0.362500
86.608000 0.375000
86.759200 0.390200
86.910500 0.407200
87.061700 0.394300
87.213000 0.371400
87.364300 0.355400
87.515500 0.331900
87.666800 0.330600
87.818000 0.315500
87.969300 0.321700
88.120600 0.300800
88.271800 0.310900
88.423100 0.317400
88.574300 0.319800
88.725600 0.321600
88.876900 0.335300
89.028100 0.338600
89.179400 0.323000
89.330700 0.318000
89.481900 0.307700
89.633200 0.308500
89.784400 0.317800
89.935700 0.327600
90.087000 0.334800
90.238200 0.332500
90.389500 0.345200
90.540700 0.366600
90.692000 0.376600
90.843300 0.378200
90.994500 0.372400
91.145800 0.374200
91.297000 0.374300
91.448300 0.365600
91.599600 0.387500
91.750800 0.424600
91.902100 0.450200
92.053300 0.444300
92.204600 0.421500
92.355900 0.403100
92.507100 0.380800
92.658400 0.380000
92.809700 0.374000
92.960900 0.376500
93.112200 0.373500
93.263400 0.370800
93.414700 0.369500
93.566000 0.371400
93.717200 0.371600
93.868500 0.353100
94.019700 0.334700
94.171000 0.333400
94.322300 0.319200
94.473500 0.314400
94.624800 0.312200
94.776000 0.316000
94.927300 0.328600
95.078600 0.333700
95.229800 0.336200
95.381100 0.344600
95.532300 0.340100
95.683600 0.350300
95.834900 0.354600
95.986100 0.356200
96.137400 0.362000
96.288700 0.366900
96.439900 0.385300
96.591200 0.389800
96.742400 0.390700
96.893700 0.387800
97.045000 0.392200
97.196200 0.400300
97.347500 0.399900
97.498700 0.395100
97.650000 0.394200
97.801300 0.399800
97.952500 0.398300
98.103800 0.398400
98.255000 0.383700
98.406300 0.367300
98.557600 0.354000
98.708800 0.347900
98.860100 0.338400
99.011300 0.336700
99.162600 0.332600
99.313900 0.323900
99.465100 0.327000
99.616400 0.344300
99.767700 0.331800
99.918900 0.349800
100.070200 0.363200
100.221400 0.369400
100.372700 0.365600
100.524000 0.362900
100.675200 0.363800
100.826500 0.365300
100.977700 0.369300
101.129000 0.368900
101.280300 0.366000
101.431500 0.366600
101.582800 0.352300
101.734000 0.342300
101.885300 0.330300
102.036600 0.324900
102.187800 0.332600
102.339100 0.357400
102.490300 0.336400
102.641600 0.334100
102.792900 0.340900
102.944100 0.327000
103.095400 0.317600
103.246600 0.306200
103.397900 0.299700
103.549200 0.303500
103.700400 0.311700
103.851700 0.311100
104.003000 0.305700
104.154200 0.315000
104.305500 0.326500
104.456700 0.342700
104.608000 0.371100
104.759300 0.395500
104.910500 0.429800
105.061800 0.454600
105.213000 0.428300
105.364300 0.396900
105.515600 0.402500
105.666800 0.396200
105.818100 0.415600
105.969300 0.423300
106.120600 0.408800
106.271900 0.390000
106.423100 0.399800
106.574400 0.425200
106.725600 0.419200
106.876900 0.414600
107.028200 0.414100
107.179400 0.428500
107.330700 0.431500
107.482000 0.428600
107.633200 0.429600
107.784500 0.433000
107.935700 0.408700
108.087000 0.400400
108.238300 0.413000
108.389500 0.422000
108.540800 0.422700
108.692000 0.429000
108.843300 0.433500
108.994600 0.413300
109.145800 0.403000
109.297100 0.396500
109.448300 0.390700
109.599600 0.385600
109.750900 0.409400
109.902100 0.428200
110.053400 0.431000
110.204600 0.426900
110.355900 0.425500
110.507200 0.399300
110.658400 0.413400
110.809700 0.388600
110.961000 0.387800
111.112200 0.408300
111.263500 0.418900
111.414700 0.421400
111.566000 0.423500
111.717300 0.412000
111.868500 0.402800
112.019800 0.392900
112.171000 0.376000
112.322300 0.353300
112.473600 0.334600
112.624800 0.328900
112.776100 0.339000
112.927300 0.366900
113.078600 0.352100
113.229900 0.342900
113.381100 0.330000
113.532400 0.348000
113.683600 0.361700
113.834900 0.366400
113.986200 0.386300
114.137400 0.404200
114.288700 0.414300
114.440000 0.433500
114.591200 0.446300
114.742500 0.434000
114.893700 0.468400
115.045000 0.426300
115.196300 0.392300
115.347500 0.399000
115.498800 0.394200
115.650000 0.394900
115.801300 0.396300
115.952600 0.423000
116.103800 0.479400
116.255100 0.490200
116.406300 0.488500
116.557600 0.483600
116.708900 0.478000
116.860100 0.472700
117.011400 0.454900
117.162600 0.477400
117.313900 0.481600
117.465200 0.486000
117.616400 0.529600
117.767700 0.523900
117.919000 0.525900
118.070200 0.525900
118.221500 0.488500
118.372700 0.460000
118.524000 0.446000
118.675300 0.439200
118.826500 0.423400
118.977800 0.433100
119.129000 0.455100
119.280300 0.484900
119.431600 0.484200
119.582800 0.430700
119.734100 0.393000
119.885300 0.369900
120.036600 0.356000
120.187900 0.327600
120.339100 0.324400
120.490400 0.338400
120.641600 0.339700
120.792900 0.362800
120.944200 0.371600
121.095400 0.406400
121.246700 0.412000
121.398000 0.418800
121.549200 0.415500
121.700500 0.411500
121.851700 0.405800
122.003000 0.369400
122.154300 0.345300
122.305500 0.330900
122.456800 0.319300
122.608000 0.331100
122.759300 0.344100
122.910600 0.349700
123.061800 0.354400
123.213100 0.362900
123.364300 0.376000
123.515600 0.388600
123.666900 0.391200
123.818100 0.382500
123.969400 0.406000
124.120600 0.396900
124.271900 0.394900
124.423200 0.399100
124.574400 0.402600
124.725700 0.401100
124.877000 0.403700
125.028200 0.418900
125.179500 0.408400
125.330700 0.421500
125.482000 0.446700
125.633300 0.458500
125.784500 0.459300
125.935800 0.490700
126.087000 0.468600
126.238300 0.458700
126.389600 0.445600
126.540800 0.412400
126.692100 0.391000
126.843300 0.391700
126.994600 0.399100
127.145900 0.398400
127.297100 0.397100
127.448400 0.397700
127.599600 0.435000
127.750900 0.481400
127.902200 0.531900
128.053400 0.560300
128.204700 0.550600
128.356000 0.536000
128.507200 0.504300
128.658500 0.498800
128.809700 0.499000
128.961000 0.495700
129.112300 0.473500
129.263500 0.454700
129.414800 0.449300
129.566000 0.446700
129.717300 0.435900
129.868600 0.427600
130.019800 0.420400
130.171100 0.436100
130.322300 0.437200
130.473600 0.434000
130.624900 0.424200
130.776100 0.423800
130.927400 0.428500
131.078600 0.413400
131.229900 0.415400
131.381200 0.412400
131.532400 0.418200
131.683700 0.427000
131.834900 0.426900
131.986200 0.417100
132.137500 0.417500
132.288700 0.431800
132.440000 0.434400
132.591300 0.440300
132.742500 0.434600
132.893800 0.430300
133.045000 0.429700
133.196300 0.444200
133.347600 0.406800
133.498800 0.402100
133.650100 0.397500
133.801300 0.409500
133.952600 0.421900
134.103900 0.435700
134.255100 0.434600
134.406400 0.436700
134.557600 0.438100
134.708900 0.448700
134.860200 0.449600
135.011400 0.428400
135.162700 0.444100
135.313900 0.441200
135.465200 0.417900
135.616500 0.403600
135.767700 0.393400
135.919000 0.394200
136.070300 0.382000
136.221500 0.391900
136.372800 0.394800
136.524000 0.398900
136.675300 0.413700
136.826600 0.431200
136.977800 0.428700
137.129100 0.417700
137.280300 0.423500
137.431600 0.418600
137.582900 0.420900
137.734100 0.430300
137.885400 0.437500
138.036600 0.420200
138.187900 0.423400
138.339200 0.439100
138.490400 0.432000
138.641700 0.439200
138.792900 0.435600
138.944200 0.430300
139.095500 0.424500
139.246700 0.428700
139.398000 0.429700
139.549300 0.424500
139.700500 0.416300
139.851800 0.427000
140.003000 0.447800
140.154300 0.470600
140.305600 0.458800
140.456800 0.459200
140.608100 0.461800
140.759300 0.460600
140.910600 0.468100
141.061900 0.475100
141.213100 0.481000
141.364400 0.474200
141.515600 0.500400
141.666900 0.510700
141.818200 0.507500
141.969400 0.497200
142.120700 0.484100
142.271900 0.460500
142.423200 0.441600
142.574500 0.426800
142.725700 0.422700
142.877000 0.414400
143.028300 0.407700
143.179500 0.395400
143.330800 0.373400
143.482000 0.358300
143.633300 0.352100
143.784600 0.357300
143.935800 0.366700
144.087100 0.380300
144.238300 0.393100
144.389600 0.410700
144.540900 0.422700
144.692100 0.429000
144.843400 0.437000
144.994600 0.427700
145.145900 0.426300
145.297200 0.416400
145.448400 0.412100
145.599700 0.410900
145.750900 0.414500
145.902200 0.418300
146.053500 0.435700
146.204700 0.435500
146.356000 0.435100
146.507300 0.430200
146.658500 0.433800
146.809800 0.437900
146.961000 0.422700
147.112300 0.415600
147.263600 0.404100
147.414800 0.414000
147.566100 0.417700
147.717300 0.425100
147.868600 0.428200
148.019900 0.437300
148.171100 0.459400
148.322400 0.463400
148.473600 0.457000
148.624900 0.443600
148.776200 0.434600
148.927400 0.441800
149.078700 0.419100
149.229900 0.404200
149.381200 0.407600
149.532500 0.430100
149.683700 0.445500
149.835000 0.451100
149.986300 0.464500
150.137500 0.477500
150.288800 0.474600
150.440000 0.485100
150.591300 0.481700
150.742600 0.479500
150.893800 0.474800
151.045100 0.454200
151.196300 0.438500
151.347600 0.432400
151.498900 0.426600
151.650100 0.435900
151.801400 0.462000
151.952600 0.486300
152.103900 0.523400
152.255200 0.525700
152.406400 0.514000
152.557700 0.526700
152.708900 0.507900
152.860200 0.483100
153.011500 0.461600
153.162700 0.438100
153.314000 0.429400
153.465300 0.429800
153.616500 0.437200
153.767800 0.473700
153.919000 0.500900
154.070300 0.526500
154.221600 0.536800
154.372800 0.554400
154.524100 0.552900
154.675300 0.512900
154.826600 0.464900
154.977900 0.460900
155.129100 0.450500
155.280400 0.438300
155.431600 0.431800
155.582900 0.456600
155.734200 0.482100
155.885400 0.459600
156.036700 0.452900
156.187900 0.465400
156.339200 0.504900
156.490500 0.549600
156.641700 0.591600
156.793000 0.562900
156.944200 0.562500
157.095500 0.563100
157.246800 0.539900
157.398000 0.524000
157.549300 0.504400
157.700600 0.480300
157.851800 0.482600
158.003100 0.483300
158.154300 0.481600
158.305600 0.480000
158.456900 0.496200
158.608100 0.490000
158.759400 0.469600
158.910600 0.457300
159.061900 0.467700
159.213200 0.479000
159.364400 0.498200
159.515700 0.489000
159.666900 0.500200
159.818200 0.504800
159.969500 0.474200
160.120700 0.447300
160.272000 0.453100
160.423200 0.474300
160.574500 0.477000
160.725800 0.484900
160.877000 0.472700
161.028300 0.456000
161.179600 0.454300
161.330800 0.445200
161.482100 0.435900
161.633300 0.436500
161.784600 0.438300
161.935900 0.459400
162.087100 0.469800
162.238400 0.456200
162.389600 0.477100
162.540900 0.417800
162.692200 0.390400
162.843400 0.380800
162.994700 0.375700
163.145900 0.384000
163.297200 0.407100
163.448500 0.410200
163.599700 0.432300
163.751000 0.439400
163.902200 0.468500
164.053500 0.492500
164.204800 0.494700
164.356000 0.495900
164.507300 0.457900
164.658600 0.436100
164.809800 0.409300
164.961100 0.389500
165.112300 0.390900
165.263600 0.396800
165.414900 0.411400
165.566100 0.433500
165.717400 0.460800
165.868600 0.482400
166.019900 0.486200
166.171200 0.473900
166.322400 0.483200
166.473700 0.481400
166.624900 0.468900
166.776200 0.464700
166.927500 0.452100
167.078700 0.455800
167.230000 0.484800
167.381200 0.463500
167.532500 0.440300
167.683800 0.438400
167.835000 0.449800
167.986300 0.465300
168.137600 0.482000
168.288800 0.485400
168.440100 0.495500
168.591300 0.495100
168.742600 0.451700
168.893900 0.424900
169.045100 0.420600
169.196400 0.433100
169.347600 0.434500
169.498900 0.436200
169.650200 0.433100
169.801400 0.436400
169.952700 0.430500
170.103900 0.407300
170.255200 0.413600
170.406500 0.424900
170.557700 0.446800
170.709000 0.454400
170.860200 0.454500
171.011500 0.477200
171.162800 0.490500
171.314000 0.493700
171.465300 0.498600
171.616600 0.492300
171.767800 0.497300
171.919100 0.484500
172.070300 0.488900
172.221600 0.450100
172.372900 0.432000
172.524100 0.418400
172.675400 0.421800
172.826600 0.440100
172.977900 0.467100
173.129200 0.488300
173.280400 0.505000
173.431700 0.504800
173.582900 0.515400
173.734200 0.497300
173.885500 0.486700
174.036700 0.491100
174.188000 0.498100
174.339200 0.520900
174.490500 0.537600
174.641800 0.566500
174.793000 0.559700
174.944300 0.523600
175.095600 0.523600
175.246800 0.491900
175.398100 0.452400
175.549300 0.441000
175.700600 0.421500
175.851900 0.408200
176.003100 0.411600
176.154400 0.425500
176.305600 0.460900
176.456900 0.510000
176.608200 0.529600
176.759400 0.526300
176.910700 0.513500
177.061900 0.493800
177.213200 0.473800
177.364500 0.464500
177.515700 0.453400
177.667000 0.448900
177.818200 0.441900
177.969500 0.427200
178.120800 0.427600
178.272000 0.437900
178.423300 0.452500
178.574600 0.470800
178.725800 0.474600
178.877100 0.503500
179.028300 0.528700
179.179600 0.540100
179.330900 0.531600
179.482100 0.515800
179.633400 0.496800
179.784600 0.493100
179.935900 0.477100
180.087200 0.486100
180.238400 0.501200
180.389700 0.502000
180.540900 0.485100
180.692200 0.470800
180.843500 0.457000
180.994700 0.462300
181.146000 0.461800
181.297200 0.453400
181.448500 0.462400
181.599800 0.467500
181.751000 0.475000
181.902300 0.479100
182.053500 0.480500
182.204800 0.480100
182.356100 0.493800
182.507300 0.496100
182.658600 0.500700
182.809900 0.499100
182.961100 0.487500
183.112400 0.491100
183.263600 0.505500
183.414900 0.508800
183.566200 0.499600
183.717400 0.501500
183.868700 0.496300
184.019900 0.502000
184.171200 0.490600
184.322500 0.495100
184.473700 0.497900
184.625000 0.510600
184.776200 0.513000
184.927500 0.500200
185.078800 0.496700
185.230000 0.501400
185.381300 0.508100
185.532500 0.504500
185.683800 0.509400
185.835100 0.501900
185.986300 0.522600
186.137600 0.523000
186.288900 0.504600
186.440100 0.481100
186.591400 0.467600
186.742600 0.470000
186.893900 0.494100
187.045200 0.510300
187.196400 0.517200
187.347700 0.517500
187.498900 0.510700
187.650200 0.510100
187.801500 0.484300
187.952700 0.468100
188.104000 0.464700
188.255200 0.470100
188.406500 0.498700
188.557800 0.517600
188.709000 0.520200
188.860300 0.512400
189.011500 0.527100
189.162800 0.541200
189.314100 0.555700
189.465300 0.543300
189.616600 0.514500
189.767900 0.506200
189.919100 0.498300
190.070400 0.488100
190.221600 0.477000
190.372900 0.456300
190.524200 0.441500
190.675400 0.428500
190.826700 0.435300
190.977900 0.438000
191.129200 0.438500
191.280500 0.459900
191.431700 0.476700
191.583000 0.513200
191.734200 0.539500
191.885500 0.535600
192.036800 0.526600
192.188000 0.521900
192.339300 0.510400
192.490500 0.486900
192.641800 0.491400
192.793100 0.498600
192.944300 0.518300
193.095600 0.520000
193.246900 0.524500
193.398100 0.548900
193.549400 0.566800
193.700600 0.579000
193.851900 0.603200
194.003200 0.577300
194.154400 0.564700
194.305700 0.554400
194.456900 0.540600
194.608200 0.543000
194.759500 0.556300
194.910700 0.553400
195.062000 0.527000
195.213200 0.524800
195.364500 0.537200
195.515800 0.559300
195.667000 0.567900
195.818300 0.592400
195.969500 0.600700
196.120800 0.605300
196.272100 0.595000
196.423300 0.573000
196.574600 0.565000
196.725900 0.578400
196.877100 0.567600
197.028400 0.576600
197.179600 0.592600
197.330900 0.561100
197.482200 0.538900
197.633400 0.525900
197.784700 0.519400
197.935900 0.515800
198.087200 0.505100
198.238500 0.509900
198.389700 0.508800
198.541000 0.517000
198.692200 0.517200
198.843500 0.519800
198.994800 0.522200
199.146000 0.486900
199.297300 0.467700
199.448500 0.445100
199.599800 0.367100
199.751100 0.305600
199.902300 0.272500
200.053600 0.245000
200.204900 0.228600
200.356100 0.208700
200.507400 0.193600
200.658600 0.187200
200.809900 0.183700
200.961200 0.180300
201.112400 0.179600
201.263700 0.179500
201.414900 0.177600
201.566200 0.179700
201.717500 0.175200
201.868700 0.172400
202.020000 0.159500
202.171200 0.149600
202.322500 0.157400
202.473800 0.149400
202.625000 0.134900
202.776300 0.128200
202.927500 0.126700
203.078800 0.125600
203.230100 0.121700
203.381300 0.116400
203.532600 0.110500
203.683900 0.102900
203.835100 0.096500
203.986400 0.083700
204.137600 0.080100
204.288900 0.077600
204.440200 0.074900
204.591400 0.071700
204.742700 0.070500
204.893900 0.068800
205.045200 0.067400
205.196500 0.066700
205.347700 0.068600
205.499000 0.076200
205.650200 0.072700
205.801500 0.068700
205.952800 0.066800
206.104000 0.062500
206.255300 0.058400
206.406500 0.055000
206.557800 0.052600
206.709100 0.051700
206.860300 0.050100
207.011600 0.048800
207.162900 0.046500
207.314100 0.047000
207.465400 0.040200
207.616600 0.040700
207.767900 0.033000
207.919200 0.028700
208.070400 0.026000
208.221700 0.023300
208.372900 0.021000
208.524200 0.019100
208.675500 0.018000
208.826700 0.017100
208.978000 0.016200
209.129200 0.015900
209.280500 0.015800
209.431800 0.015400
209.583000 0.014800
209.734300 0.014100
209.885500 0.013700
210.036800 0.013100
210.188100 0.012400
210.339300 0.011300
210.490600 0.010300
210.641800 0.009700
210.793100 0.009200
210.944400 0.008800
211.095600 0.008600
211.246900 0.008500
211.398200 0.008800
211.549400 0.008900
211.700700 0.008900
211.851900 0.009300
212.003200 0.006700
212.154500 0.006600
212.305700 0.006600
212.457000 0.006900
212.608200 0.008500
212.759500 0.007800
212.910800 0.007300
213.062000 0.006700
213.213300 0.006200
213.364500 0.006100
213.515800 0.005700
213.667100 0.005200
213.818300 0.005000
213.969600 0.004400
214.120800 0.004100
214.272100 0.004100
214.423400 0.004100
214.574600 0.004000
214.725900 0.003700
214.877200 0.003300
215.028400 0.002900
215.179700 0.002400
215.330900 0.002100
215.482200 0.002000
215.633500 0.001800
215.784700 0.001600
215.936000 0.001400
216.087200 0.001200
216.238500 0.000900
216.389800 0.000800
216.541000 0.000700
216.692300 0.000700
216.843500 0.000600
216.994800 0.000600
217.146100 0.000600
217.297300 0.000500
217.448600 0.000500
217.599800 0.000500
217.751100 0.000400
217.902400 0.000500
218.053600 0.000400
218.204900 0.000400
218.356200 0.000300
218.507400 0.000300
218.658700 0.000200
218.809900 0.000200
218.961200 0.000100
219.112500 0.000000
219.263700 0.000000
219.415000 0.000000
219.566200 0.000000
219.717500 0.000000
219.868800 0.000000
220.020000 0.000000
220.171300 0.000000
220.322500 0.000000
220.473800 0.000000
220.625100 0.000000
220.776300 0.000000
220.927600 0.000000
221.078800 0.000000
221.230100 0.000000
221.381400 0.000000
221.532600 0.000000
221.683900 0.000000
221.835200 0.000000
221.986400 0.000000
222.137700 0.000000
222.288900 0.000000
222.440200 0.000000
222.591500 0.000000
222.742700 0.000000
222.894000 0.000000
223.045200 0.000000
223.196500 0.000000
223.347800 0.000000
223.499000 0.000000
223.650300 0.000000
223.801500 0.000000
223.952800 0.000000
224.104100 0.000000
224.255300 0.000000
224.406600 0.000000
224.557800 0.000000
224.709100 0.000000
224.860400 0.000000
225.011600 0.000000
225.162900 0.000000
225.314200 0.000000
225.465400 0.000000
225.616700 0.000000
225.767900 0.000000
225.919200 0.000000
226.070500 0.000000
226.221700 0.000000
226.373000 0.000000
226.524200 0.000000
226.675500 0.000000
226.826800 0.000000
226.978000 0.000000
227.129300 0.000000
227.280500 0.000000
227.431800 0.000000
227.583100 0.000000
227.734300 0.000000
227.885600 0.000000
228.036800 0.000000
228.188100 0.000000
228.339400 0.000000
228.490600 0.000000
228.641900 0.000000
228.793200 0.000000
228.944400 0.000000
229.095700 0.000000
229.246900 0.000000
229.398200 0.000000
229.549500 0.000000
229.700700 0.000000
229.852000 0.000000
230.003200 0.000000
230.154500 0.000000
230.305800 0.000000
230.457000 0.000000
230.608300 0.000000
230.759500 0.000000
230.910800 0.000000
231.062100 0.000000
231.213300 0.000000
231.364600 0.000000
231.515800 0.000000
231.667100 0.000000
231.818400 0.000000
231.969600 0.000000
232.120900 0.000000
232.272200 0.000000
232.423400 0.000000
232.574700 0.000000
232.725900 0.000000
e
