set title 'mp-1057139 - Density of States'
set xlabel 'Energy (eV)'
set ylabel 'DOS (states/eV)'
set grid
set xrange [-10:10]
set yrange [0:4.021]
set xzeroaxis lt -1
set terminal png size 800,600
set output 'mp-1057139_dos_gnuplot.png'
plot '-' using 1:2 with lines title 'DOS'
-50.830200 0.000000
-50.744700 0.000000
-50.659300 0.000000
-50.573800 0.000000
-50.488400 0.000000
-50.403000 0.000000
-50.317500 0.000000
-50.232100 0.000000
-50.146600 0.000000
-50.061200 0.000000
-49.975800 0.000000
-49.890300 0.000000
-49.804900 0.000000
-49.719400 0.000000
-49.634000 0.000000
-49.548600 0.000000
-49.463100 0.000000
-49.377700 0.000000
-49.292200 0.000000
-49.206800 0.000000
-49.121400 0.000000
-49.035900 0.000000
-48.950500 0.000000
-48.865000 0.000000
-48.779600 0.000000
-48.694100 0.000000
-48.608700 0.000000
-48.523300 0.000000
-48.437800 0.000000
-48.352400 0.000000
-48.266900 0.000000
-48.181500 0.000000
-48.096100 0.000000
-48.010600 0.000000
-47.925200 0.000000
-47.839700 0.000000
-47.754300 0.000000
-47.668900 0.000000
-47.583400 0.000000
-47.498000 0.000000
-47.412500 0.000000
-47.327100 0.000000
-47.241700 0.000000
-47.156200 0.000000
-47.070800 0.000000
-46.985300 0.000000
-46.899900 0.000000
-46.814400 0.000000
-46.729000 0.000000
-46.643600 0.000000
-46.558100 0.000000
-46.472700 0.000000
-46.387200 0.000000
-46.301800 0.000000
-46.216400 0.000000
-46.130900 0.000000
-46.045500 0.000000
-45.960000 0.000000
-45.874600 0.000000
-45.789200 0.000000
-45.703700 0.000000
-45.618300 0.000000
-45.532800 0.000000
-45.447400 0.000000
-45.362000 0.000000
-45.276500 0.000000
-45.191100 0.000000
-45.105600 0.000000
-45.020200 0.000000
-44.934700 0.000000
-44.849300 0.000000
-44.763900 0.000000
-44.678400 0.000000
-44.593000 0.000000
-44.507500 0.000000
-44.422100 0.000000
-44.336700 0.000000
-44.251200 0.000000
-44.165800 0.000000
-44.080300 0.000000
-43.994900 0.000000
-43.909500 0.000000
-43.824000 0.000000
-43.738600 0.000000
-43.653100 0.000000
-43.567700 0.000000
-43.482300 0.000000
-43.396800 0.000000
-43.311400 0.000000
-43.225900 0.000000
-43.140500 0.000000
-43.055100 0.643800
-42.969600 4.029100
-42.884200 7.115400
-42.798700 5.243800
-42.713300 5.931200
-42.627800 5.360100
-42.542400 5.624300
-42.457000 4.824200
-42.371500 6.915000
-42.286100 6.146900
-42.200600 12.580000
-42.115200 0.000000
-42.029800 0.000000
-41.944300 0.000000
-41.858900 0.000000
-41.773400 0.000000
-41.688000 0.000000
-41.602600 0.000000
-41.517100 0.000000
-41.431700 0.000000
-41.346200 0.000000
-41.260800 0.000000
-41.175400 0.000000
-41.089900 0.000000
-41.004500 0.000000
-40.919000 0.000000
-40.833600 0.000000
-40.748100 0.000000
-40.662700 0.000000
-40.577300 0.000000
-40.491800 0.000000
-40.406400 0.000000
-40.320900 0.000000
-40.235500 0.000000
-40.150100 0.000000
-40.064600 0.000000
-39.979200 0.000000
-39.893700 0.000000
-39.808300 0.000000
-39.722900 0.000000
-39.637400 0.000000
-39.552000 0.000000
-39.466500 0.000000
-39.381100 0.000000
-39.295700 0.000000
-39.210200 0.000000
-39.124800 0.000000
-39.039300 0.000000
-38.953900 0.000000
-38.868400 0.000000
-38.783000 0.000000
-38.697600 0.000000
-38.612100 0.000000
-38.526700 0.000000
-38.441200 0.000000
-38.355800 0.000000
-38.270400 0.000000
-38.184900 0.000000
-38.099500 0.000000
-38.014000 0.000000
-37.928600 0.000000
-37.843200 0.000000
-37.757700 0.000000
-37.672300 0.000000
-37.586800 0.000000
-37.501400 0.000000
-37.416000 0.000000
-37.330500 0.000000
-37.245100 0.000000
-37.159600 0.000000
-37.074200 0.000000
-36.988700 0.000000
-36.903300 0.000000
-36.817900 0.000000
-36.732400 0.000000
-36.647000 0.000000
-36.561500 0.000000
-36.476100 0.000000
-36.390700 0.000000
-36.305200 0.000000
-36.219800 0.000000
-36.134300 0.000000
-36.048900 0.000000
-35.963500 0.000000
-35.878000 0.000000
-35.792600 0.000000
-35.707100 0.000000
-35.621700 0.000000
-35.536300 0.000000
-35.450800 0.000000
-35.365400 0.000000
-35.279900 0.000000
-35.194500 0.000000
-35.109000 0.000000
-35.023600 0.000000
-34.938200 0.000000
-34.852700 0.000000
-34.767300 0.000000
-34.681800 0.000000
-34.596400 0.000000
-34.511000 0.000000
-34.425500 0.000000
-34.340100 0.000000
-34.254600 0.000000
-34.169200 0.000000
-34.083800 0.000000
-33.998300 0.000000
-33.912900 0.000000
-33.827400 0.000000
-33.742000 0.000000
-33.656600 0.000000
-33.571100 0.000000
-33.485700 0.000000
-33.400200 0.000000
-33.314800 0.000000
-33.229300 0.000000
-33.143900 0.000000
-33.058500 0.000000
-32.973000 0.000000
-32.887600 0.000000
-32.802100 0.000000
-32.716700 0.000000
-32.631300 0.000000
-32.545800 0.000000
-32.460400 0.000000
-32.374900 0.000000
-32.289500 0.000000
-32.204100 0.000000
-32.118600 0.000000
-32.033200 0.000000
-31.947700 0.000000
-31.862300 0.000000
-31.776900 0.000000
-31.691400 0.000000
-31.606000 0.000000
-31.520500 0.000000
-31.435100 0.000000
-31.349600 0.000000
-31.264200 0.000000
-31.178800 0.000000
-31.093300 0.000000
-31.007900 0.000000
-30.922400 0.000000
-30.837000 0.000000
-30.751600 0.000000
-30.666100 0.000000
-30.580700 0.000000
-30.495200 0.000000
-30.409800 0.000000
-30.324400 0.000000
-30.238900 0.000000
-30.153500 0.000000
-30.068000 0.000000
-29.982600 0.000000
-29.897200 0.000000
-29.811700 0.000000
-29.726300 0.000000
-29.640800 0.000000
-29.555400 0.000000
-29.469900 0.000000
-29.384500 0.000000
-29.299100 0.000000
-29.213600 0.000000
-29.128200 0.000000
-29.042700 0.000000
-28.957300 0.000000
-28.871900 0.000000
-28.786400 0.000000
-28.701000 0.000000
-28.615500 0.000000
-28.530100 0.000000
-28.444700 0.000000
-28.359200 0.000000
-28.273800 0.000000
-28.188300 0.000000
-28.102900 0.000000
-28.017500 0.000000
-27.932000 0.000000
-27.846600 0.000000
-27.761100 0.000000
-27.675700 0.000000
-27.590200 0.000000
-27.504800 0.000000
-27.419400 0.000000
-27.333900 0.000000
-27.248500 0.000000
-27.163000 0.000000
-27.077600 0.000000
-26.992200 0.000000
-26.906700 0.000000
-26.821300 0.000000
-26.735800 0.000000
-26.650400 0.000000
-26.565000 0.000000
-26.479500 0.000000
-26.394100 0.000000
-26.308600 0.000000
-26.223200 0.000000
-26.137800 0.000000
-26.052300 0.000000
-25.966900 0.000000
-25.881400 0.000000
-25.796000 0.000000
-25.710500 0.000000
-25.625100 0.000000
-25.539700 0.000000
-25.454200 0.000000
-25.368800 0.000000
-25.283300 0.000000
-25.197900 0.000000
-25.112500 0.000000
-25.027000 0.000000
-24.941600 0.000000
-24.856100 0.000000
-24.770700 0.000000
-24.685300 0.000000
-24.599800 0.000000
-24.514400 0.000000
-24.428900 0.000000
-24.343500 0.000000
-24.258100 0.000000
-24.172600 0.000000
-24.087200 0.000000
-24.001700 0.000000
-23.916300 0.000000
-23.830800 0.000000
-23.745400 0.000000
-23.660000 0.000000
-23.574500 0.000000
-23.489100 0.000000
-23.403600 0.000000
-23.318200 0.000000
-23.232800 0.000000
-23.147300 0.000000
-23.061900 0.000000
-22.976400 0.000000
-22.891000 0.000000
-22.805600 0.000000
-22.720100 0.000000
-22.634700 0.000000
-22.549200 0.000000
-22.463800 0.000000
-22.378400 0.000000
-22.292900 0.000000
-22.207500 0.000000
-22.122000 0.000000
-22.036600 0.000000
-21.951100 0.000000
-21.865700 0.000000
-21.780300 0.000000
-21.694800 0.000000
-21.609400 0.000000
-21.523900 0.000000
-21.438500 0.000000
-21.353100 0.000000
-21.267600 0.000000
-21.182200 0.000000
-21.096700 0.000000
-21.011300 0.000000
-20.925900 0.000000
-20.840400 0.000000
-20.755000 0.000000
-20.669500 0.000000
-20.584100 0.000000
-20.498700 0.000000
-20.413200 0.000000
-20.327800 0.000000
-20.242300 0.000000
-20.156900 0.000000
-20.071500 0.000000
-19.986000 0.000000
-19.900600 0.000000
-19.815100 0.000000
-19.729700 0.000000
-19.644200 0.000000
-19.558800 0.000000
-19.473400 0.000000
-19.387900 0.000000
-19.302500 0.000000
-19.217000 0.000000
-19.131600 0.000000
-19.046200 0.000000
-18.960700 0.000000
-18.875300 0.000000
-18.789800 0.000000
-18.704400 0.000000
-18.619000 0.000000
-18.533500 0.000000
-18.448100 0.000000
-18.362600 0.000000
-18.277200 0.000000
-18.191800 0.000000
-18.106300 0.000000
-18.020900 0.000000
-17.935400 0.000000
-17.850000 0.000000
-17.764500 0.000000
-17.679100 0.000000
-17.593700 0.000000
-17.508200 0.000000
-17.422800 0.000000
-17.337300 0.000000
-17.251900 0.000000
-17.166500 0.000000
-17.081000 0.000000
-16.995600 0.000000
-16.910100 0.000000
-16.824700 0.000000
-16.739300 0.000000
-16.653800 0.000000
-16.568400 0.000000
-16.482900 0.000000
-16.397500 0.000000
-16.312100 0.000000
-16.226600 0.000000
-16.141200 0.000000
-16.055700 0.000000
-15.970300 0.000000
-15.884800 0.000000
-15.799400 0.000000
-15.714000 0.000000
-15.628500 0.000000
-15.543100 0.000000
-15.457600 0.000000
-15.372200 0.000000
-15.286800 0.000000
-15.201300 0.000000
-15.115900 0.000000
-15.030400 0.000000
-14.945000 0.000000
-14.859600 0.000000
-14.774100 0.000000
-14.688700 0.000000
-14.603200 0.000000
-14.517800 0.000000
-14.432400 0.000000
-14.346900 0.000000
-14.261500 0.000000
-14.176000 0.000000
-14.090600 0.000000
-14.005100 0.000000
-13.919700 0.000000
-13.834300 0.000000
-13.748800 0.000000
-13.663400 0.000000
-13.577900 0.000000
-13.492500 0.000000
-13.407100 0.000000
-13.321600 0.000000
-13.236200 0.000000
-13.150700 0.000000
-13.065300 0.000000
-12.979900 0.000000
-12.894400 0.000000
-12.809000 0.000000
-12.723500 0.000000
-12.638100 0.000000
-12.552700 0.000000
-12.467200 0.000000
-12.381800 0.000000
-12.296300 0.000000
-12.210900 0.000000
-12.125400 0.000000
-12.040000 0.000000
-11.954600 0.000000
-11.869100 0.000000
-11.783700 0.000000
-11.698200 0.000000
-11.612800 0.000000
-11.527400 0.000000
-11.441900 0.000000
-11.356500 0.000000
-11.271000 0.000000
-11.185600 0.000000
-11.100200 0.000000
-11.014700 0.000000
-10.929300 0.000000
-10.843800 0.000000
-10.758400 0.000000
-10.673000 0.000000
-10.587500 0.000000
-10.502100 0.000000
-10.416600 0.000000
-10.331200 0.000000
-10.245700 0.000000
-10.160300 0.000000
-10.074900 0.000000
-9.989400 0.000000
-9.904000 0.000000
-9.818500 0.000000
-9.733100 0.000000
-9.647700 0.000000
-9.562200 0.000000
-9.476800 0.000000
-9.391300 0.000000
-9.305900 0.000000
-9.220500 0.000000
-9.135000 0.000000
-9.049600 0.000000
-8.964100 0.000000
-8.878700 0.000000
-8.793300 0.000000
-8.707800 0.000000
-8.622400 0.000000
-8.536900 0.000000
-8.451500 0.000000
-8.366000 0.000000
-8.280600 0.000000
-8.195200 0.000000
-8.109700 0.000000
-8.024300 0.000000
-7.938800 0.000000
-7.853400 0.000000
-7.768000 0.000000
-7.682500 0.000000
-7.597100 0.000000
-7.511600 0.000000
-7.426200 0.000000
-7.340800 0.000000
-7.255300 0.000000
-7.169900 0.000000
-7.084400 0.000000
-6.999000 0.000000
-6.913600 0.000000
-6.828100 0.000000
-6.742700 0.000000
-6.657200 0.000000
-6.571800 0.000000
-6.486300 0.000000
-6.400900 0.000000
-6.315500 0.000000
-6.230000 0.000000
-6.144600 0.000000
-6.059100 0.000000
-5.973700 0.000000
-5.888300 0.000000
-5.802800 0.000000
-5.717400 0.000000
-5.631900 0.000000
-5.546500 0.000000
-5.461100 0.000000
-5.375600 0.000000
-5.290200 0.000000
-5.204700 0.000000
-5.119300 0.000000
-5.033900 0.000000
-4.948400 0.000000
-4.863000 0.000000
-4.777500 0.000000
-4.692100 0.000000
-4.606600 0.000000
-4.521200 0.000000
-4.435800 0.000000
-4.350300 0.000000
-4.264900 0.000000
-4.179400 0.000000
-4.094000 0.000000
-4.008600 0.000000
-3.923100 0.000000
-3.837700 0.000000
-3.752200 0.000000
-3.666800 0.000000
-3.581400 0.000000
-3.495900 0.000000
-3.410500 0.000000
-3.325000 0.000000
-3.239600 0.000000
-3.154200 0.000000
-3.068700 0.000000
-2.983300 0.000000
-2.897800 0.000000
-2.812400 0.000000
-2.726900 0.000000
-2.641500 0.000000
-2.556100 0.000000
-2.470600 0.000000
-2.385200 0.000000
-2.299700 0.000000
-2.214300 0.000000
-2.128900 0.014000
-2.043400 0.023800
-1.958000 0.031100
-1.872500 0.037700
-1.787100 0.043700
-1.701700 0.049400
-1.616200 0.052900
-1.530800 0.057300
-1.445300 0.062700
-1.359900 0.067800
-1.274500 0.071400
-1.189000 0.075200
-1.103600 0.079300
-1.018100 0.083800
-0.932700 0.088700
-0.847200 0.093000
-0.761800 0.097400
-0.676400 0.101800
-0.590900 0.106400
-0.505500 0.111200
-0.420000 0.116400
-0.334600 0.121700
-0.249200 0.127100
-0.163700 0.132900
-0.078300 0.138800
0.007200 0.145300
0.092600 0.152100
0.178000 0.159400
0.263500 0.167200
0.348900 0.176200
0.434400 0.185700
0.519800 0.195800
0.605200 0.206400
0.690700 0.219400
0.776100 0.235500
0.861600 0.255400
0.947000 0.280500
1.032500 0.345900
1.117900 0.400700
1.203300 0.458600
1.288800 0.529200
1.374200 0.658800
1.459700 0.931200
1.545100 1.361400
1.630500 2.101400
1.716000 2.895500
1.801400 2.508600
1.886900 1.648700
1.972300 1.141400
2.057700 0.882700
2.143200 0.714400
2.228600 0.635300
2.314100 0.570400
2.399500 0.570900
2.484900 0.652800
2.570400 1.195300
2.655800 1.941300
2.741300 1.736000
2.826700 2.312600
2.912100 2.016200
2.997600 2.085800
3.083000 1.821800
3.168500 2.435600
3.253900 3.267000
3.339400 2.911400
3.424800 1.787500
3.510200 1.262900
3.595700 1.210700
3.681100 1.379400
3.766600 1.413300
3.852000 1.217000
3.937400 1.139100
4.022900 1.248500
4.108300 1.287900
4.193800 1.296900
4.279200 1.423500
4.364600 1.558900
4.450100 1.431100
4.535500 1.461500
4.621000 1.473200
4.706400 1.543600
4.791800 1.257300
4.877300 1.498500
4.962700 1.693000
5.048200 1.625600
5.133600 1.973400
5.219100 1.844200
5.304500 1.437500
5.389900 2.052500
5.475400 3.033700
5.560800 2.699300
5.646300 3.655800
5.731700 2.010700
5.817100 1.649100
5.902600 1.853000
5.988000 2.208800
6.073500 1.932700
6.158900 1.705300
6.244300 1.608100
6.329800 1.433500
6.415200 1.726200
6.500700 2.127200
6.586100 1.948100
6.671500 1.784600
6.757000 1.736000
6.842400 1.502900
6.927900 1.393600
7.013300 1.369400
7.098800 1.304100
7.184200 1.232300
7.269600 1.130800
7.355100 0.761700
7.440500 0.756800
7.526000 0.811000
7.611400 0.705000
7.696800 0.662300
7.782300 0.491500
7.867700 0.426300
7.953200 0.370500
8.038600 0.364700
8.124000 0.377100
8.209500 0.395700
8.294900 0.365900
8.380400 0.338700
8.465800 0.324800
8.551200 0.313700
8.636700 0.299700
8.722100 0.280700
8.807600 0.263300
8.893000 0.246400
8.978500 0.230400
9.063900 0.221300
9.149300 0.212900
9.234800 0.205100
9.320200 0.198400
9.405700 0.191900
9.491100 0.186500
9.576500 0.181000
9.662000 0.173000
9.747400 0.170000
9.832900 0.168100
9.918300 0.166000
10.003700 0.163500
10.089200 0.161400
10.174600 0.159600
10.260100 0.158500
10.345500 0.157600
10.430900 0.160600
10.516400 0.158200
10.601800 0.155900
10.687300 0.153800
10.772700 0.153500
10.858200 0.153800
10.943600 0.155000
11.029000 0.153800
11.114500 0.154500
11.199900 0.155700
11.285400 0.157800
11.370800 0.161200
11.456200 0.166000
11.541700 0.173700
11.627100 0.185700
11.712600 0.212500
11.798000 0.254200
11.883400 0.235100
11.968900 0.201800
12.054300 0.182200
12.139800 0.168900
12.225200 0.154900
12.310600 0.146600
12.396100 0.142600
12.481500 0.146700
12.567000 0.185500
12.652400 0.267500
12.737900 0.294800
12.823300 0.329800
12.908700 0.386200
12.994200 0.429700
13.079600 0.432900
13.165100 0.435700
13.250500 0.430900
13.335900 0.439800
13.421400 0.435700
13.506800 0.437100
13.592300 0.423500
13.677700 0.418500
13.763100 0.411700
13.848600 0.407400
13.934000 0.410500
14.019500 0.415000
14.104900 0.414800
14.190300 0.418200
14.275800 0.420900
14.361200 0.423100
14.446700 0.425500
14.532100 0.429500
14.617600 0.433700
14.703000 0.450300
14.788400 0.470900
14.873900 0.497400
14.959300 0.483200
15.044800 0.468500
15.130200 0.454800
15.215600 0.446300
15.301100 0.438400
15.386500 0.414900
15.472000 0.396000
15.557400 0.380500
15.642800 0.368500
15.728300 0.355700
15.813700 0.342800
15.899200 0.334700
15.984600 0.327800
16.070000 0.320200
16.155500 0.315200
16.240900 0.310800
16.326400 0.304600
16.411800 0.297700
16.497300 0.291100
16.582700 0.284900
16.668100 0.279500
16.753600 0.275700
16.839000 0.277800
16.924500 0.270200
17.009900 0.257700
17.095300 0.242400
17.180800 0.232000
17.266200 0.227200
17.351700 0.213400
17.437100 0.209600
17.522500 0.206600
17.608000 0.203600
17.693400 0.200700
17.778900 0.197800
17.864300 0.195400
17.949700 0.192500
18.035200 0.190500
18.120600 0.188800
18.206100 0.187800
18.291500 0.187300
18.377000 0.186600
18.462400 0.186500
18.547800 0.187200
18.633300 0.185800
18.718700 0.185900
18.804200 0.186900
18.889600 0.188300
18.975000 0.189700
19.060500 0.194600
19.145900 0.199800
19.231400 0.223700
19.316800 0.262200
19.402200 0.279100
19.487700 0.280400
19.573100 0.289500
19.658600 0.292300
19.744000 0.307100
19.829400 0.351100
19.914900 0.406400
20.000300 0.435400
20.085800 0.465000
20.171200 0.465500
20.256700 0.456500
20.342100 0.459500
20.427500 0.466600
20.513000 0.454300
20.598400 0.441200
20.683900 0.451900
20.769300 0.454800
20.854700 0.449500
20.940200 0.445000
21.025600 0.437100
21.111100 0.443300
21.196500 0.448000
21.281900 0.442000
21.367400 0.427600
21.452800 0.410000
21.538300 0.407900
21.623700 0.410600
21.709100 0.422900
21.794600 0.448700
21.880000 0.455600
21.965500 0.447900
22.050900 0.440700
22.136400 0.440200
22.221800 0.454500
22.307200 0.472800
22.392700 0.484600
22.478100 0.499500
22.563600 0.518300
22.649000 0.539700
22.734400 0.554900
22.819900 0.537500
22.905300 0.519500
22.990800 0.522800
23.076200 0.505600
23.161600 0.491400
23.247100 0.476700
23.332500 0.464600
23.418000 0.459000
23.503400 0.450300
23.588800 0.446200
23.674300 0.455300
23.759700 0.469400
23.845200 0.468900
23.930600 0.464900
24.016100 0.462200
24.101500 0.463700
24.186900 0.464800
24.272400 0.465700
24.357800 0.475700
24.443300 0.471200
24.528700 0.462600
24.614100 0.459000
24.699600 0.458200
24.785000 0.465000
24.870500 0.462300
24.955900 0.462200
25.041300 0.458500
25.126800 0.461800
25.212200 0.471400
25.297700 0.470700
25.383100 0.466200
25.468500 0.465700
25.554000 0.455300
25.639400 0.452600
25.724900 0.453000
25.810300 0.448500
25.895700 0.439400
25.981200 0.427500
26.066600 0.416600
26.152100 0.407500
26.237500 0.400700
26.323000 0.396300
26.408400 0.403200
26.493800 0.439600
26.579300 0.450000
26.664700 0.465600
26.750200 0.472500
26.835600 0.474500
26.921000 0.482700
27.006500 0.497900
27.091900 0.513800
27.177400 0.522800
27.262800 0.509800
27.348200 0.513000
27.433700 0.502300
27.519100 0.498100
27.604600 0.680300
27.690000 0.491600
27.775400 0.486700
27.860900 0.476000
27.946300 0.477800
28.031800 0.475900
28.117200 0.476000
28.202700 0.470000
28.288100 0.453500
28.373500 0.441400
28.459000 0.441400
28.544400 0.440000
28.629900 0.443100
28.715300 0.447800
28.800700 0.452000
28.886200 0.460400
28.971600 0.477700
29.057100 0.493100
29.142500 0.493400
29.227900 0.488100
29.313400 0.476400
29.398800 0.463800
29.484300 0.453800
29.569700 0.444400
29.655100 0.441500
29.740600 0.451200
29.826000 0.469800
29.911500 0.467400
29.996900 0.467500
30.082400 0.472600
30.167800 0.485400
30.253200 0.487900
30.338700 0.491300
30.424100 0.505800
30.509600 0.510100
30.595000 0.510400
30.680400 0.506000
30.765900 0.500600
30.851300 0.502000
30.936800 0.505900
31.022200 0.512200
31.107600 0.526800
31.193100 0.537500
31.278500 0.550900
31.364000 0.573500
31.449400 0.599200
31.534800 0.593500
31.620300 0.582200
31.705700 0.575300
31.791200 0.553300
31.876600 0.537800
31.962100 0.526800
32.047500 0.515800
32.132900 0.508200
32.218400 0.506700
32.303800 0.503000
32.389300 0.505000
32.474700 0.510300
32.560100 0.524100
32.645600 0.527000
32.731000 0.525900
32.816500 0.528500
32.901900 0.541500
32.987300 0.548800
33.072800 0.520300
33.158200 0.490300
33.243700 0.472300
33.329100 0.465700
33.414500 0.459200
33.500000 0.450100
33.585400 0.461900
33.670900 0.470000
33.756300 0.492700
33.841800 0.520800
33.927200 0.580600
34.012600 0.589400
34.098100 0.579700
34.183500 0.581700
34.269000 0.575100
34.354400 0.575100
34.439800 0.523400
34.525300 0.482100
34.610700 0.468500
34.696200 0.453700
34.781600 0.442000
34.867000 0.438700
34.952500 0.448800
35.037900 0.461200
35.123400 0.452800
35.208800 0.476800
35.294200 0.488800
35.379700 0.463000
35.465100 0.476100
35.550600 0.498900
35.636000 0.528200
35.721500 0.546400
35.806900 0.555000
35.892300 0.569400
35.977800 0.547600
36.063200 0.513400
36.148700 0.518900
36.234100 0.524300
36.319500 0.533000
36.405000 0.548500
36.490400 0.565200
36.575900 0.591500
36.661300 0.606600
36.746700 0.584400
36.832200 0.595300
36.917600 0.614100
37.003100 0.668000
37.088500 0.701300
37.173900 0.701700
37.259400 0.655700
37.344800 0.598100
37.430300 0.556400
37.515700 0.509800
37.601200 0.465700
37.686600 0.434200
37.772000 0.414100
37.857500 0.400000
37.942900 0.381800
38.028400 0.389000
38.113800 0.406200
38.199200 0.420400
38.284700 0.458000
38.370100 0.445100
38.455600 0.455000
38.541000 0.465200
38.626400 0.474700
38.711900 0.487500
38.797300 0.503500
38.882800 0.521000
38.968200 0.539400
39.053600 0.534300
39.139100 0.532800
39.224500 0.550600
39.310000 0.561400
39.395400 0.568800
39.480900 0.570000
39.566300 0.579000
39.651700 0.625000
39.737200 0.665300
39.822600 0.696200
39.908100 0.736700
39.993500 0.725900
40.078900 0.745000
40.164400 0.737600
40.249800 0.737500
40.335300 0.737700
40.420700 0.704300
40.506100 0.677300
40.591600 0.644200
40.677000 0.626500
40.762500 0.636600
40.847900 0.638900
40.933300 0.657000
41.018800 0.661000
41.104200 0.659000
41.189700 0.660600
41.275100 0.654400
41.360600 0.637100
41.446000 0.617100
41.531400 0.602700
41.616900 0.596600
41.702300 0.584200
41.787800 0.572200
41.873200 0.588200
41.958600 0.556600
42.044100 0.521500
42.129500 0.503400
42.215000 0.505000
42.300400 0.489700
42.385800 0.483500
42.471300 0.488500
42.556700 0.490800
42.642200 0.486900
42.727600 0.475300
42.813000 0.458800
42.898500 0.447300
42.983900 0.441500
43.069400 0.445400
43.154800 0.454200
43.240300 0.473700
43.325700 0.480800
43.411100 0.488300
43.496600 0.495400
43.582000 0.511100
43.667500 0.532600
43.752900 0.521800
43.838300 0.519100
43.923800 0.510900
44.009200 0.516100
44.094700 0.515000
44.180100 0.515600
44.265500 0.501100
44.351000 0.503000
44.436400 0.506700
44.521900 0.491300
44.607300 0.488600
44.692700 0.515200
44.778200 0.520200
44.863600 0.528400
44.949100 0.542500
45.034500 0.567800
45.120000 0.586000
45.205400 0.607800
45.290800 0.627400
45.376300 0.651000
45.461700 0.675100
45.547200 0.709200
45.632600 0.722800
45.718000 0.733300
45.803500 0.708700
45.888900 0.692300
45.974400 0.669300
46.059800 0.650000
46.145200 0.634000
46.230700 0.639000
46.316100 0.631600
46.401600 0.632900
46.487000 0.640600
46.572400 0.633100
46.657900 0.616600
46.743300 0.612400
46.828800 0.609200
46.914200 0.610300
46.999700 0.611300
47.085100 0.612400
47.170500 0.614200
47.256000 0.619200
47.341400 0.630900
47.426900 0.648000
47.512300 0.657500
47.597700 0.657300
47.683200 0.658300
47.768600 0.644700
47.854100 0.652000
47.939500 0.650900
48.024900 0.650600
48.110400 0.650700
48.195800 0.653600
48.281300 0.658100
48.366700 0.667800
48.452100 0.684400
48.537600 0.664200
48.623000 0.660000
48.708500 0.635800
48.793900 0.624400
48.879300 0.612300
48.964800 0.620300
49.050200 0.650800
49.135700 0.606800
49.221100 0.596100
49.306600 0.596700
49.392000 0.599300
49.477400 0.615800
49.562900 0.611700
49.648300 0.616400
49.733800 0.613700
49.819200 0.603900
49.904600 0.593700
49.990100 0.577300
50.075500 0.565600
50.161000 0.565400
50.246400 0.567400
50.331800 0.571700
50.417300 0.571800
50.502700 0.587300
50.588200 0.595000
50.673600 0.607300
50.759000 0.600000
50.844500 0.602900
50.929900 0.609100
51.015400 0.611900
51.100800 0.607000
51.186300 0.596600
51.271700 0.598100
51.357100 0.607000
51.442600 0.611900
51.528000 0.610400
51.613500 0.620200
51.698900 0.649900
51.784300 0.646100
51.869800 0.632300
51.955200 0.613800
52.040700 0.613900
52.126100 0.620300
52.211500 0.627100
52.297000 0.633000
52.382400 0.636000
52.467900 0.637100
52.553300 0.641300
52.638700 0.645700
52.724200 0.653700
52.809600 0.647700
52.895100 0.653500
52.980500 0.647600
53.066000 0.627900
53.151400 0.637900
53.236800 0.646500
53.322300 0.642500
53.407700 0.641300
53.493200 0.644500
53.578600 0.654000
53.664000 0.661600
53.749500 0.666000
53.834900 0.666100
53.920400 0.670400
54.005800 0.691500
54.091200 0.710200
54.176700 0.719600
54.262100 0.732800
54.347600 0.745000
54.433000 0.741000
54.518400 0.730500
54.603900 0.722600
54.689300 0.679300
54.774800 0.643700
54.860200 0.630800
54.945700 0.642200
55.031100 0.695800
55.116500 0.796700
55.202000 0.796600
55.287400 0.805700
55.372900 0.794900
55.458300 0.781500
55.543700 0.792800
55.629200 0.789000
55.714600 0.778600
55.800100 0.764600
55.885500 0.740300
55.970900 0.727900
56.056400 0.777200
56.141800 0.768800
56.227300 0.755300
56.312700 0.760000
56.398100 0.800500
56.483600 0.863600
56.569000 0.875900
56.654500 0.886700
56.739900 0.865700
56.825400 0.838500
56.910800 0.795000
56.996200 0.760100
57.081700 0.698200
57.167100 0.680400
57.252600 0.675600
57.338000 0.684700
57.423400 0.729200
57.508900 0.800800
57.594300 0.861400
57.679800 0.893600
57.765200 0.942100
57.850600 0.938600
57.936100 0.863700
58.021500 0.799200
58.107000 0.771100
58.192400 0.768700
58.277800 0.816300
58.363300 0.865000
58.448700 0.933000
58.534200 0.976600
58.619600 0.958200
58.705100 0.931700
58.790500 0.929000
58.875900 0.923800
58.961400 0.908700
59.046800 0.923100
59.132300 0.938400
59.217700 0.903400
59.303100 0.914400
59.388600 0.970400
59.474000 1.079500
59.559500 1.052600
59.644900 1.057500
59.730300 1.037100
59.815800 1.056800
59.901200 1.065800
59.986700 1.067200
60.072100 1.050800
60.157500 1.033900
60.243000 0.983300
60.328400 1.048800
60.413900 1.022700
60.499300 0.966500
60.584800 0.923200
60.670200 0.863100
60.755600 0.886500
60.841100 0.880600
60.926500 0.908300
61.012000 0.847600
61.097400 0.812500
61.182800 0.753300
61.268300 0.753500
61.353700 0.847200
61.439200 0.801200
61.524600 0.812800
61.610000 0.767500
61.695500 0.733800
61.780900 0.689300
61.866400 0.718700
61.951800 0.771500
62.037200 0.814200
62.122700 0.824700
62.208100 0.798000
62.293600 0.755800
62.379000 0.745300
62.464500 0.737500
62.549900 0.702000
62.635300 0.702400
62.720800 0.705400
62.806200 0.668300
62.891700 0.654700
62.977100 0.662000
63.062500 0.662200
63.148000 0.687000
63.233400 0.724100
63.318900 0.768800
63.404300 0.799600
63.489700 0.774400
63.575200 0.741600
63.660600 0.721400
63.746100 0.727700
63.831500 0.712600
63.916900 0.696100
64.002400 0.679100
64.087800 0.706300
64.173300 0.707800
64.258700 0.702300
64.344200 0.698300
64.429600 0.700000
64.515000 0.691700
64.600500 0.674900
64.685900 0.662700
64.771400 0.662400
64.856800 0.647700
64.942200 0.651500
65.027700 0.698000
65.113100 0.740600
65.198600 0.764900
65.284000 0.772400
65.369400 0.762700
65.454900 0.758500
65.540300 0.733800
65.625800 0.704700
65.711200 0.707700
65.796600 0.728300
65.882100 0.752600
65.967500 0.770600
66.053000 0.771700
66.138400 0.784100
66.223900 0.839200
66.309300 0.864900
66.394700 0.815000
66.480200 0.771500
66.565600 0.770200
66.651100 0.767200
66.736500 0.775500
66.821900 0.798100
66.907400 0.864500
66.992800 0.812300
67.078300 0.777800
67.163700 0.741400
67.249100 0.702200
67.334600 0.702100
67.420000 0.718000
67.505500 0.699300
67.590900 0.699500
67.676300 0.743500
67.761800 0.769300
67.847200 0.767400
67.932700 0.756500
68.018100 0.714000
68.103600 0.714800
68.189000 0.726200
68.274400 0.719500
68.359900 0.730100
68.445300 0.774600
68.530800 0.780000
68.616200 0.742000
68.701600 0.696200
68.787100 0.654200
68.872500 0.630000
68.958000 0.623000
69.043400 0.623700
69.128800 0.636800
69.214300 0.678100
69.299700 0.747600
69.385200 0.793900
69.470600 0.790700
69.556000 0.793800
69.641500 0.790000
69.726900 0.781700
69.812400 0.770700
69.897800 0.742600
69.983300 0.732700
70.068700 0.733000
70.154100 0.729700
70.239600 0.726200
70.325000 0.709200
70.410500 0.696200
70.495900 0.688500
70.581300 0.667700
70.666800 0.677600
70.752200 0.681300
70.837700 0.700700
70.923100 0.701400
71.008500 0.710100
71.094000 0.715600
71.179400 0.716700
71.264900 0.703300
71.350300 0.702300
71.435700 0.716300
71.521200 0.726400
71.606600 0.712700
71.692100 0.726700
71.777500 0.738100
71.862900 0.733500
71.948400 0.714800
72.033800 0.706800
72.119300 0.715200
72.204700 0.716800
72.290200 0.696000
72.375600 0.689900
72.461000 0.673400
72.546500 0.665700
72.631900 0.664900
72.717400 0.670600
72.802800 0.675000
72.888200 0.694400
72.973700 0.710100
73.059100 0.722200
73.144600 0.727800
73.230000 0.714500
73.315400 0.722800
73.400900 0.736400
73.486300 0.732200
73.571800 0.755500
73.657200 0.780100
73.742600 0.755300
73.828100 0.711400
73.913500 0.693500
73.999000 0.683300
74.084400 0.690500
74.169900 0.720700
74.255300 0.768800
74.340700 0.783100
74.426200 0.818000
74.511600 0.814500
74.597100 0.825500
74.682500 0.842900
74.767900 0.860400
74.853400 0.910500
74.938800 0.845600
75.024300 0.799900
75.109700 0.739500
75.195100 0.690200
75.280600 0.661100
75.366000 0.647100
75.451500 0.637400
75.536900 0.647700
75.622300 0.660200
75.707800 0.683000
75.793200 0.708000
75.878700 0.735100
75.964100 0.753300
76.049600 0.781700
76.135000 0.832400
76.220400 0.842300
76.305900 0.834600
76.391300 0.832500
76.476800 0.799100
76.562200 0.759200
76.647600 0.733900
76.733100 0.725700
76.818500 0.711200
76.904000 0.684500
76.989400 0.645900
77.074800 0.619600
77.160300 0.625000
77.245700 0.619600
77.331200 0.626800
77.416600 0.641900
77.502000 0.665700
77.587500 0.687800
77.672900 0.727100
77.758400 0.750200
77.843800 0.735400
77.929300 0.729500
78.014700 0.745000
78.100100 0.765700
78.185600 0.812000
78.271000 0.856500
78.356500 0.843200
78.441900 0.838900
78.527300 0.809500
78.612800 0.766500
78.698200 0.749500
78.783700 0.739200
78.869100 0.746300
78.954500 0.753700
79.040000 0.755500
79.125400 0.741300
79.210900 0.745100
79.296300 0.750600
79.381700 0.763400
79.467200 0.782500
79.552600 0.784400
79.638100 0.800800
79.723500 0.818400
79.809000 0.824600
79.894400 0.838600
79.979800 0.843700
80.065300 0.848700
80.150700 0.856100
80.236200 0.861600
80.321600 0.865700
80.407000 0.888500
80.492500 0.842200
80.577900 0.830800
80.663400 0.820200
80.748800 0.804600
80.834200 0.798400
80.919700 0.801900
81.005100 0.806800
81.090600 0.809500
81.176000 0.799800
81.261400 0.787400
81.346900 0.772700
81.432300 0.776700
81.517800 0.770400
81.603200 0.773900
81.688700 0.789100
81.774100 0.769600
81.859500 0.745800
81.945000 0.717200
82.030400 0.704300
82.115900 0.683100
82.201300 0.673400
82.286700 0.669800
82.372200 0.688500
82.457600 0.717600
82.543100 0.741500
82.628500 0.772900
82.713900 0.808700
82.799400 0.819100
82.884800 0.822300
82.970300 0.806600
83.055700 0.778300
83.141100 0.777800
83.226600 0.788900
83.312000 0.802400
83.397500 0.804400
83.482900 0.814800
83.568400 0.781200
83.653800 0.780400
83.739200 0.788500
83.824700 0.810400
83.910100 0.827900
83.995600 0.833100
84.081000 0.846900
84.166400 0.861500
84.251900 0.870100
84.337300 0.882900
84.422800 0.851700
84.508200 0.841600
84.593600 0.825300
84.679100 0.822200
84.764500 0.857900
84.850000 0.832900
84.935400 0.843200
85.020800 0.795400
85.106300 0.775400
85.191700 0.748400
85.277200 0.734400
85.362600 0.733700
85.448100 0.737500
85.533500 0.767000
85.618900 0.791100
85.704400 0.817900
85.789800 0.790800
85.875300 0.792700
85.960700 0.785100
86.046100 0.796600
86.131600 0.809400
86.217000 0.818600
86.302500 0.806600
86.387900 0.786000
86.473300 0.765400
86.558800 0.749600
86.644200 0.737400
86.729700 0.722000
86.815100 0.666600
86.900500 0.657200
86.986000 0.673400
87.071400 0.715900
87.156900 0.713500
87.242300 0.731400
87.327800 0.752700
87.413200 0.778100
87.498600 0.806200
87.584100 0.853700
87.669500 0.887200
87.755000 0.874400
87.840400 0.836900
87.925800 0.820900
88.011300 0.762000
88.096700 0.742400
88.182200 0.737800
88.267600 0.774100
88.353000 0.778700
88.438500 0.759100
88.523900 0.755200
88.609400 0.763500
88.694800 0.771200
88.780200 0.784500
88.865700 0.804500
88.951100 0.811100
89.036600 0.802400
89.122000 0.782000
89.207500 0.787400
89.292900 0.783200
89.378300 0.773500
89.463800 0.802200
89.549200 0.839100
89.634700 0.887900
89.720100 0.837500
89.805500 0.820500
89.891000 0.801300
89.976400 0.776200
90.061900 0.770600
90.147300 0.766300
90.232700 0.763700
90.318200 0.765400
90.403600 0.768600
90.489100 0.749000
90.574500 0.736400
90.659900 0.724900
90.745400 0.723500
90.830800 0.729200
90.916300 0.706800
91.001700 0.686300
91.087200 0.674000
91.172600 0.678100
91.258000 0.694500
91.343500 0.702700
91.428900 0.723700
91.514400 0.749300
91.599800 0.768500
91.685200 0.765200
91.770700 0.762400
91.856100 0.797500
91.941600 0.820100
92.027000 0.844900
92.112400 0.826700
92.197900 0.827100
92.283300 0.805400
92.368800 0.791600
92.454200 0.783800
92.539600 0.793000
92.625100 0.802400
92.710500 0.807900
92.796000 0.791100
92.881400 0.797400
92.966900 0.816100
93.052300 0.826000
93.137700 0.834000
93.223200 0.834200
93.308600 0.848800
93.394100 0.861600
93.479500 0.866400
93.564900 0.860200
93.650400 0.867500
93.735800 0.879100
93.821300 0.883100
93.906700 0.857000
93.992100 0.816600
94.077600 0.796500
94.163000 0.789700
94.248500 0.797000
94.333900 0.815700
94.419300 0.841900
94.504800 0.837400
94.590200 0.807700
94.675700 0.778900
94.761100 0.758700
94.846500 0.743400
94.932000 0.739700
95.017400 0.730300
95.102900 0.723100
95.188300 0.748300
95.273800 0.766500
95.359200 0.805500
95.444600 0.844600
95.530100 0.868800
95.615500 0.868600
95.701000 0.879300
95.786400 0.885900
95.871800 0.888400
95.957300 0.939900
96.042700 0.984300
96.128200 1.002200
96.213600 0.961000
96.299000 0.924800
96.384500 0.878100
96.469900 0.890800
96.555400 0.907300
96.640800 0.916600
96.726200 0.925200
96.811700 0.896600
96.897100 0.837200
96.982600 0.790000
97.068000 0.749300
97.153500 0.744000
97.238900 0.745800
97.324300 0.762800
97.409800 0.770900
97.495200 0.763100
97.580700 0.773200
97.666100 0.754100
97.751500 0.732600
97.837000 0.713900
97.922400 0.711600
98.007900 0.727600
98.093300 0.734600
98.178700 0.764200
98.264200 0.780000
98.349600 0.783500
98.435100 0.779000
98.520500 0.771600
98.605900 0.772600
98.691400 0.756400
98.776800 0.746900
98.862300 0.755100
98.947700 0.769300
99.033200 0.784600
99.118600 0.788200
99.204000 0.793300
99.289500 0.828000
99.374900 0.876400
99.460400 0.884800
99.545800 0.904600
99.631200 0.901600
99.716700 0.908200
99.802100 0.913100
99.887600 0.904000
99.973000 0.857000
100.058400 0.848500
100.143900 0.836500
100.229300 0.830800
100.314800 0.836000
100.400200 0.843600
100.485600 0.867900
100.571100 0.865200
100.656500 0.830000
100.742000 0.768900
100.827400 0.741100
100.912900 0.774100
100.998300 0.743500
101.083700 0.746100
101.169200 0.740900
101.254600 0.729600
101.340100 0.734100
101.425500 0.732100
101.510900 0.716400
101.596400 0.740000
101.681800 0.736500
101.767300 0.730100
101.852700 0.700100
101.938100 0.755900
102.023600 0.796500
102.109000 0.828100
102.194500 0.845000
102.279900 0.893300
102.365300 0.908500
102.450800 0.911100
102.536200 0.935100
102.621700 0.946700
102.707100 0.965800
102.792600 0.977500
102.878000 0.952900
102.963400 0.947900
103.048900 0.947900
103.134300 0.915500
103.219800 0.930400
103.305200 0.966900
103.390600 1.032200
103.476100 1.036900
103.561500 1.025800
103.647000 0.981900
103.732400 0.929900
103.817800 0.876800
103.903300 0.859500
103.988700 0.898100
104.074200 0.851600
104.159600 0.813200
104.245000 0.817700
104.330500 0.827800
104.415900 0.835800
104.501400 0.846500
104.586800 0.873900
104.672300 0.902600
104.757700 0.882600
104.843100 0.853100
104.928600 0.821700
105.014000 0.788200
105.099500 0.738400
105.184900 0.697200
105.270300 0.662300
105.355800 0.635700
105.441200 0.616700
105.526700 0.590800
105.612100 0.560200
105.697500 0.536200
105.783000 0.523700
105.868400 0.470600
105.953900 0.447100
106.039300 0.442200
106.124700 0.442300
106.210200 0.441400
106.295600 0.434400
106.381100 0.420700
106.466500 0.408600
106.552000 0.374700
106.637400 0.363800
106.722800 0.332900
106.808300 0.315300
106.893700 0.301400
106.979200 0.287600
107.064600 0.278300
107.150000 0.266500
107.235500 0.264900
107.320900 0.241600
107.406400 0.224400
107.491800 0.214400
107.577200 0.195700
107.662700 0.173300
107.748100 0.190100
107.833600 0.192400
107.919000 0.184500
108.004400 0.172400
108.089900 0.161900
108.175300 0.149300
108.260800 0.128400
108.346200 0.111000
108.431700 0.097000
108.517100 0.081200
108.602500 0.062300
108.688000 0.047500
108.773400 0.039600
108.858900 0.031500
108.944300 0.022000
109.029700 0.016400
109.115200 0.012600
109.200600 0.009600
109.286100 0.007600
109.371500 0.006500
109.456900 0.005700
109.542400 0.005100
109.627800 0.004600
109.713300 0.004300
109.798700 0.004100
109.884100 0.003900
109.969600 0.003700
110.055000 0.003400
110.140500 0.003100
110.225900 0.005300
110.311400 0.002000
110.396800 0.001400
110.482200 0.000900
110.567700 0.000800
110.653100 0.000700
110.738600 0.000600
110.824000 0.000500
110.909400 0.000400
110.994900 0.000400
111.080300 0.000300
111.165800 0.000300
111.251200 0.000200
111.336600 0.000200
111.422100 0.000100
111.507500 0.000100
111.593000 0.000100
111.678400 0.000100
111.763800 0.000000
111.849300 0.000000
111.934700 0.000000
112.020200 0.000000
112.105600 0.000000
112.191100 0.000000
112.276500 0.000000
112.361900 0.000000
112.447400 0.000000
112.532800 0.000000
112.618300 0.000000
112.703700 0.000000
112.789100 0.000000
112.874600 0.000000
112.960000 0.000000
113.045500 0.000000
113.130900 0.000000
113.216300 0.000000
113.301800 0.000000
113.387200 0.000000
113.472700 0.000000
113.558100 0.000000
113.643500 0.000000
113.729000 0.000000
113.814400 0.000000
113.899900 0.000000
113.985300 0.000000
114.070800 0.000000
114.156200 0.000000
114.241600 0.000000
114.327100 0.000000
114.412500 0.000000
114.498000 0.000000
114.583400 0.000000
114.668800 0.000000
114.754300 0.000000
114.839700 0.000000
114.925200 0.000000
115.010600 0.000000
115.096000 0.000000
115.181500 0.000000
115.266900 0.000000
115.352400 0.000000
115.437800 0.000000
115.523200 0.000000
115.608700 0.000000
115.694100 0.000000
115.779600 0.000000
115.865000 0.000000
115.950500 0.000000
116.035900 0.000000
116.121300 0.000000
116.206800 0.000000
116.292200 0.000000
116.377700 0.000000
116.463100 0.000000
116.548500 0.000000
116.634000 0.000000
116.719400 0.000000
116.804900 0.000000
116.890300 0.000000
116.975700 0.000000
117.061200 0.000000
117.146600 0.000000
117.232100 0.000000
117.317500 0.000000
117.402900 0.000000
117.488400 0.000000
117.573800 0.000000
117.659300 0.000000
117.744700 0.000000
117.830100 0.000000
117.915600 0.000000
118.001000 0.000000
118.086500 0.000000
118.171900 0.000000
118.257400 0.000000
118.342800 0.000000
118.428200 0.000000
118.513700 0.000000
118.599100 0.000000
118.684600 0.000000
118.770000 0.000000
118.855400 0.000000
118.940900 0.000000
119.026300 0.000000
119.111800 0.000000
119.197200 0.000000
119.282600 0.000000
119.368100 0.000000
119.453500 0.000000
119.539000 0.000000
119.624400 0.000000
119.709800 0.000000
119.795300 0.000000
119.880700 0.000000
119.966200 0.000000
120.051600 0.000000
e
