set title 'mp-109 - Density of States'
set xlabel 'Energy (eV)'
set ylabel 'DOS (states/eV)'
set grid
set xrange [-10:10]
set yrange [0:2.342]
set xzeroaxis lt -1
set terminal png size 800,600
set output 'mp-109_dos_gnuplot.png'
plot '-' using 1:2 with lines title 'DOS'
-7.990600 0.000000
-7.953500 0.000000
-7.916400 0.000000
-7.879300 0.000000
-7.842200 0.000000
-7.805100 0.000000
-7.768100 0.000000
-7.731000 0.000000
-7.693900 0.000000
-7.656800 0.000000
-7.619700 0.000000
-7.582600 0.000000
-7.545500 0.000000
-7.508400 0.000000
-7.471300 0.000000
-7.434200 0.000000
-7.397100 0.000000
-7.360000 0.000000
-7.322900 0.000000
-7.285800 0.000000
-7.248700 0.000000
-7.211600 0.000000
-7.174500 0.000000
-7.137400 0.000000
-7.100300 0.000000
-7.063200 0.000000
-7.026100 0.000000
-6.989000 0.000000
-6.951900 0.000000
-6.914800 0.000000
-6.877700 0.000000
-6.840600 0.000000
-6.803500 0.000000
-6.766400 0.000000
-6.729300 0.000000
-6.692300 0.000000
-6.655200 0.000000
-6.618100 0.000000
-6.581000 0.000000
-6.543900 0.000000
-6.506800 0.000000
-6.469700 0.000000
-6.432600 0.000000
-6.395500 0.000000
-6.358400 0.000000
-6.321300 0.000000
-6.284200 0.000000
-6.247100 0.000000
-6.210000 0.000000
-6.172900 0.000000
-6.135800 0.000000
-6.098700 0.000000
-6.061600 0.000000
-6.024500 0.000000
-5.987400 0.000000
-5.950300 0.000000
-5.913200 0.000000
-5.876100 0.000000
-5.839000 0.000000
-5.801900 0.000000
-5.764800 0.000000
-5.727700 0.000000
-5.690600 0.000000
-5.653500 0.000000
-5.616500 0.000000
-5.579400 0.000000
-5.542300 0.000000
-5.505200 0.000000
-5.468100 0.000000
-5.431000 0.000000
-5.393900 0.000000
-5.356800 0.000000
-5.319700 0.000000
-5.282600 0.000000
-5.245500 0.000000
-5.208400 0.000000
-5.171300 0.000000
-5.134200 0.000000
-5.097100 0.000000
-5.060000 0.000000
-5.022900 0.000000
-4.985800 0.000000
-4.948700 0.000000
-4.911600 0.000000
-4.874500 0.000000
-4.837400 0.000000
-4.800300 0.000000
-4.763200 0.000000
-4.726100 0.000000
-4.689000 0.000000
-4.651900 0.000000
-4.614800 0.000300
-4.577700 0.039800
-4.540700 0.100600
-4.503600 0.136100
-4.466500 0.158900
-4.429400 0.183000
-4.392300 0.196700
-4.355200 0.213700
-4.318100 0.232500
-4.281000 0.251400
-4.243900 0.270700
-4.206800 0.284200
-4.169700 0.293100
-4.132600 0.303700
-4.095500 0.314900
-4.058400 0.326300
-4.021300 0.337500
-3.984200 0.349800
-3.947100 0.362600
-3.910000 0.374600
-3.872900 0.384700
-3.835800 0.394800
-3.798700 0.405300
-3.761600 0.413700
-3.724500 0.422000
-3.687400 0.430500
-3.650300 0.439400
-3.613200 0.448600
-3.576100 0.458000
-3.539000 0.467300
-3.502000 0.475300
-3.464900 0.483200
-3.427800 0.491500
-3.390700 0.500200
-3.353600 0.509400
-3.316500 0.519200
-3.279400 0.530700
-3.242300 0.543500
-3.205200 0.555800
-3.168100 0.568600
-3.131000 0.581100
-3.093900 0.589600
-3.056800 0.585300
-3.019700 0.586200
-2.982600 0.581000
-2.945500 0.584400
-2.908400 0.586700
-2.871300 0.583000
-2.834200 0.580200
-2.797100 0.578500
-2.760000 0.577700
-2.722900 0.578500
-2.685800 0.600800
-2.648700 0.621900
-2.611600 0.623800
-2.574500 0.637000
-2.537400 0.647000
-2.500300 0.653900
-2.463200 0.663400
-2.426200 0.673100
-2.389100 0.677400
-2.352000 0.681300
-2.314900 0.686800
-2.277800 0.692600
-2.240700 0.701200
-2.203600 0.706300
-2.166500 0.712100
-2.129400 0.719600
-2.092300 0.729300
-2.055200 0.741500
-2.018100 0.764200
-1.981000 0.786900
-1.943900 0.802400
-1.906800 0.813600
-1.869700 0.831300
-1.832600 0.833800
-1.795500 0.851400
-1.758400 0.863800
-1.721300 0.871400
-1.684200 0.873700
-1.647100 0.863400
-1.610000 0.847100
-1.572900 0.832200
-1.535800 0.817600
-1.498700 0.808000
-1.461600 0.800400
-1.424500 0.791000
-1.387400 0.757100
-1.350400 0.733800
-1.313300 0.719400
-1.276200 0.711400
-1.239100 0.703800
-1.202000 0.712900
-1.164900 0.741500
-1.127800 0.776200
-1.090700 0.843800
-1.053600 0.899000
-1.016500 0.922800
-0.979400 0.942200
-0.942300 0.946000
-0.905200 0.941200
-0.868100 0.933400
-0.831000 0.923300
-0.793900 0.915900
-0.756800 0.910300
-0.719700 0.908400
-0.682600 0.891800
-0.645500 0.883200
-0.608400 0.881700
-0.571300 0.883200
-0.534200 0.888500
-0.497100 0.897300
-0.460000 0.905700
-0.422900 0.918000
-0.385800 0.940200
-0.348700 0.962600
-0.311600 0.976600
-0.274600 0.990000
-0.237500 1.010100
-0.200400 1.030100
-0.163300 1.034300
-0.126200 1.049400
-0.089100 1.056000
-0.052000 1.061900
-0.014900 1.064400
0.022200 1.071100
0.059300 1.077500
0.096400 1.084200
0.133500 1.088100
0.170600 1.089100
0.207700 1.087100
0.244800 1.084900
0.281900 1.086600
0.319000 1.084600
0.356100 1.079900
0.393200 1.083500
0.430300 1.104300
0.467400 1.123400
0.504500 1.141900
0.541600 1.154400
0.578700 1.156400
0.615800 1.169800
0.652900 1.187700
0.690000 1.191100
0.727100 1.194800
0.764200 1.182800
0.801200 1.169800
0.838300 1.162500
0.875400 1.158200
0.912500 1.159200
0.949600 1.158000
0.986700 1.157400
1.023800 1.167100
1.060900 1.188100
1.098000 1.209200
1.135100 1.225800
1.172200 1.245900
1.209300 1.265500
1.246400 1.288800
1.283500 1.307000
1.320600 1.327400
1.357700 1.339300
1.394800 1.338200
1.431900 1.351000
1.469000 1.371200
1.506100 1.384900
1.543200 1.355900
1.580300 1.336000
1.617400 1.326000
1.654500 1.284100
1.691600 1.240700
1.728700 1.206400
1.765800 1.181600
1.802900 1.142400
1.840000 1.108300
1.877000 1.070600
1.914100 1.035800
1.951200 0.992500
1.988300 0.940800
2.025400 0.894300
2.062500 0.853700
2.099600 0.823400
2.136700 0.843300
2.173800 0.797700
2.210900 0.769000
2.248000 0.773100
2.285100 0.762800
2.322200 0.768900
2.359300 0.792500
2.396400 0.858800
2.433500 0.872200
2.470600 0.914200
2.507700 0.952600
2.544800 0.997700
2.581900 1.052000
2.619000 1.118200
2.656100 1.197200
2.693200 1.293400
2.730300 1.381000
2.767400 1.433500
2.804500 1.475900
2.841600 1.494500
2.878700 1.482500
2.915800 1.456500
2.952800 1.429100
2.989900 1.370200
3.027000 1.315600
3.064100 1.275100
3.101200 1.258600
3.138300 1.255800
3.175400 1.209200
3.212500 1.181700
3.249600 1.160100
3.286700 1.145900
3.323800 1.126800
3.360900 1.115800
3.398000 1.108300
3.435100 1.092700
3.472200 1.090500
3.509300 1.107000
3.546400 1.139500
3.583500 1.193900
3.620600 1.244600
3.657700 1.211200
3.694800 1.200200
3.731900 1.192000
3.769000 1.197700
3.806100 1.216400
3.843200 1.239500
3.880300 1.277500
3.917400 1.290600
3.954500 1.315700
3.991600 1.341500
4.028600 1.364200
4.065700 1.390300
4.102800 1.409300
4.139900 1.430100
4.177000 1.430500
4.214100 1.430500
4.251200 1.432700
4.288300 1.426800
4.325400 1.420900
4.362500 1.422200
4.399600 1.423600
4.436700 1.436200
4.473800 1.439600
4.510900 1.438300
4.548000 1.428200
4.585100 1.419700
4.622200 1.416700
4.659300 1.412800
4.696400 1.413500
4.733500 1.419900
4.770600 1.428100
4.807700 1.439900
4.844800 1.456800
4.881900 1.480200
4.919000 1.511600
4.956100 1.538700
4.993200 1.548400
5.030300 1.543600
5.067400 1.538500
5.104400 1.527000
5.141500 1.524300
5.178600 1.525400
5.215700 1.529600
5.252800 1.535400
5.289900 1.535100
5.327000 1.536500
5.364100 1.545300
5.401200 1.560200
5.438300 1.577500
5.475400 1.595600
5.512500 1.614500
5.549600 1.636600
5.586700 1.668800
5.623800 1.687300
5.660900 1.686300
5.698000 1.674100
5.735100 1.670500
5.772200 1.644800
5.809300 1.620700
5.846400 1.584600
5.883500 1.545600
5.920600 1.529800
5.957700 1.533400
5.994800 1.544300
6.031900 1.568500
6.069000 1.596800
6.106100 1.625600
6.143200 1.653700
6.180200 1.642200
6.217300 1.655100
6.254400 1.676100
6.291500 1.706200
6.328600 1.740600
6.365700 1.758100
6.402800 1.784400
6.439900 1.838700
6.477000 1.921500
6.514100 1.969800
6.551200 1.974200
6.588300 1.982400
6.625400 1.990600
6.662500 1.998400
6.699600 2.026400
6.736700 2.065800
6.773800 2.038500
6.810900 2.011200
6.848000 1.987600
6.885100 1.980600
6.922200 1.996200
6.959300 2.053100
6.996400 2.114600
7.033500 2.128700
7.070600 2.094000
7.107700 2.035100
7.144800 1.997700
7.181900 1.980100
7.219000 1.971000
7.256000 1.973900
7.293100 1.973600
7.330200 1.980500
7.367300 1.999400
7.404400 2.020000
7.441500 2.018000
7.478600 2.009100
7.515700 2.005900
7.552800 2.015500
7.589900 1.989100
7.627000 1.959900
7.664100 1.911700
7.701200 1.816800
7.738300 1.737200
7.775400 1.687500
7.812500 1.664400
7.849600 1.635100
7.886700 1.593900
7.923800 1.567300
7.960900 1.533900
7.998000 1.520100
8.035100 1.534200
8.072200 1.514700
8.109300 1.463600
8.146400 1.418900
8.183500 1.401400
8.220600 1.407700
8.257700 1.426100
8.294800 1.442200
8.331800 1.420900
8.368900 1.413600
8.406000 1.397100
8.443100 1.380100
8.480200 1.368600
8.517300 1.376900
8.554400 1.385800
8.591500 1.388900
8.628600 1.414500
8.665700 1.441700
8.702800 1.476100
8.739900 1.519200
8.777000 1.550500
8.814100 1.585400
8.851200 1.580100
8.888300 1.518800
8.925400 1.477700
8.962500 1.444800
8.999600 1.422800
9.036700 1.397400
9.073800 1.342600
9.110900 1.288500
9.148000 1.263000
9.185100 1.249300
9.222200 1.240100
9.259300 1.240000
9.296400 1.250300
9.333500 1.254300
9.370600 1.268000
9.407600 1.300800
9.444700 1.343000
9.481800 1.377300
9.518900 1.425100
9.556000 1.404400
9.593100 1.373200
9.630200 1.344700
9.667300 1.313500
9.704400 1.267600
9.741500 1.219400
9.778600 1.186000
9.815700 1.169800
9.852800 1.165100
9.889900 1.222700
9.927000 1.319100
9.964100 1.448000
10.001200 1.558300
10.038300 1.635300
10.075400 1.676700
10.112500 1.723500
10.149600 1.768600
10.186700 1.815300
10.223800 1.827800
10.260900 1.818000
10.298000 1.821400
10.335100 1.815200
10.372200 1.819000
10.409300 1.789900
10.446400 1.758100
10.483400 1.681500
10.520500 1.591400
10.557600 1.533800
10.594700 1.503400
10.631800 1.498200
10.668900 1.475600
10.706000 1.461000
10.743100 1.469900
10.780200 1.501800
10.817300 1.545900
10.854400 1.563800
10.891500 1.587300
10.928600 1.605200
10.965700 1.614000
11.002800 1.624900
11.039900 1.628100
11.077000 1.611600
11.114100 1.623500
11.151200 1.670000
11.188300 1.709000
11.225400 1.722700
11.262500 1.739000
11.299600 1.754300
11.336700 1.761800
11.373800 1.765700
11.410900 1.773200
11.448000 1.772500
11.485100 1.799100
11.522200 1.823000
11.559200 1.852600
11.596300 1.890000
11.633400 1.929900
11.670500 1.954900
11.707600 1.966700
11.744700 1.984900
11.781800 2.001800
11.818900 2.008700
11.856000 2.025600
11.893100 2.042900
11.930200 2.056700
11.967300 2.082000
12.004400 2.054300
12.041500 2.032000
12.078600 1.996200
12.115700 1.956300
12.152800 1.929400
12.189900 1.927200
12.227000 1.878600
12.264100 1.885600
12.301200 1.885100
12.338300 1.920800
12.375400 1.937200
12.412500 1.966800
12.449600 2.001000
12.486700 2.029700
12.523800 2.009100
12.560900 1.978700
12.598000 1.954900
12.635000 1.931000
12.672100 1.929900
12.709200 1.927000
12.746300 1.914700
12.783400 1.884200
12.820500 1.884800
12.857600 1.904700
12.894700 1.915900
12.931800 1.948900
12.968900 2.015100
13.006000 2.014000
13.043100 2.027200
13.080200 2.050700
13.117300 2.051900
13.154400 2.059200
13.191500 2.055300
13.228600 2.051700
13.265700 2.053000
13.302800 2.051100
13.339900 2.067400
13.377000 2.073400
13.414100 2.054200
13.451200 2.031100
13.488300 2.026900
13.525400 2.033100
13.562500 2.044800
13.599600 2.088500
13.636700 2.083900
13.673800 2.095800
13.710800 2.113000
13.747900 2.152200
13.785000 2.148600
13.822100 2.169300
13.859200 2.187600
13.896300 2.228100
13.933400 2.225300
13.970500 2.198600
14.007600 2.188800
14.044700 2.182900
14.081800 2.188000
14.118900 2.194200
14.156000 2.202500
14.193100 2.211900
14.230200 2.218800
14.267300 2.213200
14.304400 2.214700
14.341500 2.206100
14.378600 2.214700
14.415700 2.200100
14.452800 2.206500
14.489900 2.210200
14.527000 2.226800
14.564100 2.235900
14.601200 2.247900
14.638300 2.253400
14.675400 2.241600
14.712500 2.222900
14.749600 2.213400
14.786600 2.155700
14.823700 2.116000
14.860800 2.080900
14.897900 2.075700
14.935000 2.083300
14.972100 2.113500
15.009200 2.160500
15.046300 2.189300
15.083400 2.221400
15.120500 2.246700
15.157600 2.264000
15.194700 2.295700
15.231800 2.300800
15.268900 2.328000
15.306000 2.289900
15.343100 2.269900
15.380200 2.268700
15.417300 2.252400
15.454400 2.215800
15.491500 2.161700
15.528600 2.152600
15.565700 2.136200
15.602800 2.162500
15.639900 2.181700
15.677000 2.207200
15.714100 2.236300
15.751200 2.271900
15.788300 2.308300
15.825400 2.329300
15.862400 2.349900
15.899500 2.387000
15.936600 2.417800
15.973700 2.403000
16.010800 2.399600
16.047900 2.372300
16.085000 2.356400
16.122100 2.363500
16.159200 2.316900
16.196300 2.267600
16.233400 2.242700
16.270500 2.227500
16.307600 2.215700
16.344700 2.200300
16.381800 2.194800
16.418900 2.210200
16.456000 2.233200
16.493100 2.237800
16.530200 2.242500
16.567300 2.267600
16.604400 2.283800
16.641500 2.286100
16.678600 2.289500
16.715700 2.267800
16.752800 2.249100
16.789900 2.227700
16.827000 2.193600
16.864100 2.183700
16.901200 2.166500
16.938200 2.140400
16.975300 2.137100
17.012400 2.151700
17.049500 2.174300
17.086600 2.196200
17.123700 2.212500
17.160800 2.221400
17.197900 2.238800
17.235000 2.259600
17.272100 2.272900
17.309200 2.268200
17.346300 2.289400
17.383400 2.326200
17.420500 2.318600
17.457600 2.332700
17.494700 2.337600
17.531800 2.328000
17.568900 2.300800
17.606000 2.221500
17.643100 2.136000
17.680200 2.085800
17.717300 2.081600
17.754400 2.121300
17.791500 2.163100
17.828600 2.156800
17.865700 2.168800
17.902800 2.159300
17.939900 2.098400
17.977000 2.053900
18.014000 1.979500
18.051100 1.953800
18.088200 1.913800
18.125300 1.815700
18.162400 1.780600
18.199500 1.760400
18.236600 1.754400
18.273700 1.754200
18.310800 1.766900
18.347900 1.775100
18.385000 1.804400
18.422100 1.854300
18.459200 1.894800
18.496300 1.954100
18.533400 2.001000
18.570500 2.041600
18.607600 2.073400
18.644700 2.092400
18.681800 2.095600
18.718900 2.164500
18.756000 2.224500
18.793100 2.277000
18.830200 2.332500
18.867300 2.395200
18.904400 2.381000
18.941500 2.374400
18.978600 2.364600
19.015700 2.324900
19.052800 2.294400
19.089800 2.273600
19.126900 2.248300
19.164000 2.223300
19.201100 2.201500
19.238200 2.177400
19.275300 2.156300
19.312400 2.143700
19.349500 2.104900
19.386600 2.085900
19.423700 2.067300
19.460800 2.053400
19.497900 2.048100
19.535000 2.050200
19.572100 2.049800
19.609200 2.042500
19.646300 2.039600
19.683400 2.050700
19.720500 2.069600
19.757600 2.096000
19.794700 2.154600
19.831800 2.242000
19.868900 2.311200
19.906000 2.353900
19.943100 2.420600
19.980200 2.443600
20.017300 2.443800
20.054400 2.432000
20.091500 2.415400
20.128600 2.372700
20.165600 2.353800
20.202700 2.364000
20.239800 2.395400
20.276900 2.434600
20.314000 2.465700
20.351100 2.487600
20.388200 2.483800
20.425300 2.494200
20.462400 2.514200
20.499500 2.520100
20.536600 2.500600
20.573700 2.495500
20.610800 2.525200
20.647900 2.518800
20.685000 2.546700
20.722100 2.549400
20.759200 2.526800
20.796300 2.585100
20.833400 2.705200
20.870500 2.657600
20.907600 2.629400
20.944700 2.589100
20.981800 2.542100
21.018900 2.519500
21.056000 2.495100
21.093100 2.453600
21.130200 2.444000
21.167300 2.448100
21.204400 2.459400
21.241400 2.472400
21.278500 2.483300
21.315600 2.513900
21.352700 2.566600
21.389800 2.690900
21.426900 2.730800
21.464000 2.733900
21.501100 2.740600
21.538200 2.711500
21.575300 2.681600
21.612400 2.658000
21.649500 2.622600
21.686600 2.655500
21.723700 2.690800
21.760800 2.619200
21.797900 2.559900
21.835000 2.509400
21.872100 2.507000
21.909200 2.535600
21.946300 2.552900
21.983400 2.524700
22.020500 2.520800
22.057600 2.541000
22.094700 2.542300
22.131800 2.524900
22.168900 2.546000
22.206000 2.554600
22.243100 2.514200
22.280200 2.493900
22.317200 2.508100
22.354300 2.554900
22.391400 2.576300
22.428500 2.582300
22.465600 2.552300
22.502700 2.532600
22.539800 2.538100
22.576900 2.523100
22.614000 2.503700
22.651100 2.501300
22.688200 2.508900
22.725300 2.494000
22.762400 2.510700
22.799500 2.547400
22.836600 2.585100
22.873700 2.585000
22.910800 2.586900
22.947900 2.609000
22.985000 2.619600
23.022100 2.620700
23.059200 2.610200
23.096300 2.603300
23.133400 2.580900
23.170500 2.581400
23.207600 2.537800
23.244700 2.475400
23.281800 2.487500
23.318900 2.493800
23.356000 2.525900
23.393000 2.599500
23.430100 2.649100
23.467200 2.661900
23.504300 2.631500
23.541400 2.627500
23.578500 2.584400
23.615600 2.552700
23.652700 2.552400
23.689800 2.592100
23.726900 2.701300
23.764000 2.752400
23.801100 2.748000
23.838200 2.745900
23.875300 2.719900
23.912400 2.701700
23.949500 2.735200
23.986600 2.792500
24.023700 2.760100
24.060800 2.736300
24.097900 2.672100
24.135000 2.584400
24.172100 2.541200
24.209200 2.509200
24.246300 2.485600
24.283400 2.412100
24.320500 2.401800
24.357600 2.432600
24.394700 2.455900
24.431800 2.478800
24.468800 2.461100
24.505900 2.411600
24.543000 2.365600
24.580100 2.358100
24.617200 2.316500
24.654300 2.277200
24.691400 2.254300
24.728500 2.222400
24.765600 2.220600
24.802700 2.203700
24.839800 2.190900
24.876900 2.188800
24.914000 2.159100
24.951100 2.191800
24.988200 2.255400
25.025300 2.374800
25.062400 2.443000
25.099500 2.542300
25.136600 2.604800
25.173700 2.700100
25.210800 2.742000
25.247900 2.707300
25.285000 2.702100
25.322100 2.701500
25.359200 2.716200
25.396300 2.675800
25.433400 2.643700
25.470500 2.598500
25.507600 2.541300
25.544600 2.438800
25.581700 2.390800
25.618800 2.419100
25.655900 2.508500
25.693000 2.564700
25.730100 2.610700
25.767200 2.634100
25.804300 2.652800
25.841400 2.645500
25.878500 2.609500
25.915600 2.593300
25.952700 2.572700
25.989800 2.554900
26.026900 2.540100
26.064000 2.530600
26.101100 2.507300
26.138200 2.487500
26.175300 2.474700
26.212400 2.490500
26.249500 2.468900
26.286600 2.446700
26.323700 2.449600
26.360800 2.469200
26.397900 2.458500
26.435000 2.477300
26.472100 2.461900
26.509200 2.468700
26.546300 2.472500
26.583400 2.494600
26.620400 2.559700
26.657500 2.557700
26.694600 2.563400
26.731700 2.587900
26.768800 2.619600
26.805900 2.658400
26.843000 2.647200
26.880100 2.670400
26.917200 2.728100
26.954300 2.761100
26.991400 2.755900
27.028500 2.707700
27.065600 2.638800
27.102700 2.581100
27.139800 2.544100
27.176900 2.489200
27.214000 2.473900
27.251100 2.457100
27.288200 2.449800
27.325300 2.444900
27.362400 2.510200
27.399500 2.598400
27.436600 2.679600
27.473700 2.717600
27.510800 2.744700
27.547900 2.714400
27.585000 2.696200
27.622100 2.691900
27.659200 2.742200
27.696200 2.674400
27.733300 2.610100
27.770400 2.579700
27.807500 2.530000
27.844600 2.541300
27.881700 2.554600
27.918800 2.523700
27.955900 2.508900
27.993000 2.506500
28.030100 2.516000
28.067200 2.533700
28.104300 2.582000
28.141400 2.626100
28.178500 2.680800
28.215600 2.723700
28.252700 2.740300
28.289800 2.791800
28.326900 2.799700
28.364000 2.818800
28.401100 2.860400
28.438200 2.898600
28.475300 2.940600
28.512400 2.971200
28.549500 2.969900
28.586600 2.994000
28.623700 3.018200
28.660800 3.072300
28.697900 3.063700
28.735000 3.075800
28.772000 3.082000
28.809100 3.077600
28.846200 3.032900
28.883300 2.988800
28.920400 2.931200
28.957500 2.875900
28.994600 2.847600
29.031700 2.825500
29.068800 2.760800
29.105900 2.719200
29.143000 2.693500
29.180100 2.696900
29.217200 2.695400
29.254300 2.737600
29.291400 2.809000
29.328500 2.964600
29.365600 2.942800
29.402700 2.905400
29.439800 2.826800
29.476900 2.768200
29.514000 2.725300
29.551100 2.724700
29.588200 2.631300
29.625300 2.596500
29.662400 2.595400
29.699500 2.620100
29.736600 2.657600
29.773700 2.655600
29.810800 2.669100
29.847800 2.707800
29.884900 2.750600
29.922000 2.800700
29.959100 2.864200
29.996200 2.912500
30.033300 2.885700
30.070400 2.863700
30.107500 2.830100
30.144600 2.782900
30.181700 2.773600
30.218800 2.805100
30.255900 2.844200
30.293000 2.886100
30.330100 2.910100
30.367200 2.914000
30.404300 2.889700
30.441400 2.881800
30.478500 2.865100
30.515600 2.872100
30.552700 2.867000
30.589800 2.835900
30.626900 2.843700
30.664000 2.817000
30.701100 2.797700
30.738200 2.749500
30.775300 2.752600
30.812400 2.718400
30.849500 2.691700
30.886600 2.656900
30.923600 2.601300
30.960700 2.558600
30.997800 2.544200
31.034900 2.611700
31.072000 2.647000
31.109100 2.680100
31.146200 2.694800
31.183300 2.730700
31.220400 2.757500
31.257500 2.757800
31.294600 2.740100
31.331700 2.690100
31.368800 2.639400
31.405900 2.617400
31.443000 2.584000
31.480100 2.604100
31.517200 2.645900
31.554300 2.686300
31.591400 2.731000
31.628500 2.779500
31.665600 2.807300
31.702700 2.778700
31.739800 2.770600
31.776900 2.779600
31.814000 2.745200
31.851100 2.742100
31.888200 2.724800
31.925300 2.673200
31.962400 2.676000
31.999400 2.685000
32.036500 2.701300
32.073600 2.749700
32.110700 2.800600
32.147800 2.898000
32.184900 2.991600
32.222000 3.046800
32.259100 3.157500
32.296200 3.097400
32.333300 3.116200
32.370400 3.114900
32.407500 3.110900
32.444600 3.123500
32.481700 3.134500
32.518800 3.199800
32.555900 3.237500
32.593000 3.266200
32.630100 3.255500
32.667200 3.221200
32.704300 3.180300
32.741400 3.131600
32.778500 3.099700
32.815600 3.062900
32.852700 3.046000
32.889800 3.012000
32.926900 2.936800
32.964000 2.906500
33.001100 2.866000
33.038200 2.818200
33.075200 2.756400
33.112300 2.716900
33.149400 2.711500
33.186500 2.757100
33.223600 2.821800
33.260700 2.897800
33.297800 2.897900
33.334900 2.845000
33.372000 2.846900
33.409100 2.887800
33.446200 2.857300
33.483300 2.860700
33.520400 2.930600
33.557500 2.989900
33.594600 2.981500
33.631700 2.988100
33.668800 2.981500
33.705900 2.936500
33.743000 2.847600
33.780100 2.764700
33.817200 2.699800
33.854300 2.625400
33.891400 2.578100
33.928500 2.580100
33.965600 2.618200
34.002700 2.697600
34.039800 2.813900
34.076900 2.968000
34.114000 3.050100
34.151000 3.132600
34.188100 3.135200
34.225200 3.136700
34.262300 3.179000
34.299400 3.195800
34.336500 3.227900
34.373600 3.237600
34.410700 3.250000
34.447800 3.242500
34.484900 3.188500
34.522000 3.189500
34.559100 3.202500
34.596200 3.236100
34.633300 3.208300
34.670400 3.156500
34.707500 3.099800
34.744600 3.025300
34.781700 2.924900
34.818800 2.835600
34.855900 2.860600
34.893000 2.949500
34.930100 3.020700
34.967200 3.086700
35.004300 3.098700
35.041400 3.095300
35.078500 3.053500
35.115600 3.037900
35.152700 3.032600
35.189700 3.082800
35.226800 3.122200
35.263900 3.190100
35.301000 3.192200
35.338100 3.118500
35.375200 2.952300
35.412300 2.831400
35.449400 2.700300
35.486500 2.655200
35.523600 2.662300
35.560700 2.652200
35.597800 2.656900
35.634900 2.649500
35.672000 2.614200
35.709100 2.569600
35.746200 2.542200
35.783300 2.510600
35.820400 2.525800
35.857500 2.479600
35.894600 2.456500
35.931700 2.441200
35.968800 2.418200
36.005900 2.372800
36.043000 2.384900
36.080100 2.412300
36.117200 2.421900
36.154300 2.379600
36.191400 2.353100
36.228500 2.315300
36.265500 2.293500
36.302600 2.320000
36.339700 2.342200
36.376800 2.365900
36.413900 2.396300
36.451000 2.421000
36.488100 2.459400
36.525200 2.496000
36.562300 2.564800
36.599400 2.622500
36.636500 2.709200
36.673600 2.769000
36.710700 2.847500
36.747800 2.947400
36.784900 3.015400
36.822000 3.010000
36.859100 2.886500
36.896200 2.685900
36.933300 2.594400
36.970400 2.464100
37.007500 2.519400
37.044600 2.598100
37.081700 2.719400
37.118800 2.831500
37.155900 2.983500
37.193000 3.086400
37.230100 3.174600
37.267200 3.112400
37.304300 2.839100
37.341300 2.545700
37.378400 2.362600
37.415500 2.253600
37.452600 2.170100
37.489700 2.108800
37.526800 2.084400
37.563900 2.105800
37.601000 2.167700
37.638100 2.204500
37.675200 2.267600
37.712300 2.347400
37.749400 2.444000
37.786500 2.550300
37.823600 2.674200
37.860700 2.770200
37.897800 2.825600
37.934900 2.849100
37.972000 2.843000
38.009100 2.814300
38.046200 2.750000
38.083300 2.654500
38.120400 2.596800
38.157500 2.500000
38.194600 2.433200
38.231700 2.349300
38.268800 2.220200
38.305900 2.136900
38.343000 2.091900
38.380100 2.090900
38.417100 2.126100
38.454200 2.201500
38.491300 2.283000
38.528400 2.402700
38.565500 2.444400
38.602600 2.470300
38.639700 2.502200
38.676800 2.468800
38.713900 2.391000
38.751000 2.333300
38.788100 2.213300
38.825200 2.155400
38.862300 2.117700
38.899400 2.103100
38.936500 2.067700
38.973600 2.086200
39.010700 2.067800
39.047800 2.026600
39.084900 2.025600
39.122000 2.040500
39.159100 2.073700
39.196200 2.106700
39.233300 2.174100
39.270400 2.196100
39.307500 2.263100
39.344600 2.298100
39.381700 2.289100
39.418800 2.296500
39.455900 2.233800
39.492900 2.229400
39.530000 2.198800
39.567100 2.192000
39.604200 2.194200
39.641300 2.216000
39.678400 2.227500
39.715500 2.240100
39.752600 2.239000
39.789700 2.249600
39.826800 2.252000
39.863900 2.261100
39.901000 2.316700
39.938100 2.353900
39.975200 2.335200
40.012300 2.325800
40.049400 2.347300
40.086500 2.346000
40.123600 2.339300
40.160700 2.336600
40.197800 2.352900
40.234900 2.399900
40.272000 2.446800
40.309100 2.487800
40.346200 2.534000
40.383300 2.581000
40.420400 2.657700
40.457500 2.742600
40.494600 2.754900
40.531700 2.719300
40.568700 2.754700
40.605800 2.767400
40.642900 2.762500
40.680000 2.733300
40.717100 2.715200
40.754200 2.663600
40.791300 2.698700
40.828400 2.730000
40.865500 2.734800
40.902600 2.707000
40.939700 2.658300
40.976800 2.579900
41.013900 2.548400
41.051000 2.549800
41.088100 2.569200
41.125200 2.649900
41.162300 2.750600
41.199400 2.857400
41.236500 2.917100
41.273600 2.925300
41.310700 2.969800
41.347800 2.965800
41.384900 3.004700
41.422000 3.014900
41.459100 3.051400
41.496200 3.099100
41.533300 3.153500
41.570400 3.144000
41.607500 3.128600
41.644500 3.111300
41.681600 3.109800
41.718700 3.122100
41.755800 3.170600
41.792900 3.215000
41.830000 3.190100
41.867100 3.168300
41.904200 3.173700
41.941300 3.241200
41.978400 3.237300
42.015500 3.250400
42.052600 3.196000
42.089700 3.169600
42.126800 3.212700
42.163900 3.183100
42.201000 3.138600
42.238100 3.113900
42.275200 3.111300
42.312300 3.144500
42.349400 3.152200
42.386500 3.158500
42.423600 3.138700
42.460700 3.127300
42.497800 3.146600
42.534900 3.128200
42.572000 3.156700
42.609100 3.104400
42.646200 3.094800
42.683300 3.101200
42.720300 3.072100
42.757400 3.048600
42.794500 3.023700
42.831600 3.014500
42.868700 3.025400
42.905800 3.000700
42.942900 3.040900
42.980000 3.029500
43.017100 3.064100
43.054200 3.133500
43.091300 3.213200
43.128400 3.319500
43.165500 3.372000
43.202600 3.359600
43.239700 3.278700
43.276800 3.191400
43.313900 3.097000
43.351000 3.028500
43.388100 2.936800
43.425200 2.849600
43.462300 2.808800
43.499400 2.791100
43.536500 2.819200
43.573600 2.888400
43.610700 3.024000
43.647800 3.170900
43.684900 3.045900
43.722000 3.112200
43.759100 3.108900
43.796100 3.195600
43.833200 3.264500
43.870300 3.283400
43.907400 3.280600
43.944500 3.234300
43.981600 3.227200
44.018700 3.163300
44.055800 3.119100
44.092900 3.086300
44.130000 2.995700
44.167100 2.911200
44.204200 2.829100
44.241300 2.802100
44.278400 2.826000
44.315500 2.899800
44.352600 3.035200
44.389700 3.216500
44.426800 3.431100
44.463900 3.506800
44.501000 3.518000
44.538100 3.517500
44.575200 3.558100
44.612300 3.524800
44.649400 3.479000
44.686500 3.447400
44.723600 3.352700
44.760700 3.260000
44.797800 3.198100
44.834900 3.110500
44.871900 3.068400
44.909000 3.035100
44.946100 3.058100
44.983200 3.115200
45.020300 3.203800
45.057400 3.258600
45.094500 3.351800
45.131600 3.264800
45.168700 3.174500
45.205800 3.144400
45.242900 3.109600
45.280000 3.070200
45.317100 3.040500
45.354200 3.001600
45.391300 2.931900
45.428400 2.879700
45.465500 2.901800
45.502600 3.043400
45.539700 3.085500
45.576800 3.129500
45.613900 3.191600
45.651000 3.166600
45.688100 3.093100
45.725200 2.971100
45.762300 2.902400
45.799400 2.922300
45.836500 2.949800
45.873600 3.009400
45.910700 3.095100
45.947700 3.159800
45.984800 3.205700
46.021900 3.224300
46.059000 3.236500
46.096100 3.274500
46.133200 3.332500
46.170300 3.399100
46.207400 3.494700
46.244500 3.464300
46.281600 3.458700
46.318700 3.463900
46.355800 3.447500
46.392900 3.485600
46.430000 3.477900
46.467100 3.562300
46.504200 3.550300
46.541300 3.381200
46.578400 3.237200
46.615500 3.145000
46.652600 2.982100
46.689700 2.972300
46.726800 3.102100
46.763900 3.180300
46.801000 3.218500
46.838100 3.289200
46.875200 3.262100
46.912300 3.246700
46.949400 3.258700
46.986500 3.269700
47.023500 3.245300
47.060600 3.166500
47.097700 3.166400
47.134800 3.179700
47.171900 3.271200
47.209000 3.280100
47.246100 3.287800
47.283200 3.267800
47.320300 3.246700
47.357400 3.200200
47.394500 3.182600
47.431600 3.211300
47.468700 3.236100
47.505800 3.278600
47.542900 3.265700
47.580000 3.247000
47.617100 3.226800
47.654200 3.229600
47.691300 3.169000
47.728400 3.115000
47.765500 3.049200
47.802600 3.008000
47.839700 2.981100
47.876800 2.987000
47.913900 3.015900
47.951000 3.097300
47.988100 3.179900
48.025200 3.273400
48.062300 3.265400
48.099300 3.316500
48.136400 3.254900
48.173500 3.229000
48.210600 3.248100
48.247700 3.214700
48.284800 3.271300
48.321900 3.388700
48.359000 3.338700
48.396100 3.233900
48.433200 3.119800
48.470300 3.053100
48.507400 3.045700
48.544500 3.030900
48.581600 3.046600
48.618700 3.079600
48.655800 3.130800
48.692900 3.172400
48.730000 3.198600
48.767100 3.159400
48.804200 3.168800
48.841300 3.155500
48.878400 3.147400
48.915500 3.119000
48.952600 3.055000
48.989700 2.991700
49.026800 2.952400
49.063900 2.943800
49.101000 2.921700
49.138100 2.979400
49.175100 3.018700
49.212200 3.044400
49.249300 3.110200
49.286400 3.085500
49.323500 3.113600
49.360600 3.114400
49.397700 3.115800
49.434800 3.106200
49.471900 3.077300
49.509000 3.040200
49.546100 3.073300
49.583200 2.962400
49.620300 2.950100
49.657400 2.869400
49.694500 2.789400
49.731600 2.788200
49.768700 2.932300
49.805800 3.048800
49.842900 3.311400
49.880000 3.437300
49.917100 3.522700
49.954200 3.665400
49.991300 3.609200
50.028400 3.498200
50.065500 3.443000
50.102600 3.394800
50.139700 3.356700
50.176800 3.367100
50.213900 3.328000
50.250900 3.288500
50.288000 3.289400
50.325100 3.179800
50.362200 3.195600
50.399300 3.245400
50.436400 3.242000
50.473500 3.233200
50.510600 3.299900
50.547700 3.438200
50.584800 3.677400
50.621900 3.897700
50.659000 3.897200
50.696100 3.833200
50.733200 3.731300
50.770300 3.599500
50.807400 3.459400
50.844500 3.356300
50.881600 3.217000
50.918700 3.127800
50.955800 3.105600
50.992900 3.078800
51.030000 3.113800
51.067100 3.262500
51.104200 3.393700
51.141300 3.415400
51.178400 3.408800
51.215500 3.389600
51.252600 3.363000
51.289700 3.344200
51.326700 3.359000
51.363800 3.387900
51.400900 3.449300
51.438000 3.459900
51.475100 3.427000
51.512200 3.475900
51.549300 3.477400
51.586400 3.401900
51.623500 3.371400
51.660600 3.362900
51.697700 3.371700
51.734800 3.372600
51.771900 3.399800
51.809000 3.336400
51.846100 3.321700
51.883200 3.341400
51.920300 3.325600
51.957400 3.248600
51.994500 3.109500
52.031600 3.011300
52.068700 2.966000
52.105800 2.910100
52.142900 3.001300
52.180000 3.020200
52.217100 3.015200
52.254200 3.098000
52.291300 3.204000
52.328400 3.228700
52.365500 3.278700
52.402500 3.357200
52.439600 3.381300
52.476700 3.317800
52.513800 3.264400
52.550900 3.167200
52.588000 3.122600
52.625100 3.152200
52.662200 3.123500
52.699300 3.155600
52.736400 3.226700
52.773500 3.263300
52.810600 3.311900
52.847700 3.332700
52.884800 3.297900
52.921900 3.310000
52.959000 3.197000
52.996100 3.123100
53.033200 3.114200
53.070300 3.104500
53.107400 3.072100
53.144500 3.099000
53.181600 3.173400
53.218700 3.222500
53.255800 3.318200
53.292900 3.396200
53.330000 3.454200
53.367100 3.424800
53.404200 3.373600
53.441300 3.254900
53.478300 3.205600
53.515400 3.175600
53.552500 3.193100
53.589600 3.216200
53.626700 3.173200
53.663800 3.156900
53.700900 3.150500
53.738000 3.161000
53.775100 3.161400
53.812200 3.132300
53.849300 3.147800
53.886400 3.175000
53.923500 3.189500
53.960600 3.304600
53.997700 3.360200
54.034800 3.347500
54.071900 3.358600
54.109000 3.414000
54.146100 3.525100
54.183200 3.591500
54.220300 3.643900
54.257400 3.652700
54.294500 3.704300
54.331600 3.711900
54.368700 3.659300
54.405800 3.655000
54.442900 3.746800
54.480000 3.626300
54.517100 3.389300
54.554100 3.272000
54.591200 3.106200
54.628300 2.987000
54.665400 2.917400
54.702500 2.932100
54.739600 2.922800
54.776700 2.940500
54.813800 3.005300
54.850900 3.077700
54.888000 3.190300
54.925100 3.227400
54.962200 3.248500
54.999300 3.250300
55.036400 3.254900
55.073500 3.267200
55.110600 3.350700
55.147700 3.440200
55.184800 3.475300
55.221900 3.465200
55.259000 3.450100
55.296100 3.425200
55.333200 3.394900
55.370300 3.320800
55.407400 3.240500
55.444500 3.257500
55.481600 3.287300
55.518700 3.311900
55.555800 3.313900
55.592900 3.379600
55.629900 3.337800
55.667000 3.264400
55.704100 3.224900
55.741200 3.209900
55.778300 3.224200
55.815400 3.235000
55.852500 3.247600
55.889600 3.295200
55.926700 3.357900
55.963800 3.497900
56.000900 3.437700
56.038000 3.477800
56.075100 3.527200
56.112200 3.565800
56.149300 3.587900
56.186400 3.582600
56.223500 3.543300
56.260600 3.549500
56.297700 3.568900
56.334800 3.571000
56.371900 3.624900
56.409000 3.599600
56.446100 3.514300
56.483200 3.530100
56.520300 3.518000
56.557400 3.484800
56.594500 3.483500
56.631600 3.524000
56.668700 3.533000
56.705700 3.571000
56.742800 3.554100
56.779900 3.493000
56.817000 3.433100
56.854100 3.414100
56.891200 3.389700
56.928300 3.316300
56.965400 3.256900
57.002500 3.247400
57.039600 3.258400
57.076700 3.341000
57.113800 3.395200
57.150900 3.386300
57.188000 3.353300
57.225100 3.365600
57.262200 3.382600
57.299300 3.419700
57.336400 3.462900
57.373500 3.470100
57.410600 3.502400
57.447700 3.497500
57.484800 3.501300
57.521900 3.537000
57.559000 3.590000
57.596100 3.684100
57.633200 3.746500
57.670300 3.786400
57.707400 3.759300
57.744500 3.759900
57.781500 3.764400
57.818600 3.772600
57.855700 3.794000
57.892800 3.757400
57.929900 3.739400
57.967000 3.733100
58.004100 3.772700
58.041200 3.803400
58.078300 3.917700
58.115400 3.802900
58.152500 3.742000
58.189600 3.685600
58.226700 3.566200
58.263800 3.492400
58.300900 3.500200
58.338000 3.507900
58.375100 3.525200
58.412200 3.516600
58.449300 3.534400
58.486400 3.583400
58.523500 3.631300
58.560600 3.657900
58.597700 3.707400
58.634800 3.753100
58.671900 3.758600
58.709000 3.775600
58.746100 3.726100
58.783200 3.726500
58.820300 3.714300
58.857300 3.756300
58.894400 3.802000
58.931500 3.801500
58.968600 3.831300
59.005700 3.855900
59.042800 3.837100
59.079900 3.829800
59.117000 3.892400
59.154100 3.844400
59.191200 3.909800
59.228300 3.957900
59.265400 4.010400
59.302500 4.077000
59.339600 4.117900
59.376700 4.108000
59.413800 4.074700
59.450900 3.986900
59.488000 3.890500
59.525100 3.801300
59.562200 3.720600
59.599300 3.641200
59.636400 3.528700
59.673500 3.451000
59.710600 3.398600
59.747700 3.345700
59.784800 3.369000
59.821900 3.349100
59.859000 3.344400
59.896100 3.343900
59.933100 3.330800
59.970200 3.323700
60.007300 3.283200
60.044400 3.235600
60.081500 3.175200
60.118600 3.113500
60.155700 3.016400
60.192800 2.930500
60.229900 2.899600
60.267000 2.875100
60.304100 2.864700
60.341200 2.838100
60.378300 2.835400
60.415400 2.848200
60.452500 2.866500
60.489600 2.831200
60.526700 2.808200
60.563800 2.843700
60.600900 2.794000
60.638000 2.788900
60.675100 2.739800
60.712200 2.722800
60.749300 2.671600
60.786400 2.641300
60.823500 2.575100
60.860600 2.475200
60.897700 2.343800
60.934800 2.231000
60.971900 2.142700
61.008900 2.039200
61.046000 1.985600
61.083100 1.941600
61.120200 1.932700
61.157300 1.916800
61.194400 1.879700
61.231500 1.841500
61.268600 1.799400
61.305700 1.764800
61.342800 1.714000
61.379900 1.630400
61.417000 1.513100
61.454100 1.422500
61.491200 1.313000
61.528300 1.196600
61.565400 1.094200
61.602500 0.999400
61.639600 0.928300
61.676700 0.873900
61.713800 0.840800
61.750900 0.771800
61.788000 0.648100
61.825100 0.565100
61.862200 0.472600
61.899300 0.427500
61.936400 0.415800
61.973500 0.433300
62.010600 0.422400
62.047700 0.365700
62.084700 0.341000
62.121800 0.306200
62.158900 0.264600
62.196000 0.221700
62.233100 0.187900
62.270200 0.153300
62.307300 0.131900
62.344400 0.136700
62.381500 0.139000
62.418600 0.165700
62.455700 0.121900
62.492800 0.100100
62.529900 0.080300
62.567000 0.071200
62.604100 0.052200
62.641200 0.030400
62.678300 0.006100
62.715400 0.003100
62.752500 0.001400
62.789600 0.000400
62.826700 0.000000
62.863800 0.000000
62.900900 0.000000
62.938000 0.000000
62.975100 0.000000
63.012200 0.000000
63.049300 0.000000
63.086400 0.000000
63.123500 0.000000
63.160500 0.000000
63.197600 0.000000
63.234700 0.000000
63.271800 0.000000
63.308900 0.000000
63.346000 0.000000
63.383100 0.000000
63.420200 0.000000
63.457300 0.000000
63.494400 0.000000
63.531500 0.000000
63.568600 0.000000
63.605700 0.000000
63.642800 0.000000
63.679900 0.000000
63.717000 0.000000
63.754100 0.000000
63.791200 0.000000
63.828300 0.000000
63.865400 0.000000
63.902500 0.000000
63.939600 0.000000
63.976700 0.000000
64.013800 0.000000
64.050900 0.000000
64.088000 0.000000
64.125100 0.000000
64.162200 0.000000
64.199300 0.000000
64.236300 0.000000
64.273400 0.000000
64.310500 0.000000
64.347600 0.000000
64.384700 0.000000
64.421800 0.000000
64.458900 0.000000
64.496000 0.000000
64.533100 0.000000
64.570200 0.000000
64.607300 0.000000
64.644400 0.000000
64.681500 0.000000
64.718600 0.000000
64.755700 0.000000
64.792800 0.000000
64.829900 0.000000
64.867000 0.000000
64.904100 0.000000
64.941200 0.000000
64.978300 0.000000
65.015400 0.000000
65.052500 0.000000
65.089600 0.000000
65.126700 0.000000
65.163800 0.000000
65.200900 0.000000
65.238000 0.000000
65.275100 0.000000
65.312100 0.000000
65.349200 0.000000
65.386300 0.000000
65.423400 0.000000
65.460500 0.000000
65.497600 0.000000
65.534700 0.000000
65.571800 0.000000
65.608900 0.000000
65.646000 0.000000
65.683100 0.000000
65.720200 0.000000
65.757300 0.000000
65.794400 0.000000
65.831500 0.000000
65.868600 0.000000
65.905700 0.000000
65.942800 0.000000
65.979900 0.000000
66.017000 0.000000
66.054100 0.000000
66.091200 0.000000
66.128300 0.000000
66.165400 0.000000
66.202500 0.000000
e
