set title 'mp-1072089 - Density of States'
set xlabel 'Energy (eV)'
set ylabel 'DOS (states/eV)'
set grid
set xrange [-10:10]
set yrange [0:19.694]
set xzeroaxis lt -1
set terminal png size 800,600
set output 'mp-1072089_dos_gnuplot.png'
plot '-' using 1:2 with lines title 'DOS'
-6.179700 0.000000
-6.152400 0.000000
-6.125100 0.000000
-6.097800 0.000000
-6.070600 0.000000
-6.043300 0.000000
-6.016000 0.000000
-5.988700 0.000000
-5.961500 0.000000
-5.934200 0.000000
-5.906900 0.000000
-5.879700 0.000000
-5.852400 0.000000
-5.825100 0.000000
-5.797800 0.000000
-5.770600 0.000000
-5.743300 0.000000
-5.716000 0.000000
-5.688700 0.000000
-5.661500 0.000000
-5.634200 0.000000
-5.606900 0.000000
-5.579600 0.000000
-5.552400 0.000000
-5.525100 0.000000
-5.497800 0.000000
-5.470600 0.000000
-5.443300 0.000000
-5.416000 0.000000
-5.388700 0.000000
-5.361500 0.000000
-5.334200 0.000000
-5.306900 0.000000
-5.279600 0.000000
-5.252400 0.000000
-5.225100 0.000000
-5.197800 0.000000
-5.170600 0.000000
-5.143300 0.000000
-5.116000 0.000000
-5.088700 0.000000
-5.061500 0.000000
-5.034200 0.000000
-5.006900 0.000000
-4.979600 0.000000
-4.952400 0.000000
-4.925100 0.000000
-4.897800 0.000000
-4.870600 0.000000
-4.843300 0.000000
-4.816000 0.000000
-4.788700 0.000000
-4.761500 0.000000
-4.734200 0.000000
-4.706900 0.000000
-4.679600 0.000000
-4.652400 0.000000
-4.625100 0.000000
-4.597800 0.000000
-4.570500 0.000000
-4.543300 0.000000
-4.516000 0.000000
-4.488700 0.000000
-4.461500 0.000000
-4.434200 0.000000
-4.406900 0.000000
-4.379600 0.000000
-4.352400 0.000000
-4.325100 0.000000
-4.297800 0.000000
-4.270500 0.000000
-4.243300 0.000000
-4.216000 0.000000
-4.188700 0.000000
-4.161500 0.000000
-4.134200 0.000000
-4.106900 0.000000
-4.079600 0.000000
-4.052400 0.000000
-4.025100 0.000000
-3.997800 0.000000
-3.970500 0.000000
-3.943300 0.000000
-3.916000 0.000000
-3.888700 0.000000
-3.861500 0.000000
-3.834200 0.000000
-3.806900 0.000000
-3.779600 0.000000
-3.752400 0.000000
-3.725100 0.000000
-3.697800 0.000000
-3.670500 0.025100
-3.643300 0.047600
-3.616000 0.057600
-3.588700 0.066000
-3.561400 0.074800
-3.534200 0.086500
-3.506900 0.092400
-3.479600 0.097100
-3.452400 0.102700
-3.425100 0.109500
-3.397800 0.116900
-3.370500 0.124200
-3.343300 0.127900
-3.316000 0.131700
-3.288700 0.136500
-3.261400 0.141500
-3.234200 0.146500
-3.206900 0.151600
-3.179600 0.157400
-3.152400 0.162100
-3.125100 0.166000
-3.097800 0.169400
-3.070500 0.173300
-3.043300 0.177400
-3.016000 0.181600
-2.988700 0.186000
-2.961400 0.190600
-2.934200 0.195400
-2.906900 0.200300
-2.879600 0.203400
-2.852300 0.206500
-2.825100 0.210100
-2.797800 0.213900
-2.770500 0.217600
-2.743300 0.221400
-2.716000 0.225400
-2.688700 0.229500
-2.661400 0.233500
-2.634200 0.237800
-2.606900 0.242200
-2.579600 0.245500
-2.552300 0.248800
-2.525100 0.252300
-2.497800 0.255900
-2.470500 0.259400
-2.443300 0.262900
-2.416000 0.266600
-2.388700 0.270600
-2.361400 0.274600
-2.334200 0.278700
-2.306900 0.282800
-2.279600 0.287100
-2.252300 0.290900
-2.225100 0.294400
-2.197800 0.297900
-2.170500 0.301500
-2.143300 0.305300
-2.116000 0.309200
-2.088700 0.313200
-2.061400 0.317400
-2.034200 0.321600
-2.006900 0.325800
-1.979600 0.330100
-1.952300 0.334500
-1.925100 0.339000
-1.897800 0.343500
-1.870500 0.348200
-1.843200 0.352700
-1.816000 0.357300
-1.788700 0.362200
-1.761400 0.367200
-1.734200 0.372300
-1.706900 0.377800
-1.679600 0.383500
-1.652300 0.389700
-1.625100 0.396300
-1.597800 0.403800
-1.570500 0.412200
-1.543200 0.422000
-1.516000 0.434600
-1.488700 0.451100
-1.461400 0.466100
-1.434200 0.480300
-1.406900 0.489200
-1.379600 0.501400
-1.352300 0.503200
-1.325100 0.485900
-1.297800 0.469400
-1.270500 0.465900
-1.243200 0.473700
-1.216000 0.475600
-1.188700 0.455600
-1.161400 0.452200
-1.134200 0.440800
-1.106900 0.431300
-1.079600 0.424900
-1.052300 0.419400
-1.025100 0.427200
-0.997800 0.421900
-0.970500 0.413100
-0.943200 0.403000
-0.916000 0.396200
-0.888700 0.388000
-0.861400 0.383400
-0.834100 0.370900
-0.806900 0.364400
-0.779600 0.362300
-0.752300 0.405700
-0.725100 0.420700
-0.697800 0.443600
-0.670500 0.473000
-0.643200 0.476600
-0.616000 0.483300
-0.588700 0.558100
-0.561400 0.568800
-0.534100 0.566100
-0.506900 0.580300
-0.479600 0.568000
-0.452300 0.592300
-0.425100 0.610400
-0.397800 0.552100
-0.370500 0.511800
-0.343200 0.489800
-0.316000 0.479800
-0.288700 0.458100
-0.261400 0.460400
-0.234100 0.470500
-0.206900 0.486800
-0.179600 0.563200
-0.152300 0.610800
-0.125000 0.616500
-0.097800 0.674100
-0.070500 0.717200
-0.043200 0.796500
-0.016000 1.034000
0.011300 1.092600
0.038600 1.014700
0.065900 1.003300
0.093100 1.067100
0.120400 1.009900
0.147700 0.913600
0.175000 0.943500
0.202200 1.020900
0.229500 1.087600
0.256800 1.176500
0.284000 1.298600
0.311300 1.630600
0.338600 1.946300
0.365900 1.937400
0.393100 1.916000
0.420400 1.964000
0.447700 1.689000
0.475000 1.422500
0.502200 1.262700
0.529500 1.197000
0.556800 1.152900
0.584000 1.148400
0.611300 1.044200
0.638600 1.034200
0.665900 1.016300
0.693100 1.012200
0.720400 1.016400
0.747700 1.036700
0.775000 1.083300
0.802200 1.087600
0.829500 1.222600
0.856800 1.525200
0.884100 1.569800
0.911300 1.614400
0.938600 1.728900
0.965900 1.961200
0.993100 2.820600
1.020400 3.835000
1.047700 2.960200
1.075000 2.594100
1.102200 2.612500
1.129500 2.503900
1.156800 2.734100
1.184100 3.168700
1.211300 2.884400
1.238600 2.547800
1.265900 2.397600
1.293100 2.354500
1.320400 2.250800
1.347700 2.448800
1.375000 2.066900
1.402200 2.416400
1.429500 2.677600
1.456800 3.167700
1.484100 3.660300
1.511300 2.380200
1.538600 2.341300
1.565900 2.706500
1.593200 3.308200
1.620400 3.969600
1.647700 3.710700
1.675000 3.645300
1.702200 3.402800
1.729500 3.392000
1.756800 3.346600
1.784100 3.312000
1.811300 3.316000
1.838600 3.476100
1.865900 3.609900
1.893200 3.348700
1.920400 3.211000
1.947700 2.952100
1.975000 2.734300
2.002200 2.526000
2.029500 2.485500
2.056800 2.457500
2.084100 2.384100
2.111300 2.381400
2.138600 2.158500
2.165900 2.087800
2.193200 1.914500
2.220400 1.680700
2.247700 1.268300
2.275000 1.403700
2.302200 1.829800
2.329500 3.118100
2.356800 2.964200
2.384100 3.882600
2.411300 4.000900
2.438600 4.402600
2.465900 5.180500
2.493200 5.836700
2.520400 7.336100
2.547700 8.590700
2.575000 7.694300
2.602300 7.244700
2.629500 8.378200
2.656800 8.801600
2.684100 8.365400
2.711300 8.190800
2.738600 8.120300
2.765900 6.765500
2.793200 6.430200
2.820400 5.918900
2.847700 5.661000
2.875000 5.921300
2.902300 6.257000
2.929500 7.122000
2.956800 6.369000
2.984100 5.900300
3.011300 6.426600
3.038600 7.497700
3.065900 11.646100
3.093200 10.646400
3.120400 10.408800
3.147700 11.630300
3.175000 9.337300
3.202300 9.741100
3.229500 11.735800
3.256800 12.742600
3.284100 11.214400
3.311300 8.960000
3.338600 9.354200
3.365900 10.033000
3.393200 8.794000
3.420400 8.118900
3.447700 6.793500
3.475000 6.628200
3.502300 4.983300
3.529500 2.975000
3.556800 2.437500
3.584100 1.977700
3.611400 1.594900
3.638600 1.283000
3.665900 1.030800
3.693200 0.770400
3.720400 0.472500
3.747700 0.539400
3.775000 0.626600
3.802300 0.806900
3.829500 2.839300
3.856800 1.683000
3.884100 1.843100
3.911400 2.076800
3.938600 1.930300
3.965900 2.002500
3.993200 2.079600
4.020400 2.167700
4.047700 2.222400
4.075000 2.295200
4.102300 2.398100
4.129500 2.584900
4.156800 2.730700
4.184100 2.918400
4.211400 3.336500
4.238600 3.810200
4.265900 5.255400
4.293200 6.349600
4.320500 6.237100
4.347700 8.655500
4.375000 5.780700
4.402300 5.459800
4.429500 4.964600
4.456800 6.135400
4.484100 6.748600
4.511400 8.471200
4.538600 7.754400
4.565900 6.971900
4.593200 8.752800
4.620500 12.963300
4.647700 11.417100
4.675000 4.982100
4.702300 3.755500
4.729500 3.346900
4.756800 3.822100
4.784100 2.788800
4.811400 2.364000
4.838600 2.285000
4.865900 2.886900
4.893200 3.506400
4.920500 3.555300
4.947700 2.275000
4.975000 1.240000
5.002300 1.905800
5.029500 3.187700
5.056800 5.275700
5.084100 7.310700
5.111400 6.846000
5.138600 6.695600
5.165900 6.257900
5.193200 7.117600
5.220500 8.926800
5.247700 11.012900
5.275000 11.020100
5.302300 8.100100
5.329600 10.999800
5.356800 10.666200
5.384100 11.636000
5.411400 10.922500
5.438600 11.495200
5.465900 12.158900
5.493200 10.761700
5.520500 10.027300
5.547700 9.286100
5.575000 9.777400
5.602300 6.940800
5.629600 11.356400
5.656800 12.025800
5.684100 10.946800
5.711400 13.437600
5.738600 15.441200
5.765900 17.903900
5.793200 10.007800
5.820500 11.074600
5.847700 9.334700
5.875000 8.923200
5.902300 8.007500
5.929600 7.727300
5.956800 7.421500
5.984100 4.791200
6.011400 4.172900
6.038600 3.520500
6.065900 3.239200
6.093200 2.928300
6.120500 2.726100
6.147700 2.444500
6.175000 2.436000
6.202300 2.522700
6.229600 2.504400
6.256800 2.623700
6.284100 2.660000
6.311400 2.617300
6.338700 2.658200
6.365900 2.559400
6.393200 2.544000
6.420500 2.523400
6.447700 2.635700
6.475000 2.416300
6.502300 2.415800
6.529600 2.531000
6.556800 2.802700
6.584100 2.497300
6.611400 2.146700
6.638700 1.679100
6.665900 1.733300
6.693200 1.630600
6.720500 1.600800
6.747700 1.595000
6.775000 1.444300
6.802300 1.361600
6.829600 1.273400
6.856800 1.238000
6.884100 1.277700
6.911400 1.130200
6.938700 1.029400
6.965900 1.040100
6.993200 1.053900
7.020500 1.074200
7.047800 1.089300
7.075000 1.100300
7.102300 1.111500
7.129600 1.131700
7.156800 1.161400
7.184100 1.186200
7.211400 1.208300
7.238700 1.247100
7.265900 1.283200
7.293200 1.310000
7.320500 1.359400
7.347800 1.443300
7.375000 1.548900
7.402300 1.602500
7.429600 1.501500
7.456800 1.490800
7.484100 1.454700
7.511400 1.484200
7.538700 1.478100
7.565900 1.423200
7.593200 1.323400
7.620500 1.253700
7.647800 1.183900
7.675000 1.064600
7.702300 1.019300
7.729600 0.939300
7.756800 0.950600
7.784100 0.935100
7.811400 0.943000
7.838700 1.011600
7.865900 1.061300
7.893200 1.269700
7.920500 1.238600
7.947800 1.007600
7.975000 0.763800
8.002300 0.626100
8.029600 0.560900
8.056900 0.542800
8.084100 0.711400
8.111400 0.754300
8.138700 0.892700
8.165900 0.989900
8.193200 1.054400
8.220500 1.122100
8.247800 1.177100
8.275000 1.208100
8.302300 1.257600
8.329600 1.230100
8.356900 1.163000
8.384100 1.080400
8.411400 0.951200
8.438700 0.942700
8.465900 0.912900
8.493200 0.899900
8.520500 0.919200
8.547800 0.924100
8.575000 0.923400
8.602300 0.957100
8.629600 1.004400
8.656900 0.976400
8.684100 0.976800
8.711400 0.974600
8.738700 0.973400
8.766000 0.974400
8.793200 0.992900
8.820500 0.996600
8.847800 0.965800
8.875000 0.954400
8.902300 0.944300
8.929600 0.977300
8.956900 0.919500
8.984100 0.834300
9.011400 0.755500
9.038700 0.678400
9.066000 0.636300
9.093200 0.601000
9.120500 0.569100
9.147800 0.542300
9.175000 0.515500
9.202300 0.490100
9.229600 0.468000
9.256900 0.448700
9.284100 0.431700
9.311400 0.420700
9.338700 0.403300
9.366000 0.386300
9.393200 0.370500
9.420500 0.355700
9.447800 0.345000
9.475000 0.328400
9.502300 0.314100
9.529600 0.303600
9.556900 0.294500
9.584100 0.291000
9.611400 0.289000
9.638700 0.288100
9.666000 0.286600
9.693200 0.285200
9.720500 0.285100
9.747800 0.285600
9.775100 0.283100
9.802300 0.281900
9.829600 0.282800
9.856900 0.284400
9.884100 0.286600
9.911400 0.289500
9.938700 0.293100
9.966000 0.297100
9.993200 0.318000
10.020500 0.321700
10.047800 0.325300
10.075100 0.328500
10.102300 0.318300
10.129600 0.323300
10.156900 0.327600
10.184100 0.326400
10.211400 0.329900
10.238700 0.333200
10.266000 0.336300
10.293200 0.339400
10.320500 0.346200
10.347800 0.354700
10.375100 0.361800
10.402300 0.368700
10.429600 0.374300
10.456900 0.379000
10.484100 0.383800
10.511400 0.388500
10.538700 0.393200
10.566000 0.396300
10.593200 0.400500
10.620500 0.404700
10.647800 0.410800
10.675100 0.424700
10.702300 0.430600
10.729600 0.436200
10.756900 0.448100
10.784200 0.441000
10.811400 0.445100
10.838700 0.442500
10.866000 0.448500
10.893200 0.468600
10.920500 0.486600
10.947800 0.469000
10.975100 0.470000
11.002300 0.474800
11.029600 0.479000
11.056900 0.486400
11.084200 0.497500
11.111400 0.516100
11.138700 0.509600
11.166000 0.523400
11.193200 0.554000
11.220500 0.593100
11.247800 0.630200
11.275100 0.654000
11.302300 0.664400
11.329600 0.669700
11.356900 0.706500
11.384200 0.721500
11.411400 0.723300
11.438700 0.687100
11.466000 0.647900
11.493300 0.599400
11.520500 0.579500
11.547800 0.570700
11.575100 0.592200
11.602300 0.625300
11.629600 0.651200
11.656900 0.678400
11.684200 0.664200
11.711400 0.640000
11.738700 0.653300
11.766000 0.670700
11.793300 0.662300
11.820500 0.650100
11.847800 0.651600
11.875100 0.659600
11.902300 0.664000
11.929600 0.666900
11.956900 0.663200
11.984200 0.659800
12.011400 0.662600
12.038700 0.658100
12.066000 0.662200
12.093300 0.662800
12.120500 0.664000
12.147800 0.668100
12.175100 0.681800
12.202300 0.677300
12.229600 0.706400
12.256900 0.731800
12.284200 0.752300
12.311400 0.784400
12.338700 0.769100
12.366000 0.776700
12.393300 0.784100
12.420500 0.790300
12.447800 0.801800
12.475100 0.820300
12.502400 0.859700
12.529600 0.846700
12.556900 0.875100
12.584200 0.904700
12.611400 0.934300
12.638700 0.953300
12.666000 0.967500
12.693300 0.896100
12.720500 0.869800
12.747800 0.854100
12.775100 0.854800
12.802400 0.849900
12.829600 0.835900
12.856900 0.714000
12.884200 0.714700
12.911400 0.684700
12.938700 0.704200
12.966000 0.696800
12.993300 0.693900
13.020500 0.699700
13.047800 0.704500
13.075100 0.714700
13.102400 0.745700
13.129600 0.795600
13.156900 0.853700
13.184200 0.902200
13.211500 0.931100
13.238700 0.979100
13.266000 1.038400
13.293300 1.083500
13.320500 1.215500
13.347800 1.179900
13.375100 1.174300
13.402400 1.190300
13.429600 1.228500
13.456900 1.175200
13.484200 1.166400
13.511500 1.156400
13.538700 1.139700
13.566000 1.145200
13.593300 1.151900
13.620500 1.128000
13.647800 1.105700
13.675100 1.081100
13.702400 1.062600
13.729600 1.072200
13.756900 1.088100
13.784200 1.093900
13.811500 1.157700
13.838700 1.123600
13.866000 1.141600
13.893300 1.168600
13.920500 1.188300
13.947800 1.226200
13.975100 1.228700
14.002400 1.240900
14.029600 1.256300
14.056900 1.259700
14.084200 1.283300
14.111500 1.252400
14.138700 1.215900
14.166000 1.173100
14.193300 1.134900
14.220600 1.070300
14.247800 1.051600
14.275100 1.036200
14.302400 1.022000
14.329600 1.007700
14.356900 0.996700
14.384200 0.991900
14.411500 0.994300
14.438700 0.983000
14.466000 0.975000
14.493300 0.973800
14.520600 0.975800
14.547800 0.983500
14.575100 0.980000
14.602400 0.978500
14.629600 0.972700
14.656900 0.970900
14.684200 0.967500
14.711500 0.962300
14.738700 0.958700
14.766000 0.956900
14.793300 0.959100
14.820600 0.965000
14.847800 0.912000
14.875100 0.908900
14.902400 0.914300
14.929600 1.001100
14.956900 0.976600
14.984200 0.997000
15.011500 1.016400
15.038700 1.018900
15.066000 1.016300
15.093300 1.001400
15.120600 0.985800
15.147800 0.969900
15.175100 0.960300
15.202400 0.958700
15.229700 0.925800
15.256900 0.916200
15.284200 0.910300
15.311500 0.904500
15.338700 0.924900
15.366000 0.965000
15.393300 0.996900
15.420600 1.031900
15.447800 1.010200
15.475100 1.012100
15.502400 1.072000
15.529700 1.032200
15.556900 1.035700
15.584200 1.040700
15.611500 1.040000
15.638700 1.042700
15.666000 1.197400
15.693300 1.191700
15.720600 1.217500
15.747800 1.203300
15.775100 1.209500
15.802400 1.236800
15.829700 1.232700
15.856900 1.252600
15.884200 1.240700
15.911500 1.245000
15.938800 1.262200
15.966000 1.260000
15.993300 1.212500
16.020600 1.222400
16.047800 1.249300
16.075100 1.261700
16.102400 1.239800
16.129700 1.236100
16.156900 1.240800
16.184200 1.257000
16.211500 1.260400
16.238800 1.282000
16.266000 1.305100
16.293300 1.308700
16.320600 1.302500
16.347800 1.314700
16.375100 1.304500
16.402400 1.269400
16.429700 1.228800
16.456900 1.245000
16.484200 1.171000
16.511500 1.099900
16.538800 1.072800
16.566000 1.050500
16.593300 1.022100
16.620600 1.002300
16.647800 0.975300
16.675100 0.951400
16.702400 0.935800
16.729700 0.928100
16.756900 1.015500
16.784200 1.016200
16.811500 1.012700
16.838800 1.010700
16.866000 1.004300
16.893300 0.992600
16.920600 0.974100
16.947900 1.002800
16.975100 1.000100
17.002400 1.001200
17.029700 1.017500
17.056900 1.046700
17.084200 1.096000
17.111500 1.105400
17.138800 1.119800
17.166000 1.125600
17.193300 1.123100
17.220600 1.108800
17.247900 1.109100
17.275100 1.129100
17.302400 1.118600
17.329700 1.075300
17.356900 1.082100
17.384200 1.100500
17.411500 1.113600
17.438800 1.129900
17.466000 1.155300
17.493300 1.229000
17.520600 1.178000
17.547900 1.217700
17.575100 1.216600
17.602400 1.269100
17.629700 1.254000
17.656900 1.215600
17.684200 1.208900
17.711500 1.221300
17.738800 1.239400
17.766000 1.232800
17.793300 1.231200
17.820600 1.221900
17.847900 1.221400
17.875100 1.183900
17.902400 1.155800
17.929700 1.157700
17.957000 1.189500
17.984200 1.207800
18.011500 1.231700
18.038800 1.226100
18.066000 1.199300
18.093300 1.194600
18.120600 1.186900
18.147900 1.187600
18.175100 1.190000
18.202400 1.264600
18.229700 1.232200
18.257000 1.299400
18.284200 1.296200
18.311500 1.314000
18.338800 1.330200
18.366000 1.316700
18.393300 1.295100
18.420600 1.296800
18.447900 1.288300
18.475100 1.297900
18.502400 1.285000
18.529700 1.281800
18.557000 1.287600
18.584200 1.286900
18.611500 1.234100
18.638800 1.192800
18.666100 1.176000
18.693300 1.155300
18.720600 1.157000
18.747900 1.168900
18.775100 1.230600
18.802400 1.256400
18.829700 1.262400
18.857000 1.235400
18.884200 1.250200
18.911500 1.288400
18.938800 1.295900
18.966100 1.354600
18.993300 1.323600
19.020600 1.348500
19.047900 1.391800
19.075100 1.431700
19.102400 1.423700
19.129700 1.374300
19.157000 1.379000
19.184200 1.382000
19.211500 1.392400
19.238800 1.414400
19.266100 1.427000
19.293300 1.418700
19.320600 1.335900
19.347900 1.317500
19.375100 1.312300
19.402400 1.319400
19.429700 1.375100
19.457000 1.435000
19.484200 1.459000
19.511500 1.491800
19.538800 1.540800
19.566100 1.600800
19.593300 1.642600
19.620600 1.662900
19.647900 1.596900
19.675200 1.584100
19.702400 1.680200
19.729700 1.599100
19.757000 1.539300
19.784200 1.505100
19.811500 1.498200
19.838800 1.488600
19.866100 1.487400
19.893300 1.484000
19.920600 1.479300
19.947900 1.467600
19.975200 1.451900
20.002400 1.449500
20.029700 1.442900
20.057000 1.437700
20.084200 1.448400
20.111500 1.445300
20.138800 1.404600
20.166100 1.383100
20.193300 1.362400
20.220600 1.332200
20.247900 1.321700
20.275200 1.336600
20.302400 1.334300
20.329700 1.302700
20.357000 1.254400
20.384300 1.209500
20.411500 1.193000
20.438800 1.197700
20.466100 1.196500
20.493300 1.188800
20.520600 1.195700
20.547900 1.202200
20.575200 1.210100
20.602400 1.187300
20.629700 1.167700
20.657000 1.159000
20.684300 1.103100
20.711500 1.084200
20.738800 1.075900
20.766100 1.072600
20.793300 1.070400
20.820600 1.066100
20.847900 1.056500
20.875200 1.007000
20.902400 0.985100
20.929700 0.981300
20.957000 0.969400
20.984300 1.049300
21.011500 1.066700
21.038800 1.042900
21.066100 1.009100
21.093300 0.992100
21.120600 0.999100
21.147900 1.011700
21.175200 1.034100
21.202400 1.059100
21.229700 1.088700
21.257000 1.131700
21.284300 1.126900
21.311500 1.119400
21.338800 1.106400
21.366100 1.104000
21.393400 1.103000
21.420600 1.019900
21.447900 0.973000
21.475200 0.936500
21.502400 0.901400
21.529700 0.868900
21.557000 0.839600
21.584300 0.844500
21.611500 0.835700
21.638800 0.826600
21.666100 0.813200
21.693400 0.809900
21.720600 0.812100
21.747900 0.861600
21.775200 0.917000
21.802400 0.980300
21.829700 1.034700
21.857000 1.119900
21.884300 1.200700
21.911500 1.247800
21.938800 1.320200
21.966100 1.424400
21.993400 1.490500
22.020600 1.606400
22.047900 1.631000
22.075200 1.680500
22.102400 1.733600
22.129700 1.885100
22.157000 2.036700
22.184300 2.194100
22.211500 1.967500
22.238800 1.544200
22.266100 1.471300
22.293400 1.527300
22.320600 1.342300
22.347900 1.186000
22.375200 1.135600
22.402500 1.194100
22.429700 1.210200
22.457000 1.234200
22.484300 1.256300
22.511500 1.229600
22.538800 1.183600
22.566100 1.140200
22.593400 1.112100
22.620600 1.118500
22.647900 1.136900
22.675200 1.156700
22.702500 1.187100
22.729700 1.193000
22.757000 1.184700
22.784300 1.168000
22.811500 1.164800
22.838800 1.143600
22.866100 1.121400
22.893400 1.104300
22.920600 1.100600
22.947900 1.074500
22.975200 1.064000
23.002500 1.056900
23.029700 1.028500
23.057000 1.061100
23.084300 1.004800
23.111600 0.967100
23.138800 0.967300
23.166100 0.979600
23.193400 0.975700
23.220600 0.976400
23.247900 0.984300
23.275200 0.977400
23.302500 0.967100
23.329700 0.948500
23.357000 0.906500
23.384300 0.886400
23.411600 0.888600
23.438800 0.897600
23.466100 0.908100
23.493400 0.923600
23.520600 0.931300
23.547900 0.945900
23.575200 0.993000
23.602500 1.131700
23.629700 1.264000
23.657000 1.246600
23.684300 1.220300
23.711600 1.166300
23.738800 1.148600
23.766100 1.179500
23.793400 1.190700
23.820600 1.131200
23.847900 1.118100
23.875200 1.147300
23.902500 1.273800
23.929700 1.188800
23.957000 1.162000
23.984300 1.161500
24.011600 1.177100
24.038800 1.146400
24.066100 1.144400
24.093400 1.166500
24.120700 1.186500
24.147900 1.209100
24.175200 1.224200
24.202500 1.240400
24.229700 1.212500
24.257000 1.204300
24.284300 1.190200
24.311600 1.198800
24.338800 1.227100
24.366100 1.262600
24.393400 1.234900
24.420700 1.203500
24.447900 1.094500
24.475200 1.096300
24.502500 1.319400
24.529700 1.375600
24.557000 1.189300
24.584300 1.216400
24.611600 1.229300
24.638800 1.226400
24.666100 1.213300
24.693400 1.193100
24.720700 1.155200
24.747900 1.149100
24.775200 1.156800
24.802500 1.197100
24.829700 1.184800
24.857000 1.166100
24.884300 1.143100
24.911600 1.125400
24.938800 1.098200
24.966100 1.091700
24.993400 1.108200
25.020700 1.130700
25.047900 1.093500
25.075200 1.046700
25.102500 1.019200
25.129800 0.992500
25.157000 0.977400
25.184300 0.987400
25.211600 0.961400
25.238800 0.958800
25.266100 0.982900
25.293400 1.077200
25.320700 1.106700
25.347900 1.132900
25.375200 1.173100
25.402500 1.180400
25.429800 1.211600
25.457000 1.243800
25.484300 1.335100
25.511600 1.361700
25.538800 1.441700
25.566100 1.468800
25.593400 1.451900
25.620700 1.453300
25.647900 1.388600
25.675200 1.339200
25.702500 1.365600
25.729800 1.515000
25.757000 1.595000
25.784300 1.498800
25.811600 1.663000
25.838900 1.429300
25.866100 1.339200
25.893400 1.281700
25.920700 1.221700
25.947900 1.166400
25.975200 1.189500
26.002500 1.197600
26.029800 1.183400
26.057000 1.170400
26.084300 1.118300
26.111600 1.061000
26.138900 1.050100
26.166100 1.039300
26.193400 1.030100
26.220700 1.028500
26.247900 1.050900
26.275200 1.094400
26.302500 1.121100
26.329800 1.165800
26.357000 1.217000
26.384300 1.157100
26.411600 1.101700
26.438900 1.075800
26.466100 1.053900
26.493400 1.039000
26.520700 1.028300
26.547900 1.053900
26.575200 1.046800
26.602500 1.061700
26.629800 1.106500
26.657000 1.148400
26.684300 1.178800
26.711600 1.207800
26.738900 1.248400
26.766100 1.298400
26.793400 1.369200
26.820700 1.443600
26.848000 1.500300
26.875200 1.512400
26.902500 1.492000
26.929800 1.495100
26.957000 1.454500
26.984300 1.427600
27.011600 1.380900
27.038900 1.363000
27.066100 1.362900
27.093400 1.346500
27.120700 1.337800
27.148000 1.313300
27.175200 1.308700
27.202500 1.337500
27.229800 1.387600
27.257000 1.432300
27.284300 1.475400
27.311600 1.557100
27.338900 1.563000
27.366100 1.582800
27.393400 1.683200
27.420700 1.666600
27.448000 1.722600
27.475200 1.766000
27.502500 1.767100
27.529800 1.747100
27.557100 1.694800
27.584300 1.759700
27.611600 1.472900
27.638900 1.371300
27.666100 1.273600
27.693400 1.234400
27.720700 1.261600
27.748000 1.334100
27.775200 1.401100
27.802500 1.455100
27.829800 1.480200
27.857100 1.422400
27.884300 1.382600
27.911600 1.366500
27.938900 1.358500
27.966100 1.357700
27.993400 1.335300
28.020700 1.339500
28.048000 1.399600
28.075200 1.487500
28.102500 1.391800
28.129800 1.400300
28.157100 1.432600
28.184300 1.518900
28.211600 1.546200
28.238900 1.533200
28.266100 1.487300
28.293400 1.445800
28.320700 1.377600
28.348000 1.350500
28.375200 1.339200
28.402500 1.335900
28.429800 1.331800
28.457100 1.335800
28.484300 1.337400
28.511600 1.338300
28.538900 1.336000
28.566200 1.331000
28.593400 1.335900
28.620700 1.331900
28.648000 1.325200
28.675200 1.323500
28.702500 1.324200
28.729800 1.318000
28.757100 1.321400
28.784300 1.325700
28.811600 1.339800
28.838900 1.374200
28.866200 1.430400
28.893400 1.502400
28.920700 1.536300
28.948000 1.578000
28.975200 1.632100
29.002500 1.721100
29.029800 1.639100
29.057100 1.572400
29.084300 1.512400
29.111600 1.475700
29.138900 1.480900
29.166200 1.477200
29.193400 1.457300
29.220700 1.431200
29.248000 1.421800
29.275200 1.408700
29.302500 1.397300
29.329800 1.384600
29.357100 1.439700
29.384300 1.431300
29.411600 1.400500
29.438900 1.385700
29.466200 1.347900
29.493400 1.320700
29.520700 1.292700
29.548000 1.258100
29.575300 1.221900
29.602500 1.223600
29.629800 1.183100
29.657100 1.161100
29.684300 1.157600
29.711600 1.152300
29.738900 1.141900
29.766200 1.140000
29.793400 1.142300
29.820700 1.147600
29.848000 1.163700
29.875300 1.192000
29.902500 1.212000
29.929800 1.231400
29.957100 1.192900
29.984300 1.173200
30.011600 1.176000
30.038900 1.179300
30.066200 1.196900
30.093400 1.482000
30.120700 1.208800
30.148000 1.242100
30.175300 1.251800
30.202500 1.294700
30.229800 1.323000
30.257100 1.352800
30.284400 1.369100
30.311600 1.413100
30.338900 1.475300
30.366200 1.406600
30.393400 1.286300
30.420700 1.259900
30.448000 1.224000
30.475300 1.247700
30.502500 1.279400
30.529800 1.360500
30.557100 1.342100
30.584400 1.367600
30.611600 1.373700
30.638900 1.355900
30.666200 1.355000
30.693400 1.525200
30.720700 1.352400
30.748000 1.303300
30.775300 1.290300
30.802500 1.252200
30.829800 1.290000
30.857100 1.362600
30.884400 1.444600
30.911600 1.269800
30.938900 1.195000
30.966200 1.246800
30.993400 1.074800
31.020700 1.037600
31.048000 1.088800
31.075300 1.028900
31.102500 1.057500
31.129800 1.084600
31.157100 1.120700
31.184400 1.368300
31.211600 1.314700
31.238900 1.351500
31.266200 1.340100
31.293500 1.267000
31.320700 1.235200
31.348000 1.460000
31.375300 1.321500
31.402500 1.566600
31.429800 1.613800
31.457100 1.689700
31.484400 1.709700
31.511600 1.751000
31.538900 1.680000
31.566200 1.511700
31.593500 1.470500
31.620700 1.450500
31.648000 1.464200
31.675300 1.450400
31.702500 1.428000
31.729800 1.528900
31.757100 1.559300
31.784400 1.552200
31.811600 1.557600
31.838900 1.620800
31.866200 1.689300
31.893500 1.616700
31.920700 1.584400
31.948000 1.605000
31.975300 1.656000
32.002600 1.789800
32.029800 1.419000
32.057100 1.432700
32.084400 1.470700
32.111600 1.504600
32.138900 1.491700
32.166200 1.518800
32.193500 1.519800
32.220700 1.499100
32.248000 1.441000
32.275300 1.395200
32.302600 1.307200
32.329800 1.284400
32.357100 1.265600
32.384400 1.235500
32.411600 1.201800
32.438900 1.178200
32.466200 1.146700
32.493500 1.129600
32.520700 1.118800
32.548000 1.160500
32.575300 1.129300
32.602600 1.134500
32.629800 1.120700
32.657100 1.141700
32.684400 1.123100
32.711600 1.164300
32.738900 1.141000
32.766200 1.187500
32.793500 1.082900
32.820700 1.206400
32.848000 1.195700
32.875300 1.239000
32.902600 1.302700
32.929800 1.388800
32.957100 1.530800
32.984400 1.583400
33.011700 1.614900
33.038900 1.624700
33.066200 1.624200
33.093500 1.701000
33.120700 1.800100
33.148000 1.931700
33.175300 2.054700
33.202600 1.977500
33.229800 2.000500
33.257100 1.967600
33.284400 1.915300
33.311700 1.877500
33.338900 1.881600
33.366200 1.839300
33.393500 1.833900
33.420700 1.789400
33.448000 1.808500
33.475300 1.541500
33.502600 1.440400
33.529800 1.399900
33.557100 1.375000
33.584400 1.391300
33.611700 1.435400
33.638900 1.567400
33.666200 1.569600
33.693500 1.629400
33.720700 1.686900
33.748000 1.886600
33.775300 1.843800
33.802600 1.729200
33.829800 1.636800
33.857100 1.608800
33.884400 1.644700
33.911700 1.624500
33.938900 1.546500
33.966200 1.482000
33.993500 1.446500
34.020800 1.380400
34.048000 1.290500
34.075300 1.241900
34.102600 1.241700
34.129800 1.247300
34.157100 1.270300
34.184400 1.314000
34.211700 1.428800
34.238900 1.599500
34.266200 1.761800
34.293500 1.884100
34.320800 2.039000
34.348000 1.929700
34.375300 1.839700
34.402600 1.779100
34.429800 1.745500
34.457100 1.724100
34.484400 1.746900
34.511700 1.755400
34.538900 1.767300
34.566200 1.665700
34.593500 1.581000
34.620800 1.518300
34.648000 1.473100
34.675300 1.440200
34.702600 1.455800
34.729900 1.500800
34.757100 1.494400
34.784400 1.490700
34.811700 1.490800
34.838900 1.506100
34.866200 1.453200
34.893500 1.448200
34.920800 1.389600
34.948000 1.387300
34.975300 1.365800
35.002600 1.350800
35.029900 1.341700
35.057100 1.352600
35.084400 1.385900
35.111700 1.510300
35.138900 1.553900
35.166200 1.535400
35.193500 1.541300
35.220800 1.558500
35.248000 1.574300
35.275300 1.589800
35.302600 1.613000
35.329900 1.650700
35.357100 1.776500
35.384400 1.741700
35.411700 1.792600
35.438900 1.818300
35.466200 1.873900
35.493500 1.797700
35.520800 1.766300
35.548000 1.812100
35.575300 1.695500
35.602600 1.617100
35.629900 1.553100
35.657100 1.506600
35.684400 1.464900
35.711700 1.451200
35.739000 1.425700
35.766200 1.423000
35.793500 1.439400
35.820800 1.403200
35.848000 1.406300
35.875300 1.404200
35.902600 1.359200
35.929900 1.349000
35.957100 1.356300
35.984400 1.348000
36.011700 1.307700
36.039000 1.305500
36.066200 1.335400
36.093500 1.372500
36.120800 1.430700
36.148000 1.459400
36.175300 1.531500
36.202600 1.537300
36.229900 1.526700
36.257100 1.520000
36.284400 1.514200
36.311700 1.527000
36.339000 1.538700
36.366200 1.559700
36.393500 1.596500
36.420800 1.607900
36.448000 1.622600
36.475300 1.677800
36.502600 1.677000
36.529900 1.626700
36.557100 1.611100
36.584400 1.709700
36.611700 1.715900
36.639000 1.595800
36.666200 1.556400
36.693500 1.479400
36.720800 1.451300
36.748100 1.451400
36.775300 1.465800
36.802600 1.463100
36.829900 1.487800
36.857100 1.519400
36.884400 1.539700
36.911700 1.599000
36.939000 1.655500
36.966200 1.816200
36.993500 1.874900
37.020800 1.971200
37.048100 1.900900
37.075300 1.929500
37.102600 1.900700
37.129900 1.839700
37.157100 1.645200
37.184400 1.567100
37.211700 1.566500
37.239000 1.545200
37.266200 1.540100
37.293500 1.534700
37.320800 1.506400
37.348100 1.590800
37.375300 1.597500
37.402600 1.544300
37.429900 1.567700
37.457200 1.609500
37.484400 1.623500
37.511700 1.540400
37.539000 1.471300
37.566200 1.433300
37.593500 1.388300
37.620800 1.352800
37.648100 1.297400
37.675300 1.273600
37.702600 1.266400
37.729900 1.273400
37.757200 1.391400
37.784400 1.356000
37.811700 1.336000
37.839000 1.376600
37.866200 1.370800
37.893500 1.366500
37.920800 1.365100
37.948100 1.362000
37.975300 1.360800
38.002600 1.359300
38.029900 1.489200
38.057200 1.495800
38.084400 1.445900
38.111700 1.485200
38.139000 1.414100
38.166200 1.380600
38.193500 1.364800
38.220800 1.353600
38.248100 1.375900
38.275300 1.354000
38.302600 1.318500
38.329900 1.343300
38.357200 1.368300
38.384400 1.393600
38.411700 1.433800
38.439000 1.443100
38.466300 1.487900
38.493500 1.536400
38.520800 1.521600
38.548100 1.473500
38.575300 1.489300
38.602600 1.487300
38.629900 1.493200
38.657200 1.460700
38.684400 1.442600
38.711700 1.423900
38.739000 1.380700
38.766300 1.360000
38.793500 1.331400
38.820800 1.375800
38.848100 1.407600
38.875300 1.449000
38.902600 1.470000
38.929900 1.492200
38.957200 1.525000
38.984400 1.554700
39.011700 1.559500
39.039000 1.613800
39.066300 1.675300
39.093500 1.743800
39.120800 1.680500
39.148100 1.575500
39.175400 1.443600
39.202600 1.386300
39.229900 1.419000
39.257200 1.441200
39.284400 1.488500
39.311700 1.536100
39.339000 1.581900
39.366300 1.628400
39.393500 1.653600
39.420800 1.599700
39.448100 1.542400
39.475400 1.428200
39.502600 1.396400
39.529900 1.335800
39.557200 1.266700
39.584400 1.240100
39.611700 1.317100
39.639000 1.373300
39.666300 1.389700
39.693500 1.396500
39.720800 1.402400
39.748100 1.392400
39.775400 1.381800
39.802600 1.373000
39.829900 1.369200
39.857200 1.373400
39.884400 1.356300
39.911700 1.414100
39.939000 1.544000
39.966300 1.639100
39.993500 1.713300
40.020800 1.779500
40.048100 1.809600
40.075400 1.840100
40.102600 1.886100
40.129900 1.832600
40.157200 1.758600
40.184500 1.661900
40.211700 1.541700
40.239000 1.563000
40.266300 1.629500
40.293500 1.637700
40.320800 1.628200
40.348100 1.658200
40.375400 1.683900
40.402600 1.675500
40.429900 1.667700
40.457200 1.725900
40.484500 1.858800
40.511700 1.824600
40.539000 1.824700
40.566300 1.869000
40.593500 1.903300
40.620800 1.760800
40.648100 1.744300
40.675400 1.631400
40.702600 1.508600
40.729900 1.404800
40.757200 1.330400
40.784500 1.289200
40.811700 1.270000
40.839000 1.248300
40.866300 1.240000
40.893500 1.244000
40.920800 1.358700
40.948100 1.335400
40.975400 1.337500
41.002600 1.368000
41.029900 1.430300
41.057200 1.489100
41.084500 1.601300
41.111700 1.725000
41.139000 1.684300
41.166300 1.711800
41.193600 1.774300
41.220800 1.881900
41.248100 1.911200
41.275400 1.802300
41.302600 1.719800
41.329900 1.677900
41.357200 1.646800
41.384500 1.615300
41.411700 1.565500
41.439000 1.535400
41.466300 1.590900
41.493600 1.541900
41.520800 1.493800
41.548100 1.454500
41.575400 1.461200
41.602600 1.517700
41.629900 1.536000
41.657200 1.508300
41.684500 1.495900
41.711700 1.491600
41.739000 1.505300
41.766300 1.542400
41.793600 1.592400
41.820800 1.669600
41.848100 1.713400
41.875400 1.736400
41.902700 1.685500
41.929900 1.646200
41.957200 1.642200
41.984500 1.703100
42.011700 1.845300
42.039000 1.777900
42.066300 1.771000
42.093600 1.764600
42.120800 1.724300
42.148100 1.763600
42.175400 1.837700
42.202700 1.898400
42.229900 1.976300
42.257200 2.016500
42.284500 2.023800
42.311700 1.977100
42.339000 1.868700
42.366300 1.737100
42.393600 1.634000
42.420800 1.572300
42.448100 1.522200
42.475400 1.500400
42.502700 1.487700
42.529900 1.477800
42.557200 1.479700
42.584500 1.494300
42.611700 1.498700
42.639000 1.487100
42.666300 1.494200
42.693600 1.482900
42.720800 1.475900
42.748100 1.551100
42.775400 1.501500
42.802700 1.580500
42.829900 1.659000
42.857200 1.672000
42.884500 1.685700
42.911800 1.762900
42.939000 1.746300
42.966300 1.543900
42.993600 1.515800
43.020800 1.404500
43.048100 1.308000
43.075400 1.239700
43.102700 1.282700
43.129900 1.318200
43.157200 1.335600
43.184500 1.323300
43.211800 1.323800
43.239000 1.340500
43.266300 1.362400
43.293600 1.402400
43.320800 1.542600
43.348100 1.603200
43.375400 1.583400
43.402700 1.578500
43.429900 1.580100
43.457200 1.595600
43.484500 1.589400
43.511800 1.574400
43.539000 1.540200
43.566300 1.535400
43.593600 1.532300
43.620800 1.527700
43.648100 1.528000
43.675400 1.540000
43.702700 1.556600
43.729900 1.632800
43.757200 1.512800
43.784500 1.447800
43.811800 1.381900
43.839000 1.373100
43.866300 1.381500
43.893600 1.429500
43.920900 1.430100
43.948100 1.436700
43.975400 1.423900
44.002700 1.447100
44.029900 1.456800
44.057200 1.487000
44.084500 1.522300
44.111800 1.555200
44.139000 1.554700
44.166300 1.458800
44.193600 1.346200
44.220900 1.351100
44.248100 1.219800
44.275400 1.191400
44.302700 1.218000
44.329900 1.287300
44.357200 1.318000
44.384500 1.284900
44.411800 1.219900
44.439000 1.130100
44.466300 1.071400
44.493600 1.047600
44.520900 1.057800
44.548100 1.074600
44.575400 1.097500
44.602700 1.168400
44.630000 1.097800
44.657200 0.999600
44.684500 0.862500
44.711800 0.877500
44.739000 0.703000
44.766300 0.571000
44.793600 0.543100
44.820900 0.511700
44.848100 0.491700
44.875400 0.467500
44.902700 0.431200
44.930000 0.392900
44.957200 0.369400
44.984500 0.350400
45.011800 0.338000
45.039000 0.343800
45.066300 0.347800
45.093600 0.333200
45.120900 0.319100
45.148100 0.285700
45.175400 0.280400
45.202700 0.257000
45.230000 0.240800
45.257200 0.206300
45.284500 0.177600
45.311800 0.157600
45.339000 0.146600
45.366300 0.135400
45.393600 0.121700
45.420900 0.104200
45.448100 0.089600
45.475400 0.086500
45.502700 0.045200
45.530000 0.024000
45.557200 0.019800
45.584500 0.016200
45.611800 0.012900
45.639100 0.010000
45.666300 0.007500
45.693600 0.005400
45.720900 0.003600
45.748100 0.002200
45.775400 0.001100
45.802700 0.000400
45.830000 0.000100
45.857200 0.000000
45.884500 0.000000
45.911800 0.000000
45.939100 0.000000
45.966300 0.000000
45.993600 0.000000
46.020900 0.000000
46.048100 0.000000
46.075400 0.000000
46.102700 0.000000
46.130000 0.000000
46.157200 0.000000
46.184500 0.000000
46.211800 0.000000
46.239100 0.000000
46.266300 0.000000
46.293600 0.000000
46.320900 0.000000
46.348200 0.000000
46.375400 0.000000
46.402700 0.000000
46.430000 0.000000
46.457200 0.000000
46.484500 0.000000
46.511800 0.000000
46.539100 0.000000
46.566300 0.000000
46.593600 0.000000
46.620900 0.000000
46.648200 0.000000
46.675400 0.000000
46.702700 0.000000
46.730000 0.000000
46.757200 0.000000
46.784500 0.000000
46.811800 0.000000
46.839100 0.000000
46.866300 0.000000
46.893600 0.000000
46.920900 0.000000
46.948200 0.000000
46.975400 0.000000
47.002700 0.000000
47.030000 0.000000
47.057200 0.000000
47.084500 0.000000
47.111800 0.000000
47.139100 0.000000
47.166300 0.000000
47.193600 0.000000
47.220900 0.000000
47.248200 0.000000
47.275400 0.000000
47.302700 0.000000
47.330000 0.000000
47.357300 0.000000
47.384500 0.000000
47.411800 0.000000
47.439100 0.000000
47.466300 0.000000
47.493600 0.000000
47.520900 0.000000
47.548200 0.000000
47.575400 0.000000
47.602700 0.000000
47.630000 0.000000
47.657300 0.000000
47.684500 0.000000
47.711800 0.000000
47.739100 0.000000
47.766300 0.000000
47.793600 0.000000
47.820900 0.000000
47.848200 0.000000
47.875400 0.000000
47.902700 0.000000
47.930000 0.000000
47.957300 0.000000
47.984500 0.000000
48.011800 0.000000
48.039100 0.000000
48.066300 0.000000
48.093600 0.000000
48.120900 0.000000
48.148200 0.000000
48.175400 0.000000
48.202700 0.000000
48.230000 0.000000
48.257300 0.000000
48.284500 0.000000
48.311800 0.000000
48.339100 0.000000
48.366400 0.000000
e
