set title 'mp-610917 - Density of States'
set xlabel 'Energy (eV)'
set ylabel 'DOS (states/eV)'
set grid
set xrange [-10:10]
set yrange [0:7.385]
set xzeroaxis lt -1
set terminal png size 800,600
set output 'mp-610917_dos_gnuplot.png'
plot '-' using 1:2 with lines title 'DOS'
-34.627800 0.000000
-34.561600 0.000000
-34.495400 0.000000
-34.429300 0.000000
-34.363100 0.000000
-34.296900 0.000000
-34.230700 0.000000
-34.164500 0.000000
-34.098400 0.000000
-34.032200 0.000000
-33.966000 0.000000
-33.899800 0.000000
-33.833600 0.000000
-33.767400 0.000000
-33.701300 0.000000
-33.635100 0.000000
-33.568900 0.000000
-33.502700 0.000000
-33.436500 0.000000
-33.370400 0.000000
-33.304200 0.000000
-33.238000 0.000000
-33.171800 0.000000
-33.105600 0.000000
-33.039400 0.000000
-32.973300 0.000000
-32.907100 0.000000
-32.840900 0.000000
-32.774700 0.000000
-32.708500 0.000000
-32.642400 0.000000
-32.576200 0.000000
-32.510000 0.000000
-32.443800 0.000000
-32.377600 0.000000
-32.311400 0.000000
-32.245300 0.000000
-32.179100 0.000000
-32.112900 0.000000
-32.046700 0.000000
-31.980500 0.000000
-31.914400 0.000000
-31.848200 0.000000
-31.782000 0.000000
-31.715800 0.000000
-31.649600 0.000000
-31.583400 0.000000
-31.517300 0.000000
-31.451100 0.000000
-31.384900 0.000000
-31.318700 0.000000
-31.252500 0.000000
-31.186400 0.000000
-31.120200 0.000000
-31.054000 0.000000
-30.987800 0.000000
-30.921600 0.000000
-30.855400 0.000000
-30.789300 0.000000
-30.723100 0.000000
-30.656900 0.000000
-30.590700 0.000000
-30.524500 0.000000
-30.458400 0.000000
-30.392200 0.000000
-30.326000 0.000000
-30.259800 0.000000
-30.193600 0.000000
-30.127400 0.000000
-30.061300 0.000000
-29.995100 0.000000
-29.928900 0.000000
-29.862700 0.000000
-29.796500 0.000000
-29.730400 0.000000
-29.664200 0.000000
-29.598000 0.000000
-29.531800 0.000000
-29.465600 0.000000
-29.399400 0.000000
-29.333300 0.000000
-29.267100 0.000000
-29.200900 0.000000
-29.134700 0.000000
-29.068500 0.000000
-29.002400 0.000000
-28.936200 0.000000
-28.870000 0.000000
-28.803800 0.000000
-28.737600 0.000000
-28.671400 0.000000
-28.605300 0.786700
-28.539100 10.229900
-28.472900 0.000000
-28.406700 0.000000
-28.340500 0.000000
-28.274400 0.000000
-28.208200 0.000000
-28.142000 0.000000
-28.075800 0.000000
-28.009600 0.000000
-27.943400 0.000000
-27.877300 0.000000
-27.811100 0.000000
-27.744900 0.000000
-27.678700 0.000000
-27.612500 0.000000
-27.546400 0.000000
-27.480200 0.000000
-27.414000 0.000000
-27.347800 0.000000
-27.281600 0.000000
-27.215400 0.000000
-27.149300 0.000000
-27.083100 0.000000
-27.016900 0.000000
-26.950700 0.000000
-26.884500 0.000000
-26.818400 0.000000
-26.752200 0.000000
-26.686000 0.000000
-26.619800 0.000000
-26.553600 0.000000
-26.487400 0.000000
-26.421300 0.000000
-26.355100 0.000000
-26.288900 0.000000
-26.222700 0.000000
-26.156500 0.000000
-26.090400 0.000000
-26.024200 0.000000
-25.958000 0.000000
-25.891800 0.000000
-25.825600 0.000000
-25.759400 0.000000
-25.693300 0.000000
-25.627100 0.000000
-25.560900 0.000000
-25.494700 0.000000
-25.428500 0.000000
-25.362400 0.000000
-25.296200 0.000000
-25.230000 0.000000
-25.163800 0.000000
-25.097600 0.000000
-25.031400 0.000000
-24.965300 0.000000
-24.899100 0.000000
-24.832900 0.000000
-24.766700 0.000000
-24.700500 0.000000
-24.634400 0.000000
-24.568200 0.000000
-24.502000 0.000000
-24.435800 0.000000
-24.369600 0.000000
-24.303500 0.000000
-24.237300 0.000000
-24.171100 0.000000
-24.104900 0.000000
-24.038700 0.000000
-23.972500 0.000000
-23.906400 0.000000
-23.840200 0.000000
-23.774000 0.000000
-23.707800 0.000000
-23.641600 0.000000
-23.575500 0.000000
-23.509300 0.000000
-23.443100 0.000000
-23.376900 0.000000
-23.310700 0.000000
-23.244500 0.000000
-23.178400 0.000000
-23.112200 0.000000
-23.046000 0.000000
-22.979800 0.000000
-22.913600 0.000000
-22.847500 0.000000
-22.781300 0.000000
-22.715100 0.000000
-22.648900 0.000000
-22.582700 0.000000
-22.516500 0.000000
-22.450400 0.000000
-22.384200 0.000000
-22.318000 0.000000
-22.251800 0.000000
-22.185600 0.000000
-22.119500 0.000000
-22.053300 0.000000
-21.987100 0.000000
-21.920900 0.000000
-21.854700 0.000000
-21.788500 0.000000
-21.722400 0.000000
-21.656200 0.000000
-21.590000 0.000000
-21.523800 0.000000
-21.457600 0.000000
-21.391500 0.000000
-21.325300 0.000000
-21.259100 0.000000
-21.192900 0.000000
-21.126700 0.000000
-21.060500 0.000000
-20.994400 0.000000
-20.928200 0.000000
-20.862000 0.000000
-20.795800 0.000000
-20.729600 0.000000
-20.663500 0.000000
-20.597300 0.000000
-20.531100 0.000000
-20.464900 0.000000
-20.398700 0.000000
-20.332500 0.000000
-20.266400 0.000000
-20.200200 0.000000
-20.134000 0.000000
-20.067800 0.000000
-20.001600 0.000000
-19.935500 0.000000
-19.869300 0.000000
-19.803100 0.000000
-19.736900 0.000000
-19.670700 0.000000
-19.604500 0.000000
-19.538400 0.000000
-19.472200 0.000000
-19.406000 0.000000
-19.339800 0.000000
-19.273600 0.000000
-19.207500 0.000000
-19.141300 0.000000
-19.075100 0.000000
-19.008900 0.000000
-18.942700 0.000000
-18.876500 0.000000
-18.810400 0.000000
-18.744200 0.000000
-18.678000 0.000000
-18.611800 0.000000
-18.545600 0.000000
-18.479500 0.000000
-18.413300 0.000000
-18.347100 0.000000
-18.280900 0.000000
-18.214700 0.000000
-18.148500 0.000000
-18.082400 0.000000
-18.016200 0.000000
-17.950000 0.000000
-17.883800 0.000000
-17.817600 0.000000
-17.751500 0.000000
-17.685300 0.000000
-17.619100 0.000000
-17.552900 0.000000
-17.486700 0.000000
-17.420500 0.000000
-17.354400 0.000000
-17.288200 0.000000
-17.222000 0.000000
-17.155800 0.000000
-17.089600 0.000000
-17.023500 0.000000
-16.957300 0.302000
-16.891100 0.684200
-16.824900 1.114600
-16.758700 1.923700
-16.692500 3.952100
-16.626400 4.940400
-16.560200 0.000000
-16.494000 0.000000
-16.427800 0.000000
-16.361600 0.000000
-16.295500 0.000000
-16.229300 0.000000
-16.163100 0.000000
-16.096900 0.000000
-16.030700 0.000000
-15.964500 0.000000
-15.898400 0.000000
-15.832200 0.000000
-15.766000 0.000000
-15.699800 0.000000
-15.633600 0.000000
-15.567500 0.000000
-15.501300 0.000000
-15.435100 0.000000
-15.368900 0.000000
-15.302700 0.000000
-15.236500 0.000000
-15.170400 0.000000
-15.104200 0.000000
-15.038000 0.000000
-14.971800 0.000000
-14.905600 0.000000
-14.839500 0.000000
-14.773300 0.000000
-14.707100 0.000000
-14.640900 0.000000
-14.574700 0.000000
-14.508500 0.000000
-14.442400 0.000000
-14.376200 0.000000
-14.310000 0.000000
-14.243800 0.000000
-14.177600 0.000000
-14.111500 0.000000
-14.045300 0.000000
-13.979100 0.000000
-13.912900 0.000000
-13.846700 0.000000
-13.780500 0.000000
-13.714400 0.000000
-13.648200 0.000000
-13.582000 0.000000
-13.515800 0.000000
-13.449600 0.000000
-13.383500 0.000000
-13.317300 0.000000
-13.251100 0.000000
-13.184900 0.000000
-13.118700 0.000000
-13.052500 0.000000
-12.986400 0.000000
-12.920200 0.000000
-12.854000 0.000000
-12.787800 0.000000
-12.721600 0.000000
-12.655500 0.000000
-12.589300 0.000000
-12.523100 0.000000
-12.456900 0.000000
-12.390700 0.000000
-12.324500 0.000000
-12.258400 0.000000
-12.192200 0.000000
-12.126000 0.000000
-12.059800 0.000000
-11.993600 0.000000
-11.927500 0.000000
-11.861300 0.000000
-11.795100 0.000000
-11.728900 0.000000
-11.662700 0.000000
-11.596500 0.000000
-11.530400 0.000000
-11.464200 0.000000
-11.398000 0.000000
-11.331800 0.000000
-11.265600 0.000000
-11.199500 0.000000
-11.133300 0.000000
-11.067100 0.000000
-11.000900 0.000000
-10.934700 0.000000
-10.868600 0.000000
-10.802400 0.000000
-10.736200 0.000000
-10.670000 0.000000
-10.603800 0.000000
-10.537600 0.000000
-10.471500 0.000000
-10.405300 0.000000
-10.339100 0.000000
-10.272900 0.000000
-10.206700 0.000000
-10.140600 0.000000
-10.074400 0.000000
-10.008200 0.000000
-9.942000 0.636300
-9.875800 1.514200
-9.809600 2.135100
-9.743500 2.393200
-9.677300 2.998900
-9.611100 2.356400
-9.544900 1.073400
-9.478700 2.028800
-9.412600 2.739700
-9.346400 3.134100
-9.280200 3.426300
-9.214000 6.713800
-9.147800 5.686800
-9.081600 4.798900
-9.015500 3.185400
-8.949300 0.681300
-8.883100 0.000000
-8.816900 0.000000
-8.750700 0.000000
-8.684600 0.000000
-8.618400 0.000000
-8.552200 0.000000
-8.486000 0.000000
-8.419800 0.000000
-8.353600 0.000000
-8.287500 0.000000
-8.221300 0.000000
-8.155100 0.000000
-8.088900 0.000000
-8.022700 0.000000
-7.956600 0.000000
-7.890400 0.000000
-7.824200 0.000000
-7.758000 0.000000
-7.691800 0.000000
-7.625600 0.000000
-7.559500 0.000000
-7.493300 0.000000
-7.427100 0.000000
-7.360900 0.000000
-7.294700 0.000000
-7.228600 0.000000
-7.162400 0.000000
-7.096200 0.000000
-7.030000 0.000000
-6.963800 0.000000
-6.897600 0.000000
-6.831500 0.000000
-6.765300 0.000000
-6.699100 0.000000
-6.632900 0.000000
-6.566700 0.000000
-6.500600 0.000000
-6.434400 0.000000
-6.368200 0.000000
-6.302000 0.000000
-6.235800 0.000000
-6.169600 0.000000
-6.103500 0.000000
-6.037300 0.000000
-5.971100 0.000000
-5.904900 0.000000
-5.838700 0.000000
-5.772600 0.000000
-5.706400 0.000000
-5.640200 0.000000
-5.574000 0.000000
-5.507800 0.000000
-5.441600 0.000000
-5.375500 0.000000
-5.309300 0.000000
-5.243100 0.000000
-5.176900 0.000000
-5.110700 0.000000
-5.044600 0.000000
-4.978400 0.000000
-4.912200 0.000000
-4.846000 0.000000
-4.779800 0.000000
-4.713600 0.000000
-4.647500 0.000000
-4.581300 0.000000
-4.515100 0.000000
-4.448900 0.000000
-4.382700 0.000000
-4.316600 0.000000
-4.250400 0.000000
-4.184200 0.000000
-4.118000 0.000000
-4.051800 0.000000
-3.985600 0.000000
-3.919500 0.000000
-3.853300 0.000000
-3.787100 0.000000
-3.720900 0.000000
-3.654700 0.000000
-3.588600 0.000000
-3.522400 0.000000
-3.456200 0.343300
-3.390000 1.271500
-3.323800 2.587700
-3.257600 2.539900
-3.191500 3.264600
-3.125300 1.381600
-3.059100 1.868400
-2.992900 2.948800
-2.926700 3.372600
-2.860600 3.582200
-2.794400 3.861300
-2.728200 3.140400
-2.662000 0.937600
-2.595800 0.000000
-2.529600 0.000000
-2.463500 0.000000
-2.397300 0.000000
-2.331100 0.000000
-2.264900 0.000000
-2.198700 0.000000
-2.132600 0.000000
-2.066400 0.000000
-2.000200 0.000000
-1.934000 0.000000
-1.867800 0.000000
-1.801600 0.000000
-1.735500 0.000000
-1.669300 0.000000
-1.603100 0.000000
-1.536900 0.000000
-1.470700 0.000000
-1.404600 0.000000
-1.338400 0.000000
-1.272200 0.000000
-1.206000 0.000000
-1.139800 0.000000
-1.073600 0.000000
-1.007500 0.000000
-0.941300 0.000000
-0.875100 0.000000
-0.808900 0.000000
-0.742700 0.000000
-0.676600 0.000000
-0.610400 0.000000
-0.544200 0.000000
-0.478000 0.000000
-0.411800 0.000000
-0.345600 0.000000
-0.279500 0.000000
-0.213300 0.000000
-0.147100 0.000000
-0.080900 0.000000
-0.014700 0.000000
0.051400 0.000000
0.117600 0.000000
0.183800 0.000000
0.250000 0.000000
0.316200 0.000000
0.382400 0.000000
0.448500 0.000000
0.514700 0.000000
0.580900 0.000000
0.647100 0.000000
0.713300 0.000000
0.779400 0.000000
0.845600 0.000000
0.911800 0.000000
0.978000 0.000000
1.044200 0.000000
1.110400 0.000000
1.176500 0.000000
1.242700 0.000000
1.308900 0.000000
1.375100 0.000000
1.441300 0.000000
1.507400 0.000000
1.573600 0.000000
1.639800 0.000000
1.706000 0.000000
1.772200 0.000000
1.838400 0.000000
1.904500 0.000000
1.970700 0.000000
2.036900 0.000000
2.103100 0.000000
2.169300 0.000000
2.235400 0.000000
2.301600 0.000000
2.367800 0.000000
2.434000 0.000000
2.500200 0.000000
2.566300 0.000000
2.632500 0.000000
2.698700 0.000000
2.764900 0.000000
2.831100 0.000000
2.897300 0.000000
2.963400 0.000000
3.029600 0.000000
3.095800 0.000000
3.162000 0.000000
3.228200 0.000000
3.294300 0.000000
3.360500 0.000000
3.426700 0.000000
3.492900 0.000000
3.559100 0.000000
3.625300 0.000000
3.691400 0.000000
3.757600 0.000000
3.823800 0.000000
3.890000 0.000000
3.956200 0.000000
4.022300 0.000000
4.088500 0.000000
4.154700 0.000600
4.220900 0.033700
4.287100 0.100300
4.353300 0.180100
4.419400 0.259700
4.485600 0.245500
4.551800 0.214900
4.618000 0.213100
4.684200 0.223300
4.750300 0.233600
4.816500 0.243900
4.882700 0.254200
4.948900 0.262500
5.015100 0.269100
5.081300 0.275100
5.147400 0.281400
5.213600 0.287600
5.279800 0.293900
5.346000 0.300600
5.412200 0.308300
5.478300 0.316500
5.544500 0.332200
5.610700 0.360500
5.676900 0.389000
5.743100 0.415600
5.809300 0.442800
5.875400 0.474100
5.941600 0.507600
6.007800 0.542700
6.074000 0.580700
6.140200 0.756100
6.206300 0.764200
6.272500 0.748400
6.338700 0.751000
6.404900 0.758500
6.471100 0.817100
6.537300 0.934800
6.603400 0.740900
6.669600 0.533400
6.735800 0.386900
6.802000 0.224100
6.868200 0.104600
6.934300 0.106400
7.000500 0.112400
7.066700 0.124400
7.132900 0.143300
7.199100 0.160600
7.265300 0.182300
7.331400 0.409800
7.397600 0.723400
7.463800 0.760100
7.530000 0.924200
7.596200 1.299700
7.662300 0.565700
7.728500 0.550800
7.794700 0.545800
7.860900 0.544600
7.927100 0.551000
7.993300 0.563300
8.059400 0.605900
8.125600 0.713100
8.191800 0.822100
8.258000 0.841300
8.324200 0.814900
8.390300 0.736600
8.456500 0.526400
8.522700 0.258000
8.588900 0.125900
8.655100 0.000000
8.721300 0.000000
8.787400 0.000000
8.853600 0.000000
8.919800 0.000000
8.986000 0.001100
9.052200 0.061500
9.118300 0.193100
9.184500 0.356200
9.250700 0.486400
9.316900 0.660600
9.383100 0.978300
9.449300 1.160300
9.515400 1.112500
9.581600 0.823400
9.647800 0.735600
9.714000 0.724600
9.780200 0.869200
9.846300 0.693000
9.912500 0.563400
9.978700 0.482000
10.044900 0.440100
10.111100 0.405800
10.177300 0.363700
10.243400 0.325100
10.309600 0.292400
10.375800 0.266000
10.442000 0.245500
10.508200 0.233300
10.574300 0.317300
10.640500 0.540000
10.706700 0.733200
10.772900 0.852500
10.839100 0.874500
10.905300 0.860000
10.971400 0.667600
11.037600 0.643600
11.103800 0.616700
11.170000 0.602400
11.236200 0.579800
11.302300 0.547700
11.368500 0.528000
11.434700 0.504900
11.500900 0.477900
11.567100 0.457000
11.633300 0.423200
11.699400 0.398100
11.765600 0.382600
11.831800 0.367400
11.898000 0.353200
11.964200 0.340100
12.030300 0.331200
12.096500 0.333800
12.162700 0.341600
12.228900 0.348600
12.295100 0.342800
12.361300 0.326700
12.427400 0.317900
12.493600 0.317600
12.559800 0.295200
12.626000 0.261700
12.692200 0.222500
12.758300 0.185000
12.824500 0.133700
12.890700 0.094200
12.956900 0.087100
13.023100 0.085300
13.089300 0.083600
13.155400 0.081800
13.221600 0.080200
13.287800 0.122400
13.354000 0.297000
13.420200 0.527800
13.486300 0.795600
13.552500 0.980400
13.618700 0.901100
13.684900 0.705100
13.751100 0.651500
13.817300 0.623400
13.883400 0.586200
13.949600 0.539300
14.015800 0.488100
14.082000 0.432100
14.148200 0.384400
14.214300 0.366700
14.280500 0.350600
14.346700 0.334300
14.412900 0.317700
14.479100 0.390900
14.545300 0.378700
14.611400 0.322800
14.677600 0.291000
14.743800 0.276800
14.810000 0.275500
14.876200 0.337100
14.942300 0.416800
15.008500 0.517200
15.074700 0.652200
15.140900 0.808400
15.207100 0.929200
15.273300 1.176600
15.339400 1.097400
15.405600 1.031900
15.471800 0.966400
15.538000 0.896500
15.604200 0.847700
15.670300 0.994800
15.736500 0.984600
15.802700 0.873100
15.868900 0.733800
15.935100 0.627900
16.001200 0.558500
16.067400 0.471400
16.133600 0.403200
16.199800 0.381800
16.266000 0.332500
16.332200 0.309400
16.398300 0.297900
16.464500 0.286000
16.530700 0.294400
16.596900 0.341900
16.663100 0.364000
16.729200 0.383000
16.795400 0.420200
16.861600 0.494400
16.927800 0.528000
16.994000 0.556100
17.060200 0.613300
17.126300 0.614500
17.192500 0.610800
17.258700 0.600900
17.324900 0.582200
17.391100 0.566900
17.457200 0.545700
17.523400 0.523900
17.589600 0.508500
17.655800 0.502700
17.722000 0.494000
17.788200 0.480500
17.854300 0.462100
17.920500 0.444200
17.986700 0.396400
18.052900 0.368700
18.119100 0.362800
18.185200 0.371400
18.251400 0.376200
18.317600 0.376700
18.383800 0.405800
18.450000 0.501700
18.516200 0.465200
18.582300 0.449400
18.648500 0.447100
18.714700 0.469100
18.780900 0.487300
18.847100 0.499100
18.913200 0.515900
18.979400 0.545600
19.045600 0.568100
19.111800 0.583700
19.178000 0.522900
19.244200 0.490000
19.310300 0.474300
19.376500 0.467000
19.442700 0.462000
19.508900 0.457500
19.575100 0.463100
19.641200 0.470000
19.707400 0.464900
19.773600 0.447800
19.839800 0.443500
19.906000 0.456900
19.972200 0.461800
20.038300 0.475100
20.104500 0.482700
20.170700 0.469400
20.236900 0.455500
20.303100 0.421100
20.369200 0.423100
20.435400 0.447300
20.501600 0.489500
20.567800 0.506800
20.634000 0.634100
20.700200 0.534500
20.766300 0.550600
20.832500 0.587000
20.898700 0.625000
20.964900 0.576800
21.031100 0.558500
21.097200 0.565700
21.163400 0.556800
21.229600 0.544200
21.295800 0.525000
21.362000 0.509300
21.428200 0.522900
21.494300 0.551500
21.560500 0.590500
21.626700 0.660900
21.692900 0.708600
21.759100 0.737300
21.825200 0.743800
21.891400 0.729200
21.957600 0.707700
22.023800 0.712500
22.090000 0.717300
22.156200 0.715200
22.222300 0.678500
22.288500 0.646000
22.354700 0.620900
22.420900 0.605400
22.487100 0.604700
22.553200 0.633900
22.619400 0.655500
22.685600 0.513400
22.751800 0.475000
22.818000 0.462300
22.884200 0.463200
22.950300 0.505500
23.016500 0.559400
23.082700 0.630100
23.148900 0.713500
23.215100 0.790900
23.281200 0.904000
23.347400 0.726400
23.413600 0.715500
23.479800 0.781600
23.546000 0.856500
23.612200 0.890100
23.678300 0.859400
23.744500 0.844200
23.810700 0.821900
23.876900 0.817800
23.943100 0.789000
24.009200 0.648600
24.075400 0.527100
24.141600 0.453700
24.207800 0.390400
24.274000 0.342000
24.340200 0.304700
24.406300 0.291300
24.472500 0.335500
24.538700 0.410300
24.604900 0.803700
24.671100 1.123600
24.737200 1.527500
24.803400 1.979600
24.869600 2.098100
24.935800 1.491100
25.002000 1.183900
25.068200 0.933500
25.134300 0.808500
25.200500 0.702700
25.266700 0.607200
25.332900 0.537500
25.399100 0.545200
25.465200 0.414000
25.531400 0.440200
25.597600 0.474900
25.663800 0.530200
25.730000 0.601400
25.796200 0.659300
25.862300 0.702000
25.928500 0.677900
25.994700 0.665100
26.060900 0.714200
26.127100 0.784600
26.193200 0.844900
26.259400 0.881200
26.325600 0.906500
26.391800 0.902000
26.458000 0.904500
26.524200 0.900100
26.590300 0.885100
26.656500 0.832000
26.722700 0.764300
26.788900 0.658600
26.855100 0.664500
26.921200 0.822200
26.987400 0.902500
27.053600 0.825400
27.119800 0.726600
27.186000 0.634200
27.252200 0.656200
27.318300 0.606900
27.384500 0.634600
27.450700 0.668100
27.516900 0.771600
27.583100 0.881300
27.649200 0.971200
27.715400 1.238700
27.781600 1.474800
27.847800 1.349100
27.914000 1.084800
27.980200 0.923500
28.046300 0.959200
28.112500 1.053800
28.178700 1.067500
28.244900 1.059900
28.311100 1.115400
28.377200 1.072500
28.443400 1.090500
28.509600 1.093800
28.575800 1.100600
28.642000 1.127500
28.708200 1.193600
28.774300 1.235800
28.840500 1.184800
28.906700 1.085900
28.972900 1.010500
29.039100 0.897600
29.105200 0.817800
29.171400 0.846600
29.237600 0.723100
29.303800 0.748300
29.370000 0.751900
29.436100 0.730400
29.502300 0.702300
29.568500 0.682600
29.634700 0.669900
29.700900 0.705100
29.767100 0.755700
29.833200 0.743500
29.899400 0.695700
29.965600 0.655600
30.031800 0.661500
30.098000 0.666700
30.164100 0.659600
30.230300 0.648700
30.296500 0.639400
30.362700 0.632400
30.428900 0.630000
30.495100 0.629300
30.561200 0.628800
30.627400 0.628400
30.693600 0.634800
30.759800 0.691100
30.826000 0.762400
30.892100 0.871300
30.958300 0.729000
31.024500 0.728800
31.090700 0.722300
31.156900 0.728500
31.223100 0.759400
31.289200 0.616400
31.355400 0.594200
31.421600 0.578300
31.487800 0.564300
31.554000 0.554200
31.620100 0.546500
31.686300 0.540100
31.752500 0.535100
31.818700 0.532600
31.884900 0.535700
31.951100 0.538300
32.017200 0.540200
32.083400 0.541300
32.149600 0.543500
32.215800 0.552200
32.282000 0.560900
32.348100 0.560500
32.414300 0.568800
32.480500 0.579300
32.546700 0.587200
32.612900 0.594100
32.679100 0.601600
32.745200 0.610400
32.811400 0.626500
32.877600 0.700000
32.943800 0.967500
33.010000 0.801700
33.076100 0.652600
33.142300 0.568400
33.208500 0.517200
33.274700 0.482900
33.340900 0.455800
33.407100 0.431000
33.473200 0.409100
33.539400 0.387900
33.605600 0.393700
33.671800 0.394100
33.738000 0.401000
33.804100 0.413000
33.870300 0.441000
33.936500 0.510500
34.002700 0.561900
34.068900 0.602000
34.135100 0.636000
34.201200 0.670900
34.267400 0.707600
34.333600 0.722600
34.399800 0.733300
34.466000 0.825800
34.532100 1.023800
34.598300 0.880500
34.664500 0.780200
34.730700 0.738700
34.796900 0.729100
34.863100 0.719900
34.929200 0.681700
34.995400 0.677900
35.061600 0.694900
35.127800 0.694200
35.194000 0.702800
35.260100 0.721200
35.326300 0.885700
35.392500 0.735900
35.458700 0.674800
35.524900 0.615100
35.591100 0.566500
35.657200 0.634100
35.723400 0.625100
35.789600 0.651300
35.855800 0.676100
35.922000 0.702000
35.988100 0.730500
36.054300 0.756400
36.120500 0.792400
36.186700 0.895600
36.252900 0.789500
36.319100 0.780800
36.385200 0.783500
36.451400 0.792200
36.517600 0.806900
36.583800 0.841600
36.650000 0.914800
36.716100 0.946300
36.782300 0.953300
36.848500 0.916100
36.914700 0.875300
36.980900 0.822900
37.047100 0.725300
37.113200 0.715400
37.179400 0.751500
37.245600 0.799900
37.311800 0.760500
37.378000 0.761400
37.444100 0.756900
37.510300 0.755500
37.576500 0.795900
37.642700 0.779500
37.708900 0.776000
37.775100 0.811000
37.841200 0.854200
37.907400 0.859900
37.973600 0.857400
38.039800 0.864100
38.106000 0.917000
38.172100 0.902500
38.238300 0.870000
38.304500 0.853200
38.370700 0.875000
38.436900 0.908400
38.503100 0.935900
38.569200 0.829200
38.635400 0.799500
38.701600 0.841400
38.767800 0.835500
38.834000 0.873500
38.900100 1.129200
38.966300 0.800900
39.032500 0.819300
39.098700 0.856500
39.164900 0.883800
39.231100 0.871200
39.297200 0.881000
39.363400 0.856100
39.429600 0.807900
39.495800 0.743300
39.562000 0.685800
39.628100 0.616100
39.694300 0.560000
39.760500 0.527300
39.826700 0.505800
39.892900 0.483200
39.959100 0.479800
40.025200 0.522500
40.091400 0.584800
40.157600 0.627000
40.223800 0.684800
40.290000 0.825600
40.356100 0.975300
40.422300 1.058200
40.488500 1.108200
40.554700 1.108800
40.620900 1.038500
40.687100 0.958600
40.753200 0.817500
40.819400 0.787700
40.885600 0.750200
40.951800 0.702500
41.018000 0.639400
41.084100 0.603300
41.150300 0.592300
41.216500 0.603000
41.282700 0.619900
41.348900 0.655300
41.415100 0.717200
41.481200 0.806500
41.547400 0.929600
41.613600 1.041500
41.679800 1.134400
41.746000 1.151900
41.812100 1.193000
41.878300 1.151600
41.944500 1.131400
42.010700 1.186700
42.076900 1.130200
42.143100 1.053200
42.209200 1.018800
42.275400 1.041900
42.341600 1.069900
42.407800 1.132900
42.474000 1.128900
42.540100 1.112300
42.606300 1.094500
42.672500 1.144600
42.738700 1.297800
42.804900 1.341900
42.871000 1.204200
42.937200 1.093500
43.003400 1.009500
43.069600 0.892500
43.135800 0.855000
43.202000 0.776100
43.268100 0.695300
43.334300 0.667400
43.400500 0.655600
43.466700 0.653100
43.532900 0.653200
43.599000 0.650400
43.665200 0.645700
43.731400 0.626400
43.797600 0.648100
43.863800 0.720800
43.930000 0.920300
43.996100 0.991700
44.062300 0.904200
44.128500 0.838000
44.194700 0.804200
44.260900 0.891100
44.327000 0.807700
44.393200 0.763800
44.459400 0.747600
44.525600 0.738000
44.591800 0.730000
44.658000 0.723700
44.724100 0.725500
44.790300 0.725700
44.856500 0.720800
44.922700 0.720500
44.988900 0.721900
45.055000 0.723100
45.121200 0.721300
45.187400 0.708300
45.253600 0.689800
45.319800 0.700200
45.386000 0.733700
45.452100 0.740600
45.518300 0.737800
45.584500 0.736700
45.650700 0.737700
45.716900 0.747500
45.783000 0.773100
45.849200 0.878200
45.915400 0.949300
45.981600 0.958800
46.047800 1.026500
46.114000 1.156700
46.180100 1.313900
46.246300 1.371400
46.312500 1.312400
46.378700 1.124700
46.444900 0.986400
46.511000 1.014800
46.577200 1.090000
46.643400 1.105800
46.709600 1.137900
46.775800 1.174100
46.842000 1.163500
46.908100 1.105300
46.974300 1.117200
47.040500 1.113300
47.106700 1.314000
47.172900 1.259100
47.239000 1.208700
47.305200 1.331600
47.371400 1.215500
47.437600 1.154100
47.503800 0.964100
47.570000 0.886800
47.636100 0.958400
47.702300 0.952700
47.768500 0.947000
47.834700 0.884900
47.900900 0.888500
47.967000 0.891200
48.033200 0.959000
48.099400 0.932100
48.165600 0.943900
48.231800 0.964900
48.298000 0.990600
48.364100 0.920200
48.430300 0.904000
48.496500 0.895900
48.562700 0.877200
48.628900 0.818700
48.695000 1.060100
48.761200 1.026800
48.827400 1.145300
48.893600 0.954700
48.959800 0.934300
49.026000 0.910800
49.092100 0.891200
49.158300 0.923900
49.224500 0.929900
49.290700 0.912300
49.356900 0.878000
49.423000 0.844700
49.489200 0.844900
49.555400 0.880200
49.621600 0.828600
49.687800 0.790900
49.754000 0.773200
49.820100 0.894300
49.886300 1.013600
49.952500 1.073600
50.018700 1.061900
50.084900 1.023700
50.151000 0.880000
50.217200 0.830900
50.283400 0.812300
50.349600 0.813200
50.415800 0.811300
50.482000 0.792000
50.548100 0.762800
50.614300 0.744900
50.680500 0.806700
50.746700 0.851000
50.812900 0.787600
50.879000 0.791300
50.945200 0.794800
51.011400 0.807000
51.077600 0.816400
51.143800 0.821800
51.210000 0.840700
51.276100 0.866200
51.342300 0.885700
51.408500 0.892200
51.474700 0.890700
51.540900 0.884700
51.607000 0.879700
51.673200 0.875000
51.739400 0.874300
51.805600 0.882400
51.871800 0.995400
51.938000 1.025900
52.004100 1.043200
52.070300 1.024000
52.136500 1.011600
52.202700 1.003700
52.268900 0.992100
52.335000 0.984100
52.401200 0.969700
52.467400 0.970000
52.533600 0.976000
52.599800 0.936100
52.666000 0.923900
52.732100 0.926300
52.798300 1.026300
52.864500 1.039800
52.930700 1.028700
52.996900 1.017100
53.063000 1.005200
53.129200 1.000400
53.195400 0.996000
53.261600 0.984000
53.327800 1.016800
53.394000 0.981600
53.460100 0.924600
53.526300 0.889800
53.592500 0.881500
53.658700 0.912800
53.724900 0.951500
53.791000 1.037700
53.857200 0.940700
53.923400 0.934900
53.989600 0.944600
54.055800 0.961500
54.122000 1.031700
54.188100 1.099000
54.254300 1.106000
54.320500 1.085800
54.386700 1.061300
54.452900 1.077600
54.519000 1.071100
54.585200 1.055100
54.651400 1.035100
54.717600 1.024100
54.783800 0.972100
54.850000 0.953900
54.916100 0.955500
54.982300 0.971100
55.048500 0.999300
55.114700 1.022400
55.180900 1.001700
55.247000 0.966700
55.313200 0.924900
55.379400 0.897700
55.445600 0.879700
55.511800 0.864100
55.578000 0.869800
55.644100 0.871600
55.710300 0.857800
55.776500 0.912900
55.842700 0.904400
55.908900 0.906900
55.975000 0.921100
56.041200 0.919200
56.107400 0.885400
56.173600 0.854600
56.239800 0.899200
56.305900 0.962000
56.372100 0.921500
56.438300 0.846700
56.504500 0.866400
56.570700 0.876400
56.636900 0.886700
56.703000 0.916100
56.769200 1.003500
56.835400 1.017700
56.901600 1.060100
56.967800 0.951500
57.033900 1.006000
57.100100 0.938600
57.166300 0.904700
57.232500 0.888900
57.298700 0.876800
57.364900 0.859500
57.431000 0.842400
57.497200 0.830400
57.563400 0.830400
57.629600 0.868700
57.695800 0.936100
57.761900 1.047500
57.828100 1.223400
57.894300 1.194200
57.960500 1.212100
58.026700 1.234600
58.092900 1.215100
58.159000 1.238500
58.225200 1.308800
58.291400 1.306500
58.357600 1.153800
58.423800 1.092900
58.489900 1.078900
58.556100 1.159400
58.622300 1.119900
58.688500 1.022600
58.754700 0.897400
58.820900 0.984200
58.887000 1.057400
58.953200 0.992500
59.019400 1.113100
59.085600 1.153800
59.151800 1.167200
59.217900 1.287700
59.284100 1.302100
59.350300 1.578500
59.416500 1.061700
59.482700 0.976300
59.548900 0.917300
59.615000 0.916100
59.681200 1.101700
59.747400 1.041600
59.813600 0.951100
59.879800 0.958500
59.945900 0.973100
60.012100 0.977200
60.078300 0.966200
60.144500 1.007900
60.210700 0.978700
60.276900 0.813400
60.343000 0.717300
60.409200 0.669200
60.475400 0.643400
60.541600 0.659600
60.607800 0.704800
60.673900 0.753400
60.740100 0.801800
60.806300 0.852900
60.872500 0.987100
60.938700 1.170100
61.004900 1.085900
61.071000 0.931900
61.137200 0.846800
61.203400 0.832500
61.269600 0.795400
61.335800 0.767500
61.401900 0.753600
61.468100 0.755500
61.534300 0.769600
61.600500 0.805600
61.666700 0.951300
61.732900 0.868200
61.799000 0.946000
61.865200 1.034000
61.931400 1.020400
61.997600 1.049600
62.063800 1.066800
62.129900 1.039300
62.196100 1.037300
62.262300 1.044600
62.328500 1.201700
62.394700 1.145000
62.460900 1.133900
62.527000 1.189200
62.593200 1.125200
62.659400 1.070700
62.725600 1.023400
62.791800 1.016100
62.857900 0.998600
62.924100 0.922100
62.990300 0.891900
63.056500 0.874300
63.122700 0.881300
63.188900 0.902600
63.255000 0.955600
63.321200 1.100400
63.387400 1.135800
63.453600 1.057500
63.519800 1.124600
63.585900 1.206800
63.652100 1.182600
63.718300 1.160500
63.784500 1.102500
63.850700 1.060600
63.916900 0.975300
63.983000 0.908700
64.049200 0.884600
64.115400 0.842200
64.181600 0.838900
64.247800 0.897800
64.313900 0.969900
64.380100 1.062900
64.446300 1.174500
64.512500 1.178800
64.578700 1.140900
64.644900 1.162900
64.711000 1.169600
64.777200 1.140800
64.843400 0.991200
64.909600 0.978900
64.975800 0.973400
65.041900 0.990600
65.108100 0.986800
65.174300 1.002500
65.240500 1.017700
65.306700 1.019000
65.372900 1.033400
65.439000 1.027100
65.505200 1.020400
65.571400 1.008400
65.637600 1.004800
65.703800 1.007400
65.769900 1.003100
65.836100 0.988700
65.902300 0.900500
65.968500 0.893500
66.034700 0.916900
66.100900 0.926800
66.167000 0.962000
66.233200 1.124900
66.299400 1.153300
66.365600 1.075900
66.431800 1.058400
66.497900 1.058900
66.564100 1.072500
66.630300 1.025500
66.696500 1.028500
66.762700 1.038100
66.828900 1.103600
66.895000 1.099000
66.961200 1.086600
67.027400 1.106700
67.093600 1.134100
67.159800 1.143800
67.225900 1.204800
67.292100 1.191300
67.358300 1.133000
67.424500 1.131100
67.490700 1.129800
67.556900 1.116700
67.623000 1.098500
67.689200 1.126500
67.755400 1.149200
67.821600 1.122500
67.887800 1.088000
67.953900 1.029400
68.020100 0.967800
68.086300 0.955500
68.152500 1.165400
68.218700 1.101700
68.284900 1.025800
68.351000 1.040800
68.417200 1.110200
68.483400 1.098200
68.549600 1.089900
68.615800 1.083400
68.681900 1.088500
68.748100 1.130300
68.814300 1.216400
68.880500 1.275800
68.946700 1.319500
69.012900 1.238400
69.079000 1.121300
69.145200 1.079700
69.211400 1.075900
69.277600 1.135100
69.343800 1.175800
69.409900 1.182800
69.476100 1.160800
69.542300 1.130400
69.608500 1.119300
69.674700 1.077200
69.740800 1.027800
69.807000 1.039900
69.873200 1.013500
69.939400 1.030100
70.005600 1.071600
70.071800 1.108400
70.137900 1.114500
70.204100 1.101700
70.270300 1.146900
70.336500 1.253600
70.402700 1.299100
70.468800 1.218700
70.535000 1.145700
70.601200 1.087900
70.667400 0.981800
70.733600 0.938700
70.799800 0.991500
70.865900 0.995400
70.932100 0.966000
70.998300 0.958500
71.064500 0.949600
71.130700 0.949800
71.196800 0.973200
71.263000 1.011700
71.329200 1.064100
71.395400 1.182700
71.461600 1.233900
71.527800 1.229700
71.593900 1.215900
71.660100 1.228000
71.726300 1.243700
71.792500 1.256400
71.858700 1.249700
71.924800 1.273900
71.991000 1.284200
72.057200 1.140900
72.123400 1.125500
72.189600 1.095300
72.255800 1.379900
72.321900 1.149900
72.388100 1.058400
72.454300 1.052300
72.520500 1.028700
72.586700 1.017900
72.652800 1.026400
72.719000 1.043600
72.785200 1.061200
72.851400 1.078700
72.917600 1.096000
72.983800 1.106600
73.049900 1.123100
73.116100 1.162200
73.182300 1.180600
73.248500 1.192300
73.314700 1.278700
73.380800 1.268400
73.447000 1.251000
73.513200 1.186400
73.579400 1.217600
73.645600 1.141400
73.711800 1.150300
73.777900 1.137600
73.844100 1.130600
73.910300 1.120100
73.976500 1.109500
74.042700 1.116400
74.108800 1.152400
74.175000 1.139900
74.241200 1.166800
74.307400 1.207000
74.373600 1.277100
74.439800 1.314700
74.505900 1.287100
74.572100 1.299500
74.638300 1.270900
74.704500 1.305500
74.770700 1.321800
74.836800 1.275700
74.903000 1.272400
74.969200 1.282400
75.035400 1.300300
75.101600 1.420400
75.167800 1.259100
75.233900 1.132600
75.300100 1.062700
75.366300 1.022300
75.432500 1.013800
75.498700 1.023900
75.564800 1.065300
75.631000 1.097400
75.697200 1.097000
75.763400 1.092800
75.829600 1.090600
75.895800 1.121600
75.961900 1.118700
76.028100 1.098400
76.094300 1.081900
76.160500 1.057400
76.226700 1.051400
76.292800 1.053700
76.359000 1.038900
76.425200 0.997700
76.491400 0.967600
76.557600 1.022400
76.623800 1.083800
76.689900 1.149800
76.756100 1.141900
76.822300 1.133500
76.888500 1.142700
76.954700 1.159500
77.020800 1.053600
77.087000 1.038400
77.153200 1.018100
77.219400 1.063200
77.285600 1.092400
77.351800 1.116200
77.417900 1.220500
77.484100 1.138200
77.550300 0.978800
77.616500 0.974900
77.682700 0.970700
77.748800 0.979500
77.815000 1.002600
77.881200 1.026700
77.947400 1.022600
78.013600 0.979000
78.079800 0.974700
78.145900 0.972300
78.212100 0.857900
78.278300 0.887300
78.344500 0.952000
78.410700 0.980600
78.476800 0.997500
78.543000 1.045400
78.609200 1.020700
78.675400 0.937100
78.741600 0.916100
78.807800 0.925400
78.873900 0.948100
78.940100 0.945900
79.006300 0.955300
79.072500 0.987700
79.138700 0.960700
79.204800 1.022700
79.271000 1.029300
79.337200 0.954900
79.403400 0.976000
79.469600 1.006200
79.535800 1.040300
79.601900 1.079300
79.668100 1.076000
79.734300 1.036000
79.800500 1.030100
79.866700 0.940300
79.932800 0.968700
79.999000 1.045200
80.065200 1.129600
80.131400 1.416100
80.197600 1.476600
80.263800 1.346000
80.329900 1.168100
80.396100 1.176700
80.462300 1.231200
80.528500 1.275700
80.594700 1.217800
80.660800 1.181100
80.727000 1.110000
80.793200 1.125800
80.859400 1.150900
80.925600 1.187400
80.991800 1.206100
81.057900 1.194500
81.124100 1.177100
81.190300 1.145900
81.256500 1.127900
81.322700 1.123900
81.388800 1.287000
81.455000 1.345900
81.521200 1.413900
81.587400 1.351300
81.653600 1.303700
81.719800 1.275000
81.785900 1.279100
81.852100 1.198000
81.918300 1.149400
81.984500 1.253800
82.050700 1.269600
82.116800 1.335100
82.183000 1.396500
82.249200 1.540600
82.315400 1.732400
82.381600 1.814700
82.447800 1.730900
82.513900 1.543900
82.580100 1.347100
82.646300 1.256100
82.712500 1.144100
82.778700 1.021100
82.844800 0.961900
82.911000 0.937500
82.977200 0.965300
83.043400 1.014700
83.109600 1.082200
83.175700 1.121700
83.241900 1.115200
83.308100 1.122500
83.374300 1.179300
83.440500 1.165700
83.506700 1.122900
83.572800 1.096400
83.639000 1.079600
83.705200 1.078300
83.771400 1.108600
83.837600 1.160800
83.903700 1.232200
83.969900 1.298600
84.036100 1.316400
84.102300 1.286500
84.168500 1.241500
84.234700 1.362000
84.300800 1.138700
84.367000 1.090900
84.433200 1.052500
84.499400 1.034600
84.565600 1.014900
84.631700 1.001900
84.697900 0.952400
84.764100 0.946400
84.830300 0.950800
84.896500 0.966000
84.962700 1.012200
85.028800 1.119000
85.095000 1.092100
85.161200 1.133300
85.227400 1.160000
85.293600 1.188200
85.359700 1.202500
85.425900 1.223700
85.492100 1.235700
85.558300 1.247300
85.624500 1.246700
85.690700 1.198800
85.756800 1.162700
85.823000 1.131500
85.889200 1.103700
85.955400 1.088900
86.021600 1.102700
86.087700 1.139900
86.153900 1.141200
86.220100 1.098900
86.286300 1.005500
86.352500 0.966900
86.418700 0.963300
86.484800 0.979000
86.551000 1.000300
86.617200 1.027200
86.683400 1.052100
86.749600 1.290600
86.815700 1.502800
86.881900 1.373800
86.948100 1.347500
87.014300 1.316000
87.080500 1.276600
87.146700 1.238300
87.212800 1.212400
87.279000 1.209900
87.345200 1.275000
87.411400 1.242600
87.477600 1.277700
87.543700 1.281400
87.609900 1.262000
87.676100 1.203000
87.742300 1.155400
87.808500 1.093300
87.874700 1.122300
87.940800 1.139400
88.007000 1.128300
88.073200 1.095100
88.139400 1.064000
88.205600 1.027500
88.271700 1.045300
88.337900 1.061800
88.404100 1.043700
88.470300 1.046700
88.536500 1.099200
88.602700 1.091200
88.668800 1.055600
88.735000 0.950000
88.801200 0.849000
88.867400 0.742400
88.933600 0.637400
88.999700 0.563700
89.065900 0.495500
89.132100 0.398500
89.198300 0.353500
89.264500 0.319100
89.330700 0.295400
89.396800 0.278600
89.463000 0.262900
89.529200 0.249900
89.595400 0.242400
89.661600 0.234000
89.727700 0.223800
89.793900 0.211600
89.860100 0.206800
89.926300 0.197800
89.992500 0.177500
90.058700 0.143000
90.124800 0.110200
90.191000 0.092400
90.257200 0.077800
90.323400 0.065700
90.389600 0.055800
90.455700 0.047200
90.521900 0.038500
90.588100 0.030200
90.654300 0.023000
90.720500 0.016800
90.786700 0.011500
90.852800 0.007300
90.919000 0.004000
90.985200 0.001700
91.051400 0.000400
91.117600 0.000000
91.183700 0.000000
91.249900 0.000000
91.316100 0.000000
91.382300 0.000000
91.448500 0.000000
91.514700 0.000000
91.580800 0.000000
91.647000 0.000000
91.713200 0.000000
91.779400 0.000000
91.845600 0.000000
91.911700 0.000000
91.977900 0.000000
92.044100 0.000000
92.110300 0.000000
92.176500 0.000000
92.242700 0.000000
92.308800 0.000000
92.375000 0.000000
92.441200 0.000000
92.507400 0.000000
92.573600 0.000000
92.639700 0.000000
92.705900 0.000000
92.772100 0.000000
92.838300 0.000000
92.904500 0.000000
92.970700 0.000000
93.036800 0.000000
93.103000 0.000000
93.169200 0.000000
93.235400 0.000000
93.301600 0.000000
93.367700 0.000000
93.433900 0.000000
93.500100 0.000000
93.566300 0.000000
93.632500 0.000000
93.698700 0.000000
93.764800 0.000000
93.831000 0.000000
93.897200 0.000000
93.963400 0.000000
94.029600 0.000000
94.095700 0.000000
94.161900 0.000000
94.228100 0.000000
94.294300 0.000000
94.360500 0.000000
94.426700 0.000000
94.492800 0.000000
94.559000 0.000000
94.625200 0.000000
94.691400 0.000000
94.757600 0.000000
94.823700 0.000000
94.889900 0.000000
94.956100 0.000000
95.022300 0.000000
95.088500 0.000000
95.154700 0.000000
95.220800 0.000000
95.287000 0.000000
95.353200 0.000000
95.419400 0.000000
95.485600 0.000000
95.551700 0.000000
95.617900 0.000000
95.684100 0.000000
95.750300 0.000000
95.816500 0.000000
95.882700 0.000000
95.948800 0.000000
96.015000 0.000000
96.081200 0.000000
96.147400 0.000000
96.213600 0.000000
96.279700 0.000000
96.345900 0.000000
96.412100 0.000000
96.478300 0.000000
96.544500 0.000000
96.610600 0.000000
96.676800 0.000000
96.743000 0.000000
96.809200 0.000000
96.875400 0.000000
96.941600 0.000000
97.007700 0.000000
97.073900 0.000000
97.140100 0.000000
97.206300 0.000000
97.272500 0.000000
97.338600 0.000000
97.404800 0.000000
97.471000 0.000000
97.537200 0.000000
97.603400 0.000000
97.669600 0.000000
97.735700 0.000000
e
