set title 'mp-1094057 - Density of States'
set xlabel 'Energy (eV)'
set ylabel 'DOS (states/eV)'
set grid
set xrange [-10:10]
set yrange [0:1.569]
set xzeroaxis lt -1
set terminal png size 800,600
set output 'mp-1094057_dos_gnuplot.png'
plot '-' using 1:2 with lines title 'DOS'
-7.251100 0.000000
-7.218000 0.000000
-7.184900 0.000000
-7.151800 0.000000
-7.118700 0.000000
-7.085600 0.000000
-7.052500 0.000000
-7.019400 0.000000
-6.986200 0.000000
-6.953100 0.000000
-6.920000 0.000000
-6.886900 0.000000
-6.853800 0.000000
-6.820700 0.000000
-6.787600 0.000000
-6.754500 0.000000
-6.721400 0.000000
-6.688300 0.000000
-6.655200 0.000000
-6.622100 0.000000
-6.589000 0.000000
-6.555900 0.000000
-6.522800 0.000000
-6.489700 0.000000
-6.456600 0.000000
-6.423500 0.000000
-6.390400 0.000000
-6.357300 0.000000
-6.324100 0.000000
-6.291000 0.000000
-6.257900 0.000000
-6.224800 0.000000
-6.191700 0.000000
-6.158600 0.000000
-6.125500 0.000000
-6.092400 0.000000
-6.059300 0.000000
-6.026200 0.000000
-5.993100 0.000000
-5.960000 0.000000
-5.926900 0.000000
-5.893800 0.000000
-5.860700 0.000000
-5.827600 0.000000
-5.794500 0.000000
-5.761400 0.000000
-5.728300 0.000000
-5.695200 0.000000
-5.662100 0.000000
-5.628900 0.000000
-5.595800 0.000000
-5.562700 0.000000
-5.529600 0.000000
-5.496500 0.000000
-5.463400 0.000000
-5.430300 0.000000
-5.397200 0.000000
-5.364100 0.000000
-5.331000 0.000000
-5.297900 0.000000
-5.264800 0.000000
-5.231700 0.000000
-5.198600 0.000000
-5.165500 0.000000
-5.132400 0.000000
-5.099300 0.000000
-5.066200 0.000000
-5.033100 0.000000
-5.000000 0.000000
-4.966800 0.000000
-4.933700 0.000000
-4.900600 0.000000
-4.867500 0.000000
-4.834400 0.000000
-4.801300 0.000000
-4.768200 0.000000
-4.735100 0.000000
-4.702000 0.000000
-4.668900 0.000000
-4.635800 0.000000
-4.602700 0.000000
-4.569600 0.000000
-4.536500 0.000000
-4.503400 0.000000
-4.470300 0.000000
-4.437200 0.000000
-4.404100 0.000000
-4.371000 0.000000
-4.337900 0.000000
-4.304800 0.000000
-4.271600 0.000000
-4.238500 0.000800
-4.205400 0.018700
-4.172300 0.047500
-4.139200 0.083900
-4.106100 0.120200
-4.073000 0.114500
-4.039900 0.123100
-4.006800 0.134400
-3.973700 0.144700
-3.940600 0.156400
-3.907500 0.168600
-3.874400 0.179700
-3.841300 0.191000
-3.808200 0.201400
-3.775100 0.209100
-3.742000 0.215000
-3.708900 0.219100
-3.675800 0.223900
-3.642700 0.230000
-3.609500 0.236600
-3.576400 0.244600
-3.543300 0.253800
-3.510200 0.262100
-3.477100 0.268200
-3.444000 0.271300
-3.410900 0.271500
-3.377800 0.269900
-3.344700 0.289700
-3.311600 0.303400
-3.278500 0.304700
-3.245400 0.307800
-3.212300 0.311700
-3.179200 0.316000
-3.146100 0.319700
-3.113000 0.323200
-3.079900 0.326600
-3.046800 0.330600
-3.013700 0.335300
-2.980600 0.340800
-2.947500 0.346600
-2.914300 0.351500
-2.881200 0.356700
-2.848100 0.361800
-2.815000 0.366600
-2.781900 0.371500
-2.748800 0.376400
-2.715700 0.381300
-2.682600 0.386300
-2.649500 0.391300
-2.616400 0.396200
-2.583300 0.400600
-2.550200 0.404300
-2.517100 0.407800
-2.484000 0.411000
-2.450900 0.413700
-2.417800 0.416800
-2.384700 0.420100
-2.351600 0.423700
-2.318500 0.427700
-2.285400 0.431600
-2.252300 0.435500
-2.219100 0.439300
-2.186000 0.442900
-2.152900 0.446500
-2.119800 0.450000
-2.086700 0.453700
-2.053600 0.457400
-2.020500 0.461200
-1.987400 0.465000
-1.954300 0.468900
-1.921200 0.472500
-1.888100 0.476100
-1.855000 0.479600
-1.821900 0.483300
-1.788800 0.487300
-1.755700 0.491500
-1.722600 0.495900
-1.689500 0.500000
-1.656400 0.504000
-1.623300 0.506500
-1.590200 0.509500
-1.557000 0.512500
-1.523900 0.515500
-1.490800 0.518400
-1.457700 0.521200
-1.424600 0.523900
-1.391500 0.528600
-1.358400 0.533600
-1.325300 0.537800
-1.292200 0.541200
-1.259100 0.543600
-1.226000 0.545100
-1.192900 0.545700
-1.159800 0.545500
-1.126700 0.546700
-1.093600 0.550100
-1.060500 0.551900
-1.027400 0.551900
-0.994300 0.596200
-0.961200 0.566300
-0.928100 0.567600
-0.895000 0.569500
-0.861800 0.572000
-0.828700 0.574700
-0.795600 0.578000
-0.762500 0.581800
-0.729400 0.586200
-0.696300 0.591000
-0.663200 0.595500
-0.630100 0.599500
-0.597000 0.602900
-0.563900 0.606600
-0.530800 0.609800
-0.497700 0.612600
-0.464600 0.615200
-0.431500 0.617600
-0.398400 0.620000
-0.365300 0.622400
-0.332200 0.624700
-0.299100 0.627100
-0.266000 0.629300
-0.232900 0.631300
-0.199700 0.633100
-0.166600 0.635900
-0.133500 0.638600
-0.100400 0.641300
-0.067300 0.644100
-0.034200 0.646900
-0.001100 0.649700
0.032000 0.652700
0.065100 0.655600
0.098200 0.658500
0.131300 0.661300
0.164400 0.664200
0.197500 0.667000
0.230600 0.669400
0.263700 0.671900
0.296800 0.674500
0.329900 0.677000
0.363000 0.679600
0.396100 0.682400
0.429200 0.685300
0.462300 0.688300
0.495500 0.691400
0.528600 0.694500
0.561700 0.697700
0.594800 0.700800
0.627900 0.704000
0.661000 0.707200
0.694100 0.710300
0.727200 0.713500
0.760300 0.716600
0.793400 0.718900
0.826500 0.721500
0.859600 0.724100
0.892700 0.726700
0.925800 0.729200
0.958900 0.731800
0.992000 0.734400
1.025100 0.737000
1.058200 0.739700
1.091300 0.742500
1.124400 0.745400
1.157500 0.748300
1.190700 0.751300
1.223800 0.754300
1.256900 0.757500
1.290000 0.760800
1.323100 0.764200
1.356200 0.767500
1.389300 0.770900
1.422400 0.774400
1.455500 0.778200
1.488600 0.782100
1.521700 0.786200
1.554800 0.790700
1.587900 0.799800
1.621000 0.815800
1.654100 0.836800
1.687200 0.851600
1.720300 0.861900
1.753400 0.870700
1.786500 0.878400
1.819600 0.885700
1.852800 0.893600
1.885900 0.902500
1.919000 0.909700
1.952100 0.912900
1.985200 0.915700
2.018300 0.919000
2.051400 0.918500
2.084500 0.914100
2.117600 0.906000
2.150700 0.893700
2.183800 0.877300
2.216900 0.863600
2.250000 0.850800
2.283100 0.838500
2.316200 0.827500
2.349300 0.818400
2.382400 0.818700
2.415500 0.831400
2.448600 0.860100
2.481700 0.872700
2.514800 0.872300
2.548000 0.867100
2.581100 0.857200
2.614200 0.841500
2.647300 0.834900
2.680400 0.843900
2.713500 0.848600
2.746600 0.850000
2.779700 0.850900
2.812800 0.855600
2.845900 0.845500
2.879000 0.822400
2.912100 0.805900
2.945200 0.799000
2.978300 0.794200
3.011400 0.793800
3.044500 0.793700
3.077600 0.799100
3.110700 0.799100
3.143800 0.794800
3.176900 0.789500
3.210100 0.792800
3.243200 0.808700
3.276300 0.799300
3.309400 0.800100
3.342500 0.799900
3.375600 0.797800
3.408700 0.801900
3.441800 0.801100
3.474900 0.794100
3.508000 0.792200
3.541100 0.797900
3.574200 0.809900
3.607300 0.824500
3.640400 0.842300
3.673500 0.863000
3.706600 0.883800
3.739700 0.903000
3.772800 0.908000
3.805900 0.919900
3.839000 0.967700
3.872100 0.996600
3.905300 1.003000
3.938400 0.988900
3.971500 0.950300
4.004600 0.930000
4.037700 0.926600
4.070800 0.926900
4.103900 0.927400
4.137000 0.931400
4.170100 0.938400
4.203200 0.944900
4.236300 1.017700
4.269400 0.931200
4.302500 0.921100
4.335600 0.963500
4.368700 0.974200
4.401800 0.941300
4.434900 0.940800
4.468000 0.944400
4.501100 0.950900
4.534200 1.016200
4.567300 1.005900
4.600500 0.989800
4.633600 0.971800
4.666700 0.958800
4.699800 0.957100
4.732900 0.951600
4.766000 0.934500
4.799100 0.908800
4.832200 0.896800
4.865300 0.882400
4.898400 0.865400
4.931500 0.868500
4.964600 0.882200
4.997700 0.899800
5.030800 0.917800
5.063900 0.931900
5.097000 0.965100
5.130100 0.967800
5.163200 0.989700
5.196300 0.992400
5.229400 1.000800
5.262600 1.012000
5.295700 1.010200
5.328800 0.970900
5.361900 0.950500
5.395000 0.946300
5.428100 0.946700
5.461200 0.944300
5.494300 0.938500
5.527400 0.929300
5.560500 0.913800
5.593600 0.932100
5.626700 0.916500
5.659800 0.901600
5.692900 0.906900
5.726000 0.914900
5.759100 0.925000
5.792200 0.966500
5.825300 0.993300
5.858400 1.023300
5.891500 1.051500
5.924600 1.080900
5.957800 1.107600
5.990900 1.132000
6.024000 1.158700
6.057100 1.189600
6.090200 1.221900
6.123300 1.252300
6.156400 1.241100
6.189500 1.204000
6.222600 1.183000
6.255700 1.177400
6.288800 1.183600
6.321900 1.198800
6.355000 1.223400
6.388100 1.252200
6.421200 1.252300
6.454300 1.276700
6.487400 1.290500
6.520500 1.160900
6.553600 1.133300
6.586700 1.116500
6.619900 1.098200
6.653000 1.078100
6.686100 1.081900
6.719200 1.072700
6.752300 1.060600
6.785400 1.070300
6.818500 1.062400
6.851600 1.036800
6.884700 1.013700
6.917800 1.019300
6.950900 1.006800
6.984000 0.999300
7.017100 1.002700
7.050200 1.010300
7.083300 1.054300
7.116400 1.111900
7.149500 1.111400
7.182600 1.065800
7.215700 1.039100
7.248800 1.018500
7.281900 0.995900
7.315100 0.977800
7.348200 0.968100
7.381300 1.017800
7.414400 1.008100
7.447500 0.998700
7.480600 0.999900
7.513700 1.007800
7.546800 1.039100
7.579900 1.068900
7.613000 1.074300
7.646100 1.102100
7.679200 1.148800
7.712300 1.221700
7.745400 1.277300
7.778500 1.193200
7.811600 1.185700
7.844700 1.184500
7.877800 1.187700
7.910900 1.200100
7.944000 1.217000
7.977200 1.245600
8.010300 1.264200
8.043400 1.275500
8.076500 1.273700
8.109600 1.275800
8.142700 1.263300
8.175800 1.238200
8.208900 1.212300
8.242000 1.193100
8.275100 1.169800
8.308200 1.140500
8.341300 1.121100
8.374400 1.151700
8.407500 1.204700
8.440600 1.225800
8.473700 1.210400
8.506800 1.198900
8.539900 1.188800
8.573000 1.175900
8.606100 1.163300
8.639200 1.143300
8.672400 1.123500
8.705500 1.109100
8.738600 1.104400
8.771700 1.097500
8.804800 1.100600
8.837900 1.110300
8.871000 1.123000
8.904100 1.151000
8.937200 1.170100
8.970300 1.179600
9.003400 1.185900
9.036500 1.186500
9.069600 1.184700
9.102700 1.186100
9.135800 1.187300
9.168900 1.189100
9.202000 1.191900
9.235100 1.197200
9.268200 1.203100
9.301300 1.208000
9.334400 1.217800
9.367600 1.228600
9.400700 1.238000
9.433800 1.242100
9.466900 1.240100
9.500000 1.230600
9.533100 1.218900
9.566200 1.211000
9.599300 1.207100
9.632400 1.208300
9.665500 1.217500
9.698600 1.230300
9.731700 1.244100
9.764800 1.261700
9.797900 1.284300
9.831000 1.310000
9.864100 1.338400
9.897200 1.373100
9.930300 1.410000
9.963400 1.426500
9.996500 1.420300
10.029700 1.397900
10.062800 1.389200
10.095900 1.374300
10.129000 1.358700
10.162100 1.353200
10.195200 1.364100
10.228300 1.405300
10.261400 1.404300
10.294500 1.383300
10.327600 1.353300
10.360700 1.321500
10.393800 1.291600
10.426900 1.270600
10.460000 1.250700
10.493100 1.230600
10.526200 1.210100
10.559300 1.195400
10.592400 1.189100
10.625500 1.187400
10.658600 1.190400
10.691700 1.201500
10.724900 1.206500
10.758000 1.207700
10.791100 1.215000
10.824200 1.228700
10.857300 1.255200
10.890400 1.271700
10.923500 1.282600
10.956600 1.289000
10.989700 1.296000
11.022800 1.306500
11.055900 1.315500
11.089000 1.323000
11.122100 1.320000
11.155200 1.331900
11.188300 1.339200
11.221400 1.344400
11.254500 1.349000
11.287600 1.355700
11.320700 1.366600
11.353800 1.373600
11.387000 1.378500
11.420100 1.380800
11.453200 1.380700
11.486300 1.380100
11.519400 1.382200
11.552500 1.388400
11.585600 1.395700
11.618700 1.402600
11.651800 1.412700
11.684900 1.415100
11.718000 1.414300
11.751100 1.406000
11.784200 1.389900
11.817300 1.379300
11.850400 1.374200
11.883500 1.370800
11.916600 1.371600
11.949700 1.380100
11.982800 1.384900
12.015900 1.383700
12.049000 1.383900
12.082200 1.383900
12.115300 1.387100
12.148400 1.385000
12.181500 1.382600
12.214600 1.367600
12.247700 1.345900
12.280800 1.336800
12.313900 1.312200
12.347000 1.296100
12.380100 1.284900
12.413200 1.272800
12.446300 1.264900
12.479400 1.261900
12.512500 1.266600
12.545600 1.277900
12.578700 1.303500
12.611800 1.334700
12.644900 1.333800
12.678000 1.340200
12.711100 1.350200
12.744200 1.364500
12.777400 1.381700
12.810500 1.399600
12.843600 1.418600
12.876700 1.439500
12.909800 1.431500
12.942900 1.436500
12.976000 1.435800
13.009100 1.430700
13.042200 1.438300
13.075300 1.452900
13.108400 1.466900
13.141500 1.480900
13.174600 1.450400
13.207700 1.445500
13.240800 1.452600
13.273900 1.467600
13.307000 1.498200
13.340100 1.538600
13.373200 1.585300
13.406300 1.626900
13.439500 1.653400
13.472600 1.666800
13.505700 1.664600
13.538800 1.649300
13.571900 1.639400
13.605000 1.634500
13.638100 1.638400
13.671200 1.643800
13.704300 1.654900
13.737400 1.664100
13.770500 1.665000
13.803600 1.650800
13.836700 1.630300
13.869800 1.624000
13.902900 1.616100
13.936000 1.614500
13.969100 1.600800
14.002200 1.578400
14.035300 1.553300
14.068400 1.544700
14.101500 1.541700
14.134700 1.529800
14.167800 1.525800
14.200900 1.522100
14.234000 1.518800
14.267100 1.518300
14.300200 1.518500
14.333300 1.519200
14.366400 1.523400
14.399500 1.530300
14.432600 1.535000
14.465700 1.540600
14.498800 1.548700
14.531900 1.555100
14.565000 1.558100
14.598100 1.558100
14.631200 1.555000
14.664300 1.557900
14.697400 1.583100
14.730500 1.606700
14.763600 1.609400
14.796800 1.608800
14.829900 1.608700
14.863000 1.611500
14.896100 1.616300
14.929200 1.699300
14.962300 1.719300
14.995400 1.701800
15.028500 1.693100
15.061600 1.711800
15.094700 1.718700
15.127800 1.713100
15.160900 1.684800
15.194000 1.658100
15.227100 1.639000
15.260200 1.608500
15.293300 1.573100
15.326400 1.554300
15.359500 1.541200
15.392600 1.529900
15.425700 1.520400
15.458800 1.512300
15.492000 1.505400
15.525100 1.499000
15.558200 1.494300
15.591300 1.489100
15.624400 1.482600
15.657500 1.474900
15.690600 1.465600
15.723700 1.462000
15.756800 1.445700
15.789900 1.423400
15.823000 1.430800
15.856100 1.439600
15.889200 1.443400
15.922300 1.440800
15.955400 1.441600
15.988500 1.445600
16.021600 1.453400
16.054700 1.448000
16.087800 1.436900
16.120900 1.433100
16.154000 1.429700
16.187200 1.429400
16.220300 1.436900
16.253400 1.488600
16.286500 1.447400
16.319600 1.468500
16.352700 1.496200
16.385800 1.539200
16.418900 1.564500
16.452000 1.580300
16.485100 1.567700
16.518200 1.567500
16.551300 1.556400
16.584400 1.563700
16.617500 1.573300
16.650600 1.585400
16.683700 1.599200
16.716800 1.615000
16.749900 1.632100
16.783000 1.673300
16.816100 1.694300
16.849300 1.693300
16.882400 1.685900
16.915500 1.665400
16.948600 1.661100
16.981700 1.660900
17.014800 1.647500
17.047900 1.634600
17.081000 1.620500
17.114100 1.641600
17.147200 1.666300
17.180300 1.618900
17.213400 1.587200
17.246500 1.540700
17.279600 1.453100
17.312700 1.398600
17.345800 1.380700
17.378900 1.374800
17.412000 1.331900
17.445100 1.306800
17.478200 1.307500
17.511300 1.312500
17.544500 1.317400
17.577600 1.327300
17.610700 1.354500
17.643800 1.388100
17.676900 1.421400
17.710000 1.458300
17.743100 1.494100
17.776200 1.491300
17.809300 1.458800
17.842400 1.438100
17.875500 1.445900
17.908600 1.437800
17.941700 1.414100
17.974800 1.401600
18.007900 1.393400
18.041000 1.386900
18.074100 1.402200
18.107200 1.379300
18.140300 1.361100
18.173400 1.354400
18.206600 1.355800
18.239700 1.359500
18.272800 1.363400
18.305900 1.372700
18.339000 1.380900
18.372100 1.389600
18.405200 1.394200
18.438300 1.398600
18.471400 1.410900
18.504500 1.432900
18.537600 1.475100
18.570700 1.494300
18.603800 1.512300
18.636900 1.531200
18.670000 1.551800
18.703100 1.574400
18.736200 1.598400
18.769300 1.627600
18.802400 1.642100
18.835500 1.597200
18.868600 1.573100
18.901800 1.559500
18.934900 1.550400
18.968000 1.549900
19.001100 1.552000
19.034200 1.551300
19.067300 1.548300
19.100400 1.545700
19.133500 1.548800
19.166600 1.559900
19.199700 1.572500
19.232800 1.578100
19.265900 1.575400
19.299000 1.567600
19.332100 1.562000
19.365200 1.560700
19.398300 1.550400
19.431400 1.546600
19.464500 1.543400
19.497600 1.540800
19.530700 1.539800
19.563900 1.537800
19.597000 1.536000
19.630100 1.537000
19.663200 1.533900
19.696300 1.522300
19.729400 1.515600
19.762500 1.510000
19.795600 1.503800
19.828700 1.499100
19.861800 1.497700
19.894900 1.502200
19.928000 1.508100
19.961100 1.518600
19.994200 1.529800
20.027300 1.540500
20.060400 1.550800
20.093500 1.560300
20.126600 1.570900
20.159700 1.577600
20.192800 1.579600
20.225900 1.575900
20.259100 1.576000
20.292200 1.569300
20.325300 1.551800
20.358400 1.528000
20.391500 1.533300
20.424600 1.545900
20.457700 1.564500
20.490800 1.580900
20.523900 1.597800
20.557000 1.617600
20.590100 1.629900
20.623200 1.721500
20.656300 1.667700
20.689400 1.667200
20.722500 1.682900
20.755600 1.705200
20.788700 1.718600
20.821800 1.727700
20.854900 1.732200
20.888000 1.798400
20.921100 1.798400
20.954300 1.770700
20.987400 1.768900
21.020500 1.769600
21.053600 1.773400
21.086700 1.775200
21.119800 1.763100
21.152900 1.795200
21.186000 1.716200
21.219100 1.718200
21.252200 1.722400
21.285300 1.728200
21.318400 1.730900
21.351500 1.733500
21.384600 1.736200
21.417700 1.749900
21.450800 1.769200
21.483900 1.786300
21.517000 1.798000
21.550100 1.807100
21.583200 1.815900
21.616400 1.833700
21.649500 1.848200
21.682600 1.871000
21.715700 1.899300
21.748800 1.860400
21.781900 1.865300
21.815000 1.869900
21.848100 1.874200
21.881200 1.885200
21.914300 1.925300
21.947400 1.949000
21.980500 1.988600
22.013600 1.882300
22.046700 1.855100
22.079800 1.821800
22.112900 1.790500
22.146000 1.791700
22.179100 1.735700
22.212200 1.730300
22.245300 1.709300
22.278400 1.698600
22.311600 1.697400
22.344700 1.706500
22.377800 1.762300
22.410900 1.799600
22.444000 1.750400
22.477100 1.795500
22.510200 1.760600
22.543300 1.746800
22.576400 1.802300
22.609500 1.819400
22.642600 1.822800
22.675700 1.824400
22.708800 1.837500
22.741900 1.859800
22.775000 1.892100
22.808100 1.941400
22.841200 2.016700
22.874300 2.043800
22.907400 2.040000
22.940500 2.031800
22.973700 2.009700
23.006800 1.995000
23.039900 1.975600
23.073000 1.913000
23.106100 1.871000
23.139200 1.898500
23.172300 1.945500
23.205400 1.927800
23.238500 1.895300
23.271600 1.860300
23.304700 1.837600
23.337800 1.818500
23.370900 1.853100
23.404000 1.897100
23.437100 1.956700
23.470200 1.930500
23.503300 1.892000
23.536400 1.914100
23.569500 2.023700
23.602600 2.015100
23.635700 2.002000
23.668900 1.953600
23.702000 1.935700
23.735100 1.924400
23.768200 1.909000
23.801300 1.886600
23.834400 1.885700
23.867500 1.918300
23.900600 1.863100
23.933700 1.809700
23.966800 1.765500
23.999900 1.727800
24.033000 1.688500
24.066100 1.655500
24.099200 1.648000
24.132300 1.715000
24.165400 1.894300
24.198500 2.045800
24.231600 2.032700
24.264700 1.932200
24.297800 1.873600
24.330900 1.820200
24.364100 1.800100
24.397200 1.791500
24.430300 1.742300
24.463400 1.714000
24.496500 1.737900
24.529600 1.769800
24.562700 1.810900
24.595800 1.862900
24.628900 1.893100
24.662000 1.915600
24.695100 1.937600
24.728200 2.053900
24.761300 2.050300
24.794400 2.062200
24.827500 1.938600
24.860600 1.881900
24.893700 1.895700
24.926800 1.915800
24.959900 2.065100
24.993000 1.921400
25.026200 1.951500
25.059300 1.962500
25.092400 1.943600
25.125500 1.904300
25.158600 1.838000
25.191700 1.771200
25.224800 1.724000
25.257900 1.704700
25.291000 1.723900
25.324100 1.749300
25.357200 1.808400
25.390300 1.880300
25.423400 1.892600
25.456500 1.902000
25.489600 1.962800
25.522700 2.005800
25.555800 2.079200
25.588900 2.130400
25.622000 2.112100
25.655100 2.095800
25.688200 2.073000
25.721400 2.046000
25.754500 2.012700
25.787600 1.986700
25.820700 1.978400
25.853800 1.991100
25.886900 2.041900
25.920000 2.016800
25.953100 1.992700
25.986200 1.990200
26.019300 1.995100
26.052400 1.986200
26.085500 1.952700
26.118600 1.941900
26.151700 1.946200
26.184800 1.966700
26.217900 1.960800
26.251000 1.970700
26.284100 1.995600
26.317200 1.983200
26.350300 1.975200
26.383500 1.965400
26.416600 1.959500
26.449700 1.945800
26.482800 1.925300
26.515900 1.904000
26.549000 1.934500
26.582100 1.883800
26.615200 1.885100
26.648300 1.887700
26.681400 1.881600
26.714500 1.873400
26.747600 1.859400
26.780700 1.855900
26.813800 1.857700
26.846900 1.846100
26.880000 1.857900
26.913100 1.835100
26.946200 1.815800
26.979300 1.801600
27.012400 1.816700
27.045500 1.857800
27.078700 1.886100
27.111800 1.842100
27.144900 1.833000
27.178000 1.834100
27.211100 1.843900
27.244200 1.862900
27.277300 1.893100
27.310400 1.924400
27.343500 1.940400
27.376600 1.932900
27.409700 1.962200
27.442800 1.892100
27.475900 1.846000
27.509000 1.829800
27.542100 1.819200
27.575200 1.815400
27.608300 1.803700
27.641400 1.797100
27.674500 1.800700
27.707600 1.809500
27.740700 1.816200
27.773900 1.824600
27.807000 1.847500
27.840100 1.849400
27.873200 1.842700
27.906300 1.856900
27.939400 1.867200
27.972500 1.832500
28.005600 1.797400
28.038700 1.748100
28.071800 1.742100
28.104900 1.777200
28.138000 1.772600
28.171100 1.739900
28.204200 1.781300
28.237300 1.851600
28.270400 1.922500
28.303500 1.944700
28.336600 1.915600
28.369700 1.962800
28.402800 1.953000
28.436000 1.927400
28.469100 1.942900
28.502200 1.916300
28.535300 1.878200
28.568400 1.844100
28.601500 1.823800
28.634600 1.849000
28.667700 1.897400
28.700800 2.081000
28.733900 2.022700
28.767000 1.994800
28.800100 1.978300
28.833200 1.973900
28.866300 1.985600
28.899400 2.018500
28.932500 2.100100
28.965600 2.100800
28.998700 2.139200
29.031800 2.173900
29.064900 2.187700
29.098000 2.187500
29.131200 2.169700
29.164300 2.134500
29.197400 2.051100
29.230500 2.037800
29.263600 2.041400
29.296700 2.035800
29.329800 2.033900
29.362900 2.039500
29.396000 2.057500
29.429100 2.087000
29.462200 2.125000
29.495300 2.095600
29.528400 2.130700
29.561500 2.127100
29.594600 2.149600
29.627700 2.116000
29.660800 2.100100
29.693900 2.079100
29.727000 2.068900
29.760100 2.095400
29.793300 2.118300
29.826400 2.101000
29.859500 2.129900
29.892600 2.197100
29.925700 2.265500
29.958800 2.509300
29.991900 2.374200
30.025000 2.140000
30.058100 2.019800
30.091200 1.994800
30.124300 1.992500
30.157400 2.005100
30.190500 2.032700
30.223600 2.052400
30.256700 2.126500
30.289800 2.165600
30.322900 2.169300
30.356000 2.137300
30.389100 2.126000
30.422200 2.124300
30.455300 2.106400
30.488500 2.097200
30.521600 2.116800
30.554700 2.140400
30.587800 2.157700
30.620900 2.163500
30.654000 2.151200
30.687100 2.129700
30.720200 2.112300
30.753300 2.100900
30.786400 2.086000
30.819500 2.070500
30.852600 2.074400
30.885700 2.075600
30.918800 2.087200
30.951900 2.116300
30.985000 2.118400
31.018100 2.096200
31.051200 2.039500
31.084300 1.999900
31.117400 1.980000
31.150600 1.971200
31.183700 2.003800
31.216800 2.015100
31.249900 1.964100
31.283000 1.903300
31.316100 1.893000
31.349200 1.898300
31.382300 1.882200
31.415400 1.856400
31.448500 1.832500
31.481600 1.800900
31.514700 1.794200
31.547800 1.828900
31.580900 1.828500
31.614000 1.815500
31.647100 1.809300
31.680200 1.813800
31.713300 1.823300
31.746400 1.840200
31.779500 1.857100
31.812600 1.881000
31.845800 1.918700
31.878900 1.961200
31.912000 2.001900
31.945100 2.040100
31.978200 2.087200
32.011300 2.133300
32.044400 2.156500
32.077500 2.100600
32.110600 2.102000
32.143700 2.115500
32.176800 2.134900
32.209900 2.140700
32.243000 2.141900
32.276100 2.142300
32.309200 2.149400
32.342300 2.171300
32.375400 2.201100
32.408500 2.221600
32.441600 2.221600
32.474700 2.226600
32.507800 2.260300
32.541000 2.233900
32.574100 2.236200
32.607200 2.236200
32.640300 2.220700
32.673400 2.182700
32.706500 2.144500
32.739600 2.114400
32.772700 2.092300
32.805800 2.093700
32.838900 2.067500
32.872000 2.045600
32.905100 2.053800
32.938200 2.063500
32.971300 2.095000
33.004400 2.141900
33.037500 2.233000
33.070600 2.287100
33.103700 2.269100
33.136800 2.247700
33.169900 2.264500
33.203100 2.250100
33.236200 2.214400
33.269300 2.178700
33.302400 2.146500
33.335500 2.122100
33.368600 2.120200
33.401700 2.132100
33.434800 2.124000
33.467900 2.124300
33.501000 2.098500
33.534100 2.065900
33.567200 2.041100
33.600300 2.025800
33.633400 2.007300
33.666500 1.991200
33.699600 1.985600
33.732700 2.003200
33.765800 2.025200
33.798900 2.045500
33.832000 2.072000
33.865100 2.109000
33.898300 2.145300
33.931400 2.165400
33.964500 2.180000
33.997600 2.199300
34.030700 2.244300
34.063800 2.289300
34.096900 2.313500
34.130000 2.327900
34.163100 2.332400
34.196200 2.352500
34.229300 2.357200
34.262400 2.350200
34.295500 2.333900
34.328600 2.313400
34.361700 2.303900
34.394800 2.310500
34.427900 2.336200
34.461000 2.329700
34.494100 2.273700
34.527200 2.172100
34.560400 2.127700
34.593500 2.113300
34.626600 2.135900
34.659700 2.152600
34.692800 2.156100
34.725900 2.142600
34.759000 2.117000
34.792100 2.101500
34.825200 2.121000
34.858300 2.148500
34.891400 2.138300
34.924500 2.120700
34.957600 2.097400
34.990700 2.053900
35.023800 1.964800
35.056900 1.885800
35.090000 1.859600
35.123100 1.847400
35.156200 1.834500
35.189300 1.831200
35.222400 1.807500
35.255600 1.782300
35.288700 1.754800
35.321800 1.738600
35.354900 1.735300
35.388000 1.790600
35.421100 1.773700
35.454200 1.787600
35.487300 1.782700
35.520400 1.764100
35.553500 1.765000
35.586600 1.756300
35.619700 1.744200
35.652800 1.751600
35.685900 1.767800
35.719000 1.775500
35.752100 1.770000
35.785200 1.759900
35.818300 1.761000
35.851400 1.750400
35.884500 1.726800
35.917600 1.691200
35.950800 1.661800
35.983900 1.646500
36.017000 1.642100
36.050100 1.663800
36.083200 1.687100
36.116300 1.647300
36.149400 1.746300
36.182500 1.691100
36.215600 1.601700
36.248700 1.526000
36.281800 1.485600
36.314900 1.452700
36.348000 1.427700
36.381100 1.396300
36.414200 1.342800
36.447300 1.305700
36.480400 1.291900
36.513500 1.271800
36.546600 1.244700
36.579700 1.220700
36.612900 1.212100
36.646000 1.177600
36.679100 1.147600
36.712200 1.118700
36.745300 1.087500
36.778400 1.063200
36.811500 1.041700
36.844600 1.020700
36.877700 0.998700
36.910800 0.977000
36.943900 0.957500
36.977000 0.947300
37.010100 0.940200
37.043200 0.936000
37.076300 0.929800
37.109400 0.921700
37.142500 0.913400
37.175600 0.904900
37.208700 0.901500
37.241800 0.907600
37.274900 0.925600
37.308100 0.949200
37.341200 0.977200
37.374300 1.011600
37.407400 1.050200
37.440500 1.093800
37.473600 1.142300
37.506700 1.212700
37.539800 1.397300
37.572900 1.533500
37.606000 1.674100
37.639100 1.725400
37.672200 1.736200
37.705300 1.594300
37.738400 1.216700
37.771500 1.104700
37.804600 1.040700
37.837700 1.016200
37.870800 0.969600
37.903900 0.933700
37.937000 0.918400
37.970200 0.887500
38.003300 0.885500
38.036400 0.894500
38.069500 0.897300
38.102600 0.903300
38.135700 0.912800
38.168800 0.927000
38.201900 0.945000
38.235000 0.964200
38.268100 0.991500
38.301200 1.025600
38.334300 1.068900
38.367400 1.120300
38.400500 1.171000
38.433600 1.246400
38.466700 1.280400
38.499800 1.274500
38.532900 1.266800
38.566000 1.261400
38.599100 1.265200
38.632200 1.288000
38.665400 1.327800
38.698500 1.350200
38.731600 1.348500
38.764700 1.349800
38.797800 1.362800
38.830900 1.385900
38.864000 1.413300
38.897100 1.443900
38.930200 1.474600
38.963300 1.492900
38.996400 1.506100
39.029500 1.512700
39.062600 1.512500
39.095700 1.511800
39.128800 1.519200
39.161900 1.536400
39.195000 1.553200
39.228100 1.562200
39.261200 1.577100
39.294300 1.586500
39.327400 1.591000
39.360600 1.601800
39.393700 1.616900
39.426800 1.636300
39.459900 1.649300
39.493000 1.657200
39.526100 1.641600
39.559200 1.629200
39.592300 1.621000
39.625400 1.615200
39.658500 1.615200
39.691600 1.637100
39.724700 1.684800
39.757800 1.731900
39.790900 1.730600
39.824000 1.679500
39.857100 1.648500
39.890200 1.622200
39.923300 1.598000
39.956400 1.602400
39.989500 1.640400
40.022700 1.630100
40.055800 1.585800
40.088900 1.529600
40.122000 1.481100
40.155100 1.443500
40.188200 1.415500
40.221300 1.364500
40.254400 1.282200
40.287500 1.195300
40.320600 1.167400
40.353700 1.157800
40.386800 1.154800
40.419900 1.161600
40.453000 1.169800
40.486100 1.183200
40.519200 1.198800
40.552300 1.209600
40.585400 1.227100
40.618500 1.247900
40.651600 1.272400
40.684700 1.300800
40.717900 1.332000
40.751000 1.365300
40.784100 1.407000
40.817200 1.447900
40.850300 1.505300
40.883400 1.545100
40.916500 1.571500
40.949600 1.582200
40.982700 1.586400
41.015800 1.588300
41.048900 1.619100
41.082000 1.623200
41.115100 1.634700
41.148200 1.645800
41.181300 1.660400
41.214400 1.680500
41.247500 1.690800
41.280600 1.687500
41.313700 1.689400
41.346800 1.692900
41.380000 1.698800
41.413100 1.697900
41.446200 1.708300
41.479300 1.721600
41.512400 1.727400
41.545500 1.749100
41.578600 1.776800
41.611700 1.823900
41.644800 1.870800
41.677900 1.905000
41.711000 1.938200
41.744100 1.925900
41.777200 1.926400
41.810300 1.934500
41.843400 1.928500
41.876500 1.916700
41.909600 1.914200
41.942700 1.918200
41.975800 1.929600
42.008900 1.995500
42.042000 2.010100
42.075200 1.973100
42.108300 1.964800
42.141400 1.962600
42.174500 1.957200
42.207600 1.955500
42.240700 1.961200
42.273800 1.970900
42.306900 1.983400
42.340000 1.997500
42.373100 2.012700
42.406200 2.029900
42.439300 2.085000
42.472400 2.118700
42.505500 2.151700
42.538600 2.192200
42.571700 2.228900
42.604800 2.282300
42.637900 2.286800
42.671000 2.276300
42.704100 2.315600
42.737300 2.440700
42.770400 2.504600
42.803500 2.531800
42.836600 2.458100
42.869700 2.389600
42.902800 2.337100
42.935900 2.337500
42.969000 2.395500
43.002100 2.378300
43.035200 2.230800
43.068300 2.158400
43.101400 2.128300
43.134500 2.108100
43.167600 2.112500
43.200700 2.105200
43.233800 2.113700
43.266900 2.142200
43.300000 2.181200
43.333100 2.267200
43.366200 2.297400
43.399300 2.245200
43.432500 2.256800
43.465600 2.275300
43.498700 2.297300
43.531800 2.315200
43.564900 2.348400
43.598000 2.416600
43.631100 2.493700
43.664200 2.541400
43.697300 2.595900
43.730400 2.610900
43.763500 2.663200
43.796600 2.716200
43.829700 2.816300
43.862800 2.912300
43.895900 2.948700
43.929000 3.041700
43.962100 2.886500
43.995200 2.770000
44.028300 2.640900
44.061400 2.595700
44.094500 2.549500
44.127700 2.533200
44.160800 2.548300
44.193900 2.591900
44.227000 2.633700
44.260100 2.737800
44.293200 2.765800
44.326300 2.841500
44.359400 2.909900
44.392500 2.960800
44.425600 2.961900
44.458700 3.000300
44.491800 3.023200
44.524900 3.035000
44.558000 3.064300
44.591100 2.966900
44.624200 2.994900
44.657300 3.022300
44.690400 2.932600
44.723500 2.891000
44.756600 2.894200
44.789800 2.910100
44.822900 2.913500
44.856000 2.884900
44.889100 2.904800
44.922200 2.990600
44.955300 3.092500
44.988400 3.157400
45.021500 3.110300
45.054600 3.092700
45.087700 3.027000
45.120800 2.869300
45.153900 2.886700
45.187000 2.960800
45.220100 3.150200
45.253200 3.271000
45.286300 3.564200
45.319400 3.315500
45.352500 3.155600
45.385600 3.021200
45.418700 2.949400
45.451800 2.834200
45.485000 2.750700
45.518100 2.668200
45.551200 2.646600
45.584300 2.644700
45.617400 2.576500
45.650500 2.590900
45.683600 2.605800
45.716700 2.647400
45.749800 2.641600
45.782900 2.664100
45.816000 2.677100
45.849100 2.692800
45.882200 2.734400
45.915300 2.743500
45.948400 2.820800
45.981500 2.827300
46.014600 2.768800
46.047700 2.713200
46.080800 2.662300
46.113900 2.616900
46.147100 2.633500
46.180200 2.664000
46.213300 2.667000
46.246400 2.638300
46.279500 2.756500
46.312600 2.631700
46.345700 2.566900
46.378800 2.519000
46.411900 2.485400
46.445000 2.468200
46.478100 2.455500
46.511200 2.410600
46.544300 2.382500
46.577400 2.364100
46.610500 2.377600
46.643600 2.416900
46.676700 2.481500
46.709800 2.549000
46.742900 2.629600
46.776000 2.662600
46.809100 2.676100
46.842300 2.671300
46.875400 2.661800
46.908500 2.645300
46.941600 2.568000
46.974700 2.568900
47.007800 2.562700
47.040900 2.608000
47.074000 2.429400
47.107100 2.414500
47.140200 2.466700
47.173300 2.536700
47.206400 2.619400
47.239500 2.662900
47.272600 2.656600
47.305700 2.654000
47.338800 2.611600
47.371900 2.575300
47.405000 2.495600
47.438100 2.449700
47.471200 2.356700
47.504300 2.292100
47.537500 2.255700
47.570600 2.255700
47.603700 2.270800
47.636800 2.322700
47.669900 2.404800
47.703000 2.505100
47.736100 2.527200
47.769200 2.633500
47.802300 2.627400
47.835400 2.524400
47.868500 2.420900
47.901600 2.366300
47.934700 2.341300
47.967800 2.315400
48.000900 2.280600
48.034000 2.242600
48.067100 2.167400
48.100200 2.127300
48.133300 2.136500
48.166400 2.138600
48.199600 2.182300
48.232700 2.316100
48.265800 2.371900
48.298900 2.361500
48.332000 2.352500
48.365100 2.369300
48.398200 2.481900
48.431300 2.603700
48.464400 2.743300
48.497500 2.868600
48.530600 2.970000
48.563700 2.827600
48.596800 2.699400
48.629900 2.643600
48.663000 2.643000
48.696100 2.617800
48.729200 2.630000
48.762300 2.585000
48.795400 2.558000
48.828500 2.565400
48.861600 2.547600
48.894800 2.519100
48.927900 2.483200
48.961000 2.449300
48.994100 2.422100
49.027200 2.478600
49.060300 2.542100
49.093400 2.557400
49.126500 2.577100
49.159600 2.594600
49.192700 2.598500
49.225800 2.584900
49.258900 2.527700
49.292000 2.471000
49.325100 2.493400
49.358200 2.502300
49.391300 2.489500
49.424400 2.445500
49.457500 2.354300
49.490600 2.366900
49.523700 2.410700
49.556900 2.456700
49.590000 2.493400
49.623100 2.503600
49.656200 2.498400
49.689300 2.507000
49.722400 2.507100
49.755500 2.521900
49.788600 2.447200
49.821700 2.470700
49.854800 2.493900
49.887900 2.504000
49.921000 2.480900
49.954100 2.457300
49.987200 2.427000
50.020300 2.395900
50.053400 2.387900
50.086500 2.423000
50.119600 2.400900
50.152700 2.383900
50.185800 2.400700
50.218900 2.437400
50.252100 2.464700
50.285200 2.486600
50.318300 2.465300
50.351400 2.432100
50.384500 2.384900
50.417600 2.385900
50.450700 2.389800
50.483800 2.435900
50.516900 2.405200
50.550000 2.382300
50.583100 2.335600
50.616200 2.252000
50.649300 2.168900
50.682400 2.154800
50.715500 2.148000
50.748600 2.140300
50.781700 2.147300
50.814800 2.164700
50.847900 2.182300
50.881000 2.188200
50.914100 2.181900
50.947300 2.182000
50.980400 2.202400
51.013500 2.221900
51.046600 2.239100
51.079700 2.261100
51.112800 2.287700
51.145900 2.304400
51.179000 2.260300
51.212100 2.249900
51.245200 2.256000
51.278300 2.258400
51.311400 2.319000
51.344500 2.316500
51.377600 2.303600
51.410700 2.306200
51.443800 2.335700
51.476900 2.446200
51.510000 2.387400
51.543100 2.295600
51.576200 2.311500
51.609400 2.347400
51.642500 2.329500
51.675600 2.352600
51.708700 2.321100
51.741800 2.329600
51.774900 2.300000
51.808000 2.266800
51.841100 2.262200
51.874200 2.297000
51.907300 2.351500
51.940400 2.419900
51.973500 2.453200
52.006600 2.414200
52.039700 2.399400
52.072800 2.387500
52.105900 2.384100
52.139000 2.383400
52.172100 2.389000
52.205200 2.414200
52.238300 2.433300
52.271400 2.400500
52.304600 2.383200
52.337700 2.367000
52.370800 2.401200
52.403900 2.487400
52.437000 2.499700
52.470100 2.450600
52.503200 2.459400
52.536300 2.456400
52.569400 2.415000
52.602500 2.419200
52.635600 2.436500
52.668700 2.463200
52.701800 2.484900
52.734900 2.486400
52.768000 2.477000
52.801100 2.465700
52.834200 2.445500
52.867300 2.420400
52.900400 2.407700
52.933500 2.408400
52.966700 2.461000
52.999800 2.523400
53.032900 2.621100
53.066000 2.684900
53.099100 2.681600
53.132200 2.656100
53.165300 2.640600
53.198400 2.597200
53.231500 2.559800
53.264600 2.508600
53.297700 2.452400
53.330800 2.409800
53.363900 2.369900
53.397000 2.286800
53.430100 2.159100
53.463200 2.039200
53.496300 1.932500
53.529400 1.882400
53.562500 1.850000
53.595600 1.820100
53.628700 1.800000
53.661900 1.787700
53.695000 1.761500
53.728100 1.719500
53.761200 1.673500
53.794300 1.630700
53.827400 1.575900
53.860500 1.524000
53.893600 1.477200
53.926700 1.424400
53.959800 1.376800
53.992900 1.325100
54.026000 1.275400
54.059100 1.261100
54.092200 1.217000
54.125300 1.241700
54.158400 1.226300
54.191500 1.166000
54.224600 1.121800
54.257700 1.061800
54.290800 0.997900
54.324000 0.956100
54.357100 0.934500
54.390200 0.947400
54.423300 0.945000
54.456400 0.970000
54.489500 0.912600
54.522600 0.852300
54.555700 0.802800
54.588800 0.750900
54.621900 0.694800
54.655000 0.621200
54.688100 0.583500
54.721200 0.515300
54.754300 0.408500
54.787400 0.308100
54.820500 0.235200
54.853600 0.153800
54.886700 0.125000
54.919800 0.109000
54.952900 0.094300
54.986000 0.080700
55.019200 0.068300
55.052300 0.057400
55.085400 0.048900
55.118500 0.041600
55.151600 0.034600
55.184700 0.027900
55.217800 0.021600
55.250900 0.015500
55.284000 0.009800
55.317100 0.005000
55.350200 0.001700
55.383300 0.001400
55.416400 0.001300
55.449500 0.001100
55.482600 0.001000
55.515700 0.000800
55.548800 0.000700
55.581900 0.000600
55.615000 0.000500
55.648100 0.000400
55.681200 0.000300
55.714400 0.000200
55.747500 0.000200
55.780600 0.000100
55.813700 0.000100
55.846800 0.000000
55.879900 0.000000
55.913000 0.000000
55.946100 0.000000
55.979200 0.000000
56.012300 0.000000
56.045400 0.000000
56.078500 0.000000
56.111600 0.000000
56.144700 0.000000
56.177800 0.000000
56.210900 0.000000
56.244000 0.000000
56.277100 0.000000
56.310200 0.000000
56.343300 0.000000
56.376500 0.000000
56.409600 0.000000
56.442700 0.000000
56.475800 0.000000
56.508900 0.000000
56.542000 0.000000
56.575100 0.000000
56.608200 0.000000
56.641300 0.000000
56.674400 0.000000
56.707500 0.000000
56.740600 0.000000
56.773700 0.000000
56.806800 0.000000
56.839900 0.000000
56.873000 0.000000
56.906100 0.000000
56.939200 0.000000
56.972300 0.000000
57.005400 0.000000
57.038500 0.000000
57.071700 0.000000
57.104800 0.000000
57.137900 0.000000
57.171000 0.000000
57.204100 0.000000
57.237200 0.000000
57.270300 0.000000
57.303400 0.000000
57.336500 0.000000
57.369600 0.000000
57.402700 0.000000
57.435800 0.000000
57.468900 0.000000
57.502000 0.000000
57.535100 0.000000
57.568200 0.000000
57.601300 0.000000
57.634400 0.000000
57.667500 0.000000
57.700600 0.000000
57.733800 0.000000
57.766900 0.000000
57.800000 0.000000
57.833100 0.000000
57.866200 0.000000
57.899300 0.000000
57.932400 0.000000
57.965500 0.000000
57.998600 0.000000
58.031700 0.000000
58.064800 0.000000
58.097900 0.000000
58.131000 0.000000
58.164100 0.000000
58.197200 0.000000
58.230300 0.000000
58.263400 0.000000
58.296500 0.000000
58.329600 0.000000
58.362700 0.000000
58.395800 0.000000
58.429000 0.000000
58.462100 0.000000
58.495200 0.000000
58.528300 0.000000
58.561400 0.000000
58.594500 0.000000
58.627600 0.000000
58.660700 0.000000
58.693800 0.000000
58.726900 0.000000
58.760000 0.000000
58.793100 0.000000
58.826200 0.000000
58.859300 0.000000
58.892400 0.000000
58.925500 0.000000
58.958600 0.000000
e
