set title 'mp-1009641 - Density of States'
set xlabel 'Energy (eV)'
set ylabel 'DOS (states/eV)'
set grid
set xrange [-10:10]
set yrange [0:19.481]
set xzeroaxis lt -1
set terminal png size 800,600
set output 'mp-1009641_dos_gnuplot.png'
plot '-' using 1:2 with lines title 'DOS'
-7.763300 0.000000
-7.748500 0.000000
-7.733800 0.000000
-7.719000 0.000000
-7.704300 0.000000
-7.689500 0.000000
-7.674800 0.000000
-7.660000 0.000000
-7.645300 0.000000
-7.630500 0.000000
-7.615800 0.000000
-7.601000 0.000000
-7.586300 0.000000
-7.571500 0.000000
-7.556800 0.000000
-7.542000 0.000000
-7.527300 0.000000
-7.512500 0.000000
-7.497800 0.000000
-7.483100 0.000000
-7.468300 0.000000
-7.453600 0.000000
-7.438800 0.000000
-7.424100 0.000000
-7.409300 0.000000
-7.394600 0.000000
-7.379800 0.000000
-7.365100 0.000000
-7.350300 0.000000
-7.335600 0.000000
-7.320800 0.000000
-7.306100 0.000000
-7.291300 0.000000
-7.276600 0.000000
-7.261800 0.000000
-7.247100 0.000000
-7.232300 0.000000
-7.217600 0.000000
-7.202800 0.000000
-7.188100 0.000000
-7.173300 0.000000
-7.158600 0.000000
-7.143800 0.000000
-7.129100 0.000000
-7.114300 0.000000
-7.099600 0.000000
-7.084800 0.000000
-7.070100 0.000000
-7.055300 0.000000
-7.040600 0.000000
-7.025800 0.000000
-7.011100 0.000000
-6.996300 0.000000
-6.981600 0.000000
-6.966900 0.000000
-6.952100 0.000000
-6.937400 0.000000
-6.922600 0.000000
-6.907900 0.000000
-6.893100 0.000000
-6.878400 0.000000
-6.863600 0.000000
-6.848900 0.000000
-6.834100 0.000000
-6.819400 0.000000
-6.804600 0.000000
-6.789900 0.000000
-6.775100 0.000000
-6.760400 0.000000
-6.745600 0.000000
-6.730900 0.000000
-6.716100 0.000000
-6.701400 0.000000
-6.686600 0.000000
-6.671900 0.000000
-6.657100 0.000000
-6.642400 0.000000
-6.627600 0.000000
-6.612900 0.000000
-6.598100 0.000000
-6.583400 0.000000
-6.568600 0.000000
-6.553900 0.000000
-6.539100 0.000000
-6.524400 0.000000
-6.509600 0.000000
-6.494900 0.000000
-6.480100 0.000000
-6.465400 0.000000
-6.450600 0.000000
-6.435900 0.000000
-6.421200 0.000100
-6.406400 0.020000
-6.391700 0.073400
-6.376900 0.130600
-6.362200 0.144500
-6.347400 0.150400
-6.332700 0.173000
-6.317900 0.196700
-6.303200 0.221200
-6.288400 0.241500
-6.273700 0.252400
-6.258900 0.258900
-6.244200 0.268900
-6.229400 0.281800
-6.214700 0.295800
-6.199900 0.309800
-6.185200 0.323800
-6.170400 0.338200
-6.155700 0.352800
-6.140900 0.366800
-6.126200 0.375800
-6.111400 0.384800
-6.096700 0.395800
-6.081900 0.406600
-6.067200 0.417000
-6.052400 0.427400
-6.037700 0.438400
-6.022900 0.450200
-6.008200 0.462700
-5.993400 0.476700
-5.978700 0.492500
-5.963900 0.508500
-5.949200 0.524100
-5.934400 0.539400
-5.919700 0.553200
-5.905000 0.566100
-5.890200 0.579800
-5.875500 0.616100
-5.860700 0.657000
-5.846000 0.689400
-5.831200 0.648300
-5.816500 0.653900
-5.801700 0.659000
-5.787000 0.663500
-5.772200 0.667700
-5.757500 0.667200
-5.742700 0.665600
-5.728000 0.665200
-5.713200 0.669300
-5.698500 0.673400
-5.683700 0.677300
-5.669000 0.679700
-5.654200 0.681500
-5.639500 0.683700
-5.624700 0.685500
-5.610000 0.682700
-5.595200 0.684200
-5.580500 0.686000
-5.565700 0.688100
-5.551000 0.690300
-5.536200 0.692900
-5.521500 0.695900
-5.506700 0.698800
-5.492000 0.701700
-5.477200 0.704600
-5.462500 0.707300
-5.447700 0.710000
-5.433000 0.712800
-5.418200 0.714400
-5.403500 0.716000
-5.388800 0.718100
-5.374000 0.721000
-5.359300 0.723600
-5.344500 0.726400
-5.329800 0.729300
-5.315000 0.732300
-5.300300 0.735400
-5.285500 0.738400
-5.270800 0.741600
-5.256000 0.744800
-5.241300 0.748100
-5.226500 0.751400
-5.211800 0.754800
-5.197000 0.758100
-5.182300 0.761200
-5.167500 0.763800
-5.152800 0.767200
-5.138000 0.770700
-5.123300 0.774400
-5.108500 0.778200
-5.093800 0.782300
-5.079000 0.786400
-5.064300 0.790600
-5.049500 0.795100
-5.034800 0.799800
-5.020000 0.804500
-5.005300 0.809300
-4.990500 0.814200
-4.975800 0.819300
-4.961000 0.824500
-4.946300 0.829800
-4.931500 0.835100
-4.916800 0.840500
-4.902000 0.845900
-4.887300 0.851500
-4.872500 0.857500
-4.857800 0.863600
-4.843100 0.869900
-4.828300 0.876300
-4.813600 0.882900
-4.798800 0.889500
-4.784100 0.896400
-4.769300 0.903400
-4.754600 0.910500
-4.739800 0.917700
-4.725100 0.925500
-4.710300 0.935300
-4.695600 0.983800
-4.680800 1.077400
-4.666100 1.065300
-4.651300 1.094300
-4.636600 1.124700
-4.621800 1.157700
-4.607100 1.178800
-4.592300 1.200400
-4.577600 1.230100
-4.562800 1.260700
-4.548100 1.292200
-4.533300 1.326600
-4.518600 1.365200
-4.503800 1.399200
-4.489100 1.440000
-4.474300 1.481000
-4.459600 1.522000
-4.444800 1.566900
-4.430100 1.678000
-4.415300 1.730800
-4.400600 1.751600
-4.385800 1.766800
-4.371100 1.792400
-4.356300 1.985600
-4.341600 1.864300
-4.326900 1.871800
-4.312100 1.878000
-4.297400 1.863500
-4.282600 1.858600
-4.267900 1.854500
-4.253100 1.850100
-4.238400 1.846000
-4.223600 1.835500
-4.208900 1.831400
-4.194100 1.841400
-4.179400 1.856400
-4.164600 1.872700
-4.149900 1.889200
-4.135100 1.865400
-4.120400 1.875400
-4.105600 1.870800
-4.090900 1.826500
-4.076100 1.791000
-4.061400 1.891900
-4.046600 1.671100
-4.031900 1.649700
-4.017100 1.631600
-4.002400 1.616300
-3.987600 1.604800
-3.972900 1.599200
-3.958100 1.605700
-3.943400 1.755600
-3.928600 1.689500
-3.913900 1.668200
-3.899100 1.757100
-3.884400 2.059300
-3.869600 2.429700
-3.854900 2.421800
-3.840100 2.465900
-3.825400 2.574800
-3.810700 2.523300
-3.795900 2.628600
-3.781200 2.784900
-3.766400 2.961500
-3.751700 4.749200
-3.736900 4.234300
-3.722200 3.980800
-3.707400 3.909500
-3.692700 4.003500
-3.677900 4.125600
-3.663200 4.619300
-3.648400 4.288900
-3.633700 3.716600
-3.618900 3.393300
-3.604200 3.184600
-3.589400 2.969000
-3.574700 2.810600
-3.559900 2.706800
-3.545200 2.658000
-3.530400 2.616000
-3.515700 2.576200
-3.500900 2.557100
-3.486200 2.566200
-3.471400 2.471200
-3.456700 2.343700
-3.441900 2.231700
-3.427200 2.164600
-3.412400 2.143000
-3.397700 2.165400
-3.382900 2.182000
-3.368200 2.306700
-3.353400 1.780400
-3.338700 1.099000
-3.323900 0.119500
-3.309200 0.000000
-3.294400 0.000000
-3.279700 0.000000
-3.265000 0.000000
-3.250200 0.000000
-3.235500 0.000000
-3.220700 0.000000
-3.206000 0.000000
-3.191200 0.000000
-3.176500 0.000000
-3.161700 0.000000
-3.147000 0.000000
-3.132200 0.000000
-3.117500 0.000000
-3.102700 0.000000
-3.088000 0.000000
-3.073200 0.000000
-3.058500 0.000000
-3.043700 0.000000
-3.029000 0.000000
-3.014200 0.000000
-2.999500 0.000000
-2.984700 0.000000
-2.970000 0.000000
-2.955200 0.000000
-2.940500 0.000000
-2.925700 0.000000
-2.911000 0.000000
-2.896200 0.000000
-2.881500 0.000000
-2.866700 0.000000
-2.852000 0.000000
-2.837200 0.000000
-2.822500 0.000000
-2.807700 0.000000
-2.793000 0.000000
-2.778200 0.000000
-2.763500 0.000000
-2.748800 0.000000
-2.734000 0.000000
-2.719300 0.000000
-2.704500 0.000000
-2.689800 0.000000
-2.675000 0.000000
-2.660300 0.000000
-2.645500 0.000000
-2.630800 0.000000
-2.616000 0.000000
-2.601300 0.000000
-2.586500 0.000000
-2.571800 0.000000
-2.557000 0.000000
-2.542300 0.000000
-2.527500 0.000000
-2.512800 0.000000
-2.498000 0.000000
-2.483300 0.000000
-2.468500 0.000000
-2.453800 0.000000
-2.439000 0.000000
-2.424300 0.000000
-2.409500 0.000000
-2.394800 0.000000
-2.380000 0.000000
-2.365300 0.000000
-2.350500 0.000000
-2.335800 0.000000
-2.321000 0.000000
-2.306300 0.000000
-2.291500 0.000000
-2.276800 0.000000
-2.262000 0.000000
-2.247300 0.000000
-2.232600 0.000000
-2.217800 0.000000
-2.203100 0.000000
-2.188300 0.000000
-2.173600 0.000000
-2.158800 0.000000
-2.144100 0.000000
-2.129300 0.000000
-2.114600 0.000000
-2.099800 0.000000
-2.085100 0.000000
-2.070300 0.000000
-2.055600 0.000000
-2.040800 0.000000
-2.026100 0.000000
-2.011300 0.000000
-1.996600 0.000000
-1.981800 0.000000
-1.967100 0.000000
-1.952300 0.000000
-1.937600 0.000000
-1.922800 0.000000
-1.908100 0.000000
-1.893300 0.000000
-1.878600 0.000000
-1.863800 0.000000
-1.849100 0.000000
-1.834300 0.000000
-1.819600 0.000000
-1.804800 0.000000
-1.790100 0.000000
-1.775300 0.000000
-1.760600 0.000000
-1.745800 0.000000
-1.731100 0.000000
-1.716400 0.000000
-1.701600 0.000000
-1.686900 0.000000
-1.672100 0.000000
-1.657400 0.000000
-1.642600 0.000000
-1.627900 0.000000
-1.613100 0.000000
-1.598400 0.000000
-1.583600 0.000000
-1.568900 0.000000
-1.554100 0.000000
-1.539400 0.000000
-1.524600 0.000000
-1.509900 0.000000
-1.495100 0.000000
-1.480400 0.000000
-1.465600 0.000000
-1.450900 0.000000
-1.436100 0.000000
-1.421400 0.000000
-1.406600 0.000000
-1.391900 0.000000
-1.377100 0.000000
-1.362400 0.000000
-1.347600 0.000000
-1.332900 0.000000
-1.318100 0.000000
-1.303400 0.000000
-1.288600 0.000000
-1.273900 0.000000
-1.259100 0.000000
-1.244400 0.000000
-1.229600 0.000000
-1.214900 0.000000
-1.200100 0.000000
-1.185400 0.000000
-1.170700 0.000000
-1.155900 0.000000
-1.141200 0.000000
-1.126400 0.000000
-1.111700 0.000000
-1.096900 0.000000
-1.082200 0.000000
-1.067400 0.000000
-1.052700 0.000000
-1.037900 0.000000
-1.023200 0.000000
-1.008400 0.000000
-0.993700 0.000000
-0.978900 0.000000
-0.964200 0.000000
-0.949400 0.000000
-0.934700 0.000000
-0.919900 0.000000
-0.905200 0.000000
-0.890400 0.000000
-0.875700 0.000000
-0.860900 0.000000
-0.846200 0.000000
-0.831400 0.000000
-0.816700 0.000000
-0.801900 0.000000
-0.787200 0.000000
-0.772400 0.000000
-0.757700 0.000000
-0.742900 0.000000
-0.728200 0.000000
-0.713400 0.000000
-0.698700 0.000000
-0.683900 0.000000
-0.669200 0.000000
-0.654500 0.000000
-0.639700 0.000000
-0.625000 0.000000
-0.610200 0.000000
-0.595500 0.000000
-0.580700 0.000000
-0.566000 0.000000
-0.551200 0.000000
-0.536500 0.000000
-0.521700 0.000000
-0.507000 0.000000
-0.492200 0.000000
-0.477500 0.000000
-0.462700 0.000000
-0.448000 0.000000
-0.433200 0.000000
-0.418500 0.000000
-0.403700 0.000000
-0.389000 0.000000
-0.374200 0.000000
-0.359500 0.000000
-0.344700 0.000000
-0.330000 0.000000
-0.315200 0.000000
-0.300500 0.000000
-0.285700 0.000000
-0.271000 0.000000
-0.256200 0.000000
-0.241500 0.000000
-0.226700 0.000000
-0.212000 0.000000
-0.197200 0.000000
-0.182500 0.000000
-0.167700 0.000000
-0.153000 0.000000
-0.138300 0.000000
-0.123500 0.000000
-0.108800 0.000000
-0.094000 0.000000
-0.079300 0.000000
-0.064500 0.000000
-0.049800 0.000000
-0.035000 0.000000
-0.020300 0.000000
-0.005500 0.000000
0.009200 0.000000
0.024000 0.000000
0.038700 0.000000
0.053500 0.000000
0.068200 0.000000
0.083000 0.000000
0.097700 0.000000
0.112500 0.000000
0.127200 0.000000
0.142000 0.000000
0.156700 0.000000
0.171500 0.000000
0.186200 0.000000
0.201000 0.000000
0.215700 0.000000
0.230500 0.000000
0.245200 0.000000
0.260000 0.000000
0.274700 0.000000
0.289500 0.000000
0.304200 0.000000
0.319000 0.000000
0.333700 0.000000
0.348500 0.000000
0.363200 0.000000
0.378000 0.000000
0.392700 0.000000
0.407400 0.000000
0.422200 0.000000
0.436900 0.000000
0.451700 0.000000
0.466400 0.000000
0.481200 0.000000
0.495900 0.000000
0.510700 0.000000
0.525400 0.000000
0.540200 0.000000
0.554900 0.000000
0.569700 0.000000
0.584400 0.000000
0.599200 0.000000
0.613900 0.000000
0.628700 0.000000
0.643400 0.000000
0.658200 0.000000
0.672900 0.000000
0.687700 0.000000
0.702400 0.000000
0.717200 0.000000
0.731900 0.000000
0.746700 0.000000
0.761400 0.000000
0.776200 0.000000
0.790900 0.000000
0.805700 0.000000
0.820400 0.000000
0.835200 0.000000
0.849900 0.000000
0.864700 0.000000
0.879400 0.000000
0.894200 0.000000
0.908900 0.000000
0.923600 0.000000
0.938400 0.000000
0.953100 0.000000
0.967900 0.000000
0.982600 0.000000
0.997400 0.000000
1.012100 0.000000
1.026900 0.000000
1.041600 0.010500
1.056400 0.283100
1.071100 0.227800
1.085900 0.266900
1.100600 0.292600
1.115400 0.326000
1.130100 0.369800
1.144900 0.416800
1.159600 0.466900
1.174400 0.500700
1.189100 0.515200
1.203900 0.522000
1.218600 0.542300
1.233400 0.562300
1.248100 0.580800
1.262900 0.600600
1.277600 0.623800
1.292400 0.649500
1.307100 0.681000
1.321900 0.718200
1.336600 0.757200
1.351400 0.794100
1.366100 0.832400
1.380900 0.871100
1.395600 0.909800
1.410400 0.947000
1.425100 0.983400
1.439800 1.020600
1.454600 1.058500
1.469300 1.092800
1.484100 1.135800
1.498800 1.204000
1.513600 1.266800
1.528300 1.332400
1.543100 1.403600
1.557800 1.437500
1.572600 1.454000
1.587300 1.497700
1.602100 1.536800
1.616800 1.563000
1.631600 1.559800
1.646300 1.557800
1.661100 1.657400
1.675800 1.808300
1.690600 2.027900
1.705300 2.359100
1.720100 2.060800
1.734800 1.994000
1.749600 1.929100
1.764300 1.904400
1.779100 1.922900
1.793800 1.939500
1.808600 1.945100
1.823300 1.942100
1.838100 1.935500
1.852800 1.922000
1.867600 1.936800
1.882300 1.904400
1.897100 2.063300
1.911800 1.680800
1.926600 1.673900
1.941300 1.671300
1.956100 1.681200
1.970800 1.753600
1.985500 1.849300
2.000300 1.966000
2.015000 2.107600
2.029800 2.334400
2.044500 2.602000
2.059300 2.736700
2.074000 2.630600
2.088800 2.575400
2.103500 2.532500
2.118300 2.584400
2.133000 2.761600
2.147800 2.644900
2.162500 2.624800
2.177300 2.586700
2.192000 2.554800
2.206800 2.534600
2.221500 2.538500
2.236300 2.592000
2.251000 2.649400
2.265800 2.467200
2.280500 2.344600
2.295300 2.238200
2.310000 2.146300
2.324800 2.051300
2.339500 1.939300
2.354300 1.905500
2.369000 1.857300
2.383800 1.823500
2.398500 1.771000
2.413300 1.725400
2.428000 1.681100
2.442800 1.645700
2.457500 1.602900
2.472300 1.566100
2.487000 1.531500
2.501700 1.499500
2.516500 1.473000
2.531200 1.452400
2.546000 1.433800
2.560700 1.416900
2.575500 1.401300
2.590200 1.388200
2.605000 1.387500
2.619700 1.388400
2.634500 1.388300
2.649200 1.393300
2.664000 1.401200
2.678700 1.412000
2.693500 1.430800
2.708200 1.459500
2.723000 1.497200
2.737700 1.538600
2.752500 1.584400
2.767200 1.640000
2.782000 1.711900
2.796700 1.769700
2.811500 1.833900
2.826200 1.897800
2.841000 1.960500
2.855700 2.028400
2.870500 2.061200
2.885200 2.071800
2.900000 2.059600
2.914700 2.025400
2.929500 2.015400
2.944200 1.996300
2.959000 1.968800
2.973700 1.937700
2.988500 1.895900
3.003200 1.858600
3.017900 1.834700
3.032700 1.808100
3.047400 1.800800
3.062200 1.790500
3.076900 1.792600
3.091700 1.799900
3.106400 1.810200
3.121200 1.823200
3.135900 1.826900
3.150700 1.834100
3.165400 1.845300
3.180200 1.873900
3.194900 1.894600
3.209700 1.897900
3.224400 1.861200
3.239200 1.803400
3.253900 1.732200
3.268700 1.646400
3.283400 1.472300
3.298200 1.348200
3.312900 1.361700
3.327700 1.384400
3.342400 1.412300
3.357200 1.442100
3.371900 1.474200
3.386700 1.513900
3.401400 1.567900
3.416200 1.627000
3.430900 1.690500
3.445700 1.754000
3.460400 1.814100
3.475200 1.864800
3.489900 1.899100
3.504700 1.909900
3.519400 1.883600
3.534100 1.855500
3.548900 1.858900
3.563600 1.889700
3.578400 1.916700
3.593100 1.959200
3.607900 1.962700
3.622600 1.943200
3.637400 1.924600
3.652100 1.904900
3.666900 1.890100
3.681600 1.882200
3.696400 1.874500
3.711100 1.925100
3.725900 1.932300
3.740600 1.949000
3.755400 1.968200
3.770100 2.025300
3.784900 2.176500
3.799600 2.196600
3.814400 2.280600
3.829100 2.368600
3.843900 2.422100
3.858600 2.458200
3.873400 2.494000
3.888100 2.543500
3.902900 2.610100
3.917600 2.698600
3.932400 2.851900
3.947100 2.964500
3.961900 2.995100
3.976600 2.902400
3.991400 2.950000
4.006100 3.009400
4.020900 3.104500
4.035600 3.206200
4.050400 3.253300
4.065100 3.301400
4.079800 3.326100
4.094600 4.120500
4.109300 4.761400
4.124100 6.041200
4.138800 6.437000
4.153600 6.241800
4.168300 6.219100
4.183100 6.339700
4.197800 6.114700
4.212600 5.989600
4.227300 5.788900
4.242100 5.754500
4.256800 5.803300
4.271600 5.292800
4.286300 5.142700
4.301100 5.035000
4.315800 4.797500
4.330600 4.563700
4.345300 4.483200
4.360100 4.490800
4.374800 4.475900
4.389600 4.363100
4.404300 4.063300
4.419100 3.577400
4.433800 3.183200
4.448600 2.792300
4.463300 2.328700
4.478100 2.037600
4.492800 1.910800
4.507600 1.834400
4.522300 1.823200
4.537100 1.883200
4.551800 1.947900
4.566600 2.177600
4.581300 2.542300
4.596000 2.679500
4.610800 2.728600
4.625500 2.771400
4.640300 2.894600
4.655000 3.013800
4.669800 3.194500
4.684500 3.525600
4.699300 3.605900
4.714000 3.725700
4.728800 3.733500
4.743500 3.600600
4.758300 3.445800
4.773000 3.295000
4.787800 3.120900
4.802500 3.062400
4.817300 3.020200
4.832000 3.167100
4.846800 3.235700
4.861500 3.411400
4.876300 3.570500
4.891000 3.647200
4.905800 3.693500
4.920500 3.733300
4.935300 3.738800
4.950000 3.691400
4.964800 3.626700
4.979500 3.619600
4.994300 3.642900
5.009000 3.679900
5.023800 3.726100
5.038500 3.777400
5.053300 3.835900
5.068000 3.916900
5.082800 4.049200
5.097500 4.104300
5.112200 4.168900
5.127000 4.285700
5.141700 3.869300
5.156500 3.689200
5.171200 3.505500
5.186000 3.407900
5.200700 3.007200
5.215500 2.971200
5.230200 2.948600
5.245000 2.978800
5.259700 2.895600
5.274500 2.813300
5.289200 2.682300
5.304000 2.586500
5.318700 2.519100
5.333500 2.494700
5.348200 2.466900
5.363000 2.439300
5.377700 2.409500
5.392500 2.382300
5.407200 2.357600
5.422000 2.334500
5.436700 2.314200
5.451500 2.299200
5.466200 2.303800
5.481000 2.310700
5.495700 2.317100
5.510500 2.322300
5.525200 2.328300
5.540000 2.340000
5.554700 2.358500
5.569500 2.375800
5.584200 2.381100
5.599000 2.405800
5.613700 2.425800
5.628500 2.459100
5.643200 2.404400
5.657900 2.401100
5.672700 2.446800
5.687400 2.411000
5.702200 2.352600
5.716900 2.359100
5.731700 2.548800
5.746400 2.685200
5.761200 2.344300
5.775900 1.745800
5.790700 1.761600
5.805400 1.930000
5.820200 2.086000
5.834900 2.242100
5.849700 2.444000
5.864400 2.675800
5.879200 3.194400
5.893900 3.666900
5.908700 4.609400
5.923400 6.690700
5.938200 6.741400
5.952900 6.697800
5.967700 7.456700
5.982400 8.300600
5.997200 9.501100
6.011900 12.169800
6.026700 16.074300
6.041400 17.710400
6.056200 15.272200
6.070900 9.817700
6.085700 8.471300
6.100400 7.819200
6.115200 7.715500
6.129900 7.983300
6.144700 7.118800
6.159400 6.764000
6.174100 6.854700
6.188900 6.641500
6.203600 6.676800
6.218400 6.496200
6.233100 6.560100
6.247900 5.531400
6.262600 4.905700
6.277400 4.483000
6.292100 4.546200
6.306900 4.740300
6.321600 5.044000
6.336400 4.959500
6.351100 5.096300
6.365900 5.175700
6.380600 5.193300
6.395400 5.024600
6.410100 4.937400
6.424900 4.865600
6.439600 4.809800
6.454400 4.743500
6.469100 4.683500
6.483900 4.640200
6.498600 4.612400
6.513400 4.561200
6.528100 4.498500
6.542900 4.397300
6.557600 4.297800
6.572400 4.403700
6.587100 4.061000
6.601900 3.815700
6.616600 3.645600
6.631400 3.529100
6.646100 3.376700
6.660900 3.249400
6.675600 3.096700
6.690300 2.909400
6.705100 2.725700
6.719800 2.613500
6.734600 2.510000
6.749300 2.408700
6.764100 2.321300
6.778800 2.240800
6.793600 2.167500
6.808300 2.105200
6.823100 2.050100
6.837800 2.000000
6.852600 1.951400
6.867300 1.904300
6.882100 1.858900
6.896800 1.819200
6.911600 1.780200
6.926300 1.747800
6.941100 1.718300
6.955800 1.689300
6.970600 1.659400
6.985300 1.629600
7.000100 1.599900
7.014800 1.569800
7.029600 1.538700
7.044300 1.510700
7.059100 1.486700
7.073800 1.465800
7.088600 1.448500
7.103300 1.432300
7.118100 1.418000
7.132800 1.398700
7.147600 1.376500
7.162300 1.351100
7.177100 1.327100
7.191800 1.304100
7.206600 1.281800
7.221300 1.260400
7.236000 1.242300
7.250800 1.227700
7.265500 1.217500
7.280300 1.216800
7.295000 1.222100
7.309800 1.220300
7.324500 1.210300
7.339300 1.201500
7.354000 1.195300
7.368800 1.190300
7.383500 1.185100
7.398300 1.214500
7.413000 1.173800
7.427800 1.150200
7.442500 1.131800
7.457300 1.112700
7.472000 1.028600
7.486800 1.002400
7.501500 0.980400
7.516300 0.962100
7.531000 0.968900
7.545800 0.969200
7.560500 0.991000
7.575300 1.009800
7.590000 1.009500
7.604800 0.984000
7.619500 0.909600
7.634300 0.990900
7.649000 1.103900
7.663800 1.217100
7.678500 1.151200
7.693300 1.170500
7.708000 1.218900
7.722800 1.239500
7.737500 1.276700
7.752200 1.289800
7.767000 1.314700
7.781700 1.363900
7.796500 1.431000
7.811200 1.510300
7.826000 1.597400
7.840700 1.689400
7.855500 1.736800
7.870200 1.758600
7.885000 1.749500
7.899700 1.719700
7.914500 1.714700
7.929200 1.749900
7.944000 1.832200
7.958700 1.887300
7.973500 1.934300
7.988200 2.040000
8.003000 2.187500
8.017700 2.186200
8.032500 2.136000
8.047200 2.068400
8.062000 2.082200
8.076700 2.075500
8.091500 2.068700
8.106200 2.071800
8.121000 2.110500
8.135700 2.111100
8.150500 2.093400
8.165200 2.036200
8.180000 2.016300
8.194700 2.010500
8.209500 2.009400
8.224200 2.009700
8.239000 2.010600
8.253700 2.009900
8.268400 2.013400
8.283200 2.024000
8.297900 2.027200
8.312700 2.017300
8.327400 2.004700
8.342200 1.993900
8.356900 2.009600
8.371700 2.027000
8.386400 2.046900
8.401200 2.038200
8.415900 2.005600
8.430700 2.004600
8.445400 2.010600
8.460200 2.025300
8.474900 2.047900
8.489700 2.084400
8.504400 2.133200
8.519200 2.175300
8.533900 2.199100
8.548700 3.132300
8.563400 2.786800
8.578200 2.395000
8.592900 2.204900
8.607700 2.111500
8.622400 2.071200
8.637200 2.056100
8.651900 2.060300
8.666700 2.102800
8.681400 2.134500
8.696200 2.198100
8.710900 2.284000
8.725700 2.372500
8.740400 2.461700
8.755200 2.491100
8.769900 2.472800
8.784700 2.439600
8.799400 2.410800
8.814100 2.408700
8.828900 2.413900
8.843600 2.428600
8.858400 2.454700
8.873100 2.487500
8.887900 2.529700
8.902600 2.581300
8.917400 2.661000
8.932100 2.801000
8.946900 2.820300
8.961600 2.824900
8.976400 2.841700
8.991100 2.861100
9.005900 2.886900
9.020600 2.909800
9.035400 2.924600
9.050100 2.931800
9.064900 2.924900
9.079600 2.943100
9.094400 2.978900
9.109100 3.018200
9.123900 3.072800
9.138600 3.160500
9.153400 3.192000
9.168100 3.101300
9.182900 3.071800
9.197600 3.074700
9.212400 3.098800
9.227100 3.123100
9.241900 3.160300
9.256600 3.193500
9.271400 3.238400
9.286100 3.335000
9.300900 3.398500
9.315600 3.346200
9.330300 3.290400
9.345100 3.284600
9.359800 3.353000
9.374600 3.104900
9.389300 2.983400
9.404100 2.948200
9.418800 2.653600
9.433600 2.270400
9.448300 1.906900
9.463100 1.388600
9.477800 1.018500
9.492600 0.879700
9.507300 0.797700
9.522100 0.713500
9.536800 0.623300
9.551600 0.524000
9.566300 0.411600
9.581100 0.262700
9.595800 0.136900
9.610600 0.057000
9.625300 0.020700
9.640100 0.002600
9.654800 0.000000
9.669600 0.000000
9.684300 0.000000
9.699100 0.000000
9.713800 0.000000
9.728600 0.000000
9.743300 0.000000
9.758100 0.000000
9.772800 0.000000
9.787600 0.000000
9.802300 0.000000
9.817100 0.000000
9.831800 0.000000
9.846500 0.000000
9.861300 0.000000
9.876000 0.000000
9.890800 0.000000
9.905500 0.000000
9.920300 0.000000
9.935000 0.000000
9.949800 0.000000
9.964500 0.000000
9.979300 0.000000
9.994000 0.000000
10.008800 0.000000
10.023500 0.000000
10.038300 0.000000
10.053000 0.000000
10.067800 0.000000
10.082500 0.000000
10.097300 0.000000
10.112000 0.000000
10.126800 0.000000
10.141500 0.000000
10.156300 0.000000
10.171000 0.000000
10.185800 0.000000
10.200500 0.000000
10.215300 0.000000
10.230000 0.000000
10.244800 0.000000
10.259500 0.000000
10.274300 0.000000
10.289000 0.000000
10.303800 0.000000
10.318500 0.000000
10.333300 0.000000
10.348000 0.000000
10.362700 0.000000
10.377500 0.000000
10.392200 0.000000
10.407000 0.000000
10.421700 0.000000
10.436500 0.000000
10.451200 0.000000
10.466000 0.000000
10.480700 0.000000
10.495500 0.000000
10.510200 0.000000
10.525000 0.000000
10.539700 0.000000
10.554500 0.000000
10.569200 0.000000
10.584000 0.000000
10.598700 0.000000
10.613500 0.000000
10.628200 0.000000
10.643000 0.000000
10.657700 0.000000
10.672500 0.000000
10.687200 0.000000
10.702000 0.000000
10.716700 0.000000
10.731500 0.000000
10.746200 0.000000
10.761000 0.000000
10.775700 0.000000
10.790500 0.011100
10.805200 0.018100
10.820000 0.025200
10.834700 0.032200
10.849500 0.039300
10.864200 0.046400
10.879000 0.053500
10.893700 0.060800
10.908400 0.068200
10.923200 0.075900
10.937900 0.083700
10.952700 0.091600
10.967400 0.092100
10.982200 0.096000
10.996900 0.100000
11.011700 0.103100
11.026400 0.106100
11.041200 0.133900
11.055900 0.186000
11.070700 0.235000
11.085400 0.275800
11.100200 0.317400
11.114900 0.362900
11.129700 0.516600
11.144400 0.622100
11.159200 0.701700
11.173900 0.764900
11.188700 0.820800
11.203400 0.872500
11.218200 0.921000
11.232900 0.954400
11.247700 0.966900
11.262400 0.984900
11.277200 0.998000
11.291900 1.004900
11.306700 0.966400
11.321400 0.950400
11.336200 0.947300
11.350900 0.948200
11.365700 0.952300
11.380400 0.960500
11.395200 0.971100
11.409900 0.982300
11.424600 0.994000
11.439400 1.006200
11.454100 1.018100
11.468900 1.033000
11.483600 1.050500
11.498400 1.069600
11.513100 1.090400
11.527900 1.113000
11.542600 1.137000
11.557400 1.162500
11.572100 1.189500
11.586900 1.218300
11.601600 1.249100
11.616400 1.280500
11.631100 1.308600
11.645900 1.333200
11.660600 1.336900
11.675400 1.326900
11.690100 1.312600
11.704900 1.291100
11.719600 1.280000
11.734400 1.276100
11.749100 1.276500
11.763900 1.275800
11.778600 1.263500
11.793400 1.245300
11.808100 1.221400
11.822900 1.204800
11.837600 1.196500
11.852400 1.188500
11.867100 1.181500
11.881900 1.177600
11.896600 1.176700
11.911400 1.180700
11.926100 1.189800
11.940800 1.203100
11.955600 1.218000
11.970300 1.232200
11.985100 1.243600
11.999800 1.256000
12.014600 1.271700
12.029300 1.289500
12.044100 1.310100
12.058800 1.332500
12.073600 1.355600
12.088300 1.378500
12.103100 1.401400
12.117800 1.427300
12.132600 1.452300
12.147300 1.481900
12.162100 1.515800
12.176800 1.550600
12.191600 1.573200
12.206300 1.595500
12.221100 1.618000
12.235800 1.638400
12.250600 1.646200
12.265300 1.652400
12.280100 1.658800
12.294800 1.669400
12.309600 1.676900
12.324300 1.684400
12.339100 1.694100
12.353800 1.704800
12.368600 1.714500
12.383300 1.727000
12.398100 1.741600
12.412800 1.754400
12.427600 1.770900
12.442300 1.785600
12.457100 1.798600
12.471800 1.809900
12.486500 1.820700
12.501300 1.833800
12.516000 1.848100
12.530800 1.862700
12.545500 1.877200
12.560300 1.890700
12.575000 1.902000
12.589800 1.907900
12.604500 1.907600
12.619300 1.914100
12.634000 1.901300
12.648800 1.891600
12.663500 1.874900
12.678300 1.847400
12.693000 1.810700
12.707800 1.773600
12.722500 1.736900
12.737300 1.698100
12.752000 1.657500
12.766800 1.616300
12.781500 1.579200
12.796300 1.544500
12.811000 1.580500
12.825800 1.460600
12.840500 1.428000
12.855300 1.402700
12.870000 1.385700
12.884800 1.369700
12.899500 1.356500
12.914300 1.349900
12.929000 1.346800
12.943800 1.339600
12.958500 1.329600
12.973300 1.316800
12.988000 1.304800
13.002700 1.294700
13.017500 1.287000
13.032200 1.285200
13.047000 1.291000
13.061700 1.313900
13.076500 1.350500
13.091200 1.401500
13.106000 1.465200
13.120700 1.538000
13.135500 1.613100
13.150200 1.637000
13.165000 1.674600
13.179700 1.717000
13.194500 1.759400
13.209200 1.818000
13.224000 1.860300
13.238700 1.897200
13.253500 1.933400
13.268200 1.966700
13.283000 1.997600
13.297700 2.025800
13.312500 2.051400
13.327200 2.071600
13.342000 2.087700
13.356700 2.095800
13.371500 2.096900
13.386200 2.093400
13.401000 2.072600
13.415700 2.029300
13.430500 1.992100
13.445200 1.964200
13.460000 1.915100
13.474700 1.913000
13.489500 1.906200
13.504200 1.896600
13.518900 1.898900
13.533700 1.867000
13.548400 1.834200
13.563200 1.830800
13.577900 1.794300
13.592700 1.795700
13.607400 1.795100
13.622200 1.793400
13.636900 1.784800
13.651700 1.756900
13.666400 1.719100
13.681200 1.668800
13.695900 1.650500
13.710700 1.675400
13.725400 1.704000
13.740200 1.712500
13.754900 1.756600
13.769700 1.807100
13.784400 1.759600
13.799200 1.811500
13.813900 1.877600
13.828700 1.942000
13.843400 1.986000
13.858200 2.023900
13.872900 2.060700
13.887700 2.101900
13.902400 2.155400
13.917200 2.260000
13.931900 2.341100
13.946700 2.432300
13.961400 2.474600
13.976200 2.493600
13.990900 2.536900
14.005700 2.600200
14.020400 2.670300
14.035200 2.723200
14.049900 2.741700
14.064600 2.800500
14.079400 2.855100
14.094100 2.891100
14.108900 2.891900
14.123600 2.841100
14.138400 2.840400
14.153100 2.873200
14.167900 2.875300
14.182600 2.867000
14.197400 2.852800
14.212100 2.800000
14.226900 2.731400
14.241600 2.738600
14.256400 2.691400
14.271100 2.636500
14.285900 2.587700
14.300600 2.539700
14.315400 2.487100
14.330100 2.443300
14.344900 2.405200
14.359600 2.368400
14.374400 2.330000
14.389100 2.300000
14.403900 2.285900
14.418600 2.277000
14.433400 2.271200
14.448100 2.285800
14.462900 2.334000
14.477600 2.399700
14.492400 2.465200
14.507100 2.527300
14.521900 2.593100
14.536600 2.638900
14.551400 2.625600
14.566100 2.643500
14.580800 2.647200
14.595600 2.634200
14.610300 2.570600
14.625100 2.550000
14.639800 2.562300
14.654600 2.522900
14.669300 2.506300
14.684100 2.439900
14.698800 2.365700
14.713600 2.306100
14.728300 2.284700
14.743100 2.284600
14.757800 2.288200
14.772600 2.285200
14.787300 2.283600
14.802100 2.287400
14.816800 2.295300
14.831600 2.310400
14.846300 2.311700
14.861100 2.314100
14.875800 2.315100
14.890600 2.320800
14.905300 2.332400
14.920100 2.342300
14.934800 2.358800
14.949600 2.393700
14.964300 2.431900
14.979100 2.510000
14.993800 2.472600
15.008600 2.377800
15.023300 2.326800
15.038100 2.270900
15.052800 2.224800
15.067600 2.199400
15.082300 2.198800
15.097000 2.180200
15.111800 2.153100
15.126500 2.124600
15.141300 2.095800
15.156000 2.063400
15.170800 2.037900
15.185500 1.998100
15.200300 1.981500
15.215000 1.972800
15.229800 1.945300
15.244500 1.930500
15.259300 1.930600
15.274000 1.933300
15.288800 1.936500
15.303500 1.951500
15.318300 1.976800
15.333000 2.009400
15.347800 2.064100
15.362500 2.135300
15.377300 2.203500
15.392000 2.288900
15.406800 2.380700
15.421500 2.505000
15.436300 2.693400
15.451000 2.582200
15.465800 2.562300
15.480500 2.512500
15.495300 2.468600
15.510000 2.427800
15.524800 2.357600
15.539500 2.353200
15.554300 2.338800
15.569000 2.307900
15.583800 2.278800
15.598500 2.248400
15.613200 2.217800
15.628000 2.180600
15.642700 2.142800
15.657500 2.053500
15.672200 1.924700
15.687000 1.834700
15.701700 1.799900
15.716500 1.770700
15.731200 1.741200
15.746000 1.717900
15.760700 1.721300
15.775500 1.718600
15.790200 1.697200
15.805000 1.667000
15.819700 1.640200
15.834500 1.625300
15.849200 1.664600
15.864000 1.737600
15.878700 1.837100
15.893500 1.931300
15.908200 1.988300
15.923000 2.034700
15.937700 2.074500
15.952500 2.112000
15.967200 2.146400
15.982000 2.167700
15.996700 2.184500
16.011500 2.203800
16.026200 2.247100
16.041000 2.262900
16.055700 2.276000
16.070500 2.285700
16.085200 2.293100
16.100000 2.278300
16.114700 2.295700
16.129500 2.296300
16.144200 2.294000
16.158900 2.291200
16.173700 2.270100
16.188400 2.264200
16.203200 2.250600
16.217900 2.251800
16.232700 2.245300
16.247400 2.253300
16.262200 2.200300
16.276900 2.180400
16.291700 2.192300
16.306400 2.215900
16.321200 2.213200
16.335900 2.211300
16.350700 2.208900
16.365400 2.233500
16.380200 2.263000
16.394900 2.144000
16.409700 2.117000
16.424400 2.088300
16.439200 2.059700
16.453900 2.028700
16.468700 1.992100
16.483400 1.949100
16.498200 1.924000
16.512900 1.903000
16.527700 1.899300
16.542400 1.906000
16.557200 1.891500
16.571900 1.879500
16.586700 1.870500
16.601400 1.858900
16.616200 1.845900
16.630900 1.829800
16.645700 1.808600
16.660400 1.790000
16.675100 1.776600
16.689900 1.771400
16.704600 1.740100
16.719400 1.725600
16.734100 1.708200
16.748900 1.695400
16.763600 1.690600
16.778400 1.686100
16.793100 1.683600
16.807900 1.684300
16.822600 1.692000
16.837400 1.703300
16.852100 1.709700
16.866900 1.724100
16.881600 1.748400
16.896400 1.770200
16.911100 1.789400
16.925900 1.803600
16.940600 1.812300
16.955400 1.819100
16.970100 1.836000
16.984900 1.847500
16.999600 1.851800
17.014400 1.852200
17.029100 1.846300
17.043900 1.842800
17.058600 1.841900
17.073400 1.841000
17.088100 1.852400
17.102900 1.866500
17.117600 1.875300
17.132400 1.868100
17.147100 1.858200
17.161900 1.883700
17.176600 1.893100
17.191300 1.882800
17.206100 1.860400
17.220800 1.866000
17.235600 1.879300
17.250300 1.893800
17.265100 1.907400
17.279800 1.919300
17.294600 1.929500
17.309300 1.940600
17.324100 1.950200
17.338800 1.964300
17.353600 1.978600
17.368300 1.990800
17.383100 1.994700
17.397800 1.989900
17.412600 1.996500
17.427300 2.017500
17.442100 2.044500
17.456800 2.035600
17.471600 2.036800
17.486300 2.035100
17.501100 2.027100
17.515800 2.019600
17.530600 1.993200
17.545300 1.929300
17.560100 1.872400
17.574800 1.830400
17.589600 1.795400
17.604300 1.764500
17.619100 1.736600
17.633800 1.709800
17.648600 1.677000
17.663300 1.651800
17.678100 1.635500
17.692800 1.625000
17.707600 1.619300
17.722300 1.627800
17.737000 1.623700
17.751800 1.620400
17.766500 1.618900
17.781300 1.618100
17.796000 1.615000
17.810800 1.617400
17.825500 1.581200
17.840300 1.556400
17.855000 1.528400
17.869800 1.490200
17.884500 1.471000
17.899300 1.461200
17.914000 1.451200
17.928800 1.441100
17.943500 1.430600
17.958300 1.421400
17.973000 1.410100
17.987800 1.398800
18.002500 1.382400
18.017300 1.361700
18.032000 1.340000
18.046800 1.314200
18.061500 1.289600
18.076300 1.268200
18.091000 1.251800
18.105800 1.235100
18.120500 1.202900
18.135300 1.160400
18.150000 1.122200
18.164800 1.082800
18.179500 1.039200
18.194300 1.026100
18.209000 1.017300
18.223800 1.014200
18.238500 1.013400
18.253200 1.009200
18.268000 0.997200
18.282700 0.987300
18.297500 0.981900
18.312200 0.977300
18.327000 0.972300
18.341700 0.966700
18.356500 0.959800
18.371200 0.950700
18.386000 0.939700
18.400700 0.929300
18.415500 0.921300
18.430200 0.911000
18.445000 0.904100
18.459700 0.898200
18.474500 0.893400
18.489200 0.889100
18.504000 0.883600
18.518700 0.876500
18.533500 0.868000
18.548200 0.859300
18.563000 0.850700
18.577700 0.842200
18.592500 0.833700
18.607200 0.825300
18.622000 0.817200
18.636700 0.810900
18.651500 0.806000
18.666200 0.798200
18.681000 0.787800
18.695700 0.781200
18.710500 0.781500
18.725200 0.781400
18.740000 0.781800
18.754700 0.781200
18.769400 0.778800
18.784200 0.777100
18.798900 0.774900
18.813700 0.775500
18.828400 0.778800
18.843200 0.784900
18.857900 0.792600
18.872700 0.799500
18.887400 0.808300
18.902200 0.819500
18.916900 0.805300
18.931700 0.775100
18.946400 0.732500
18.961200 0.692900
18.975900 0.659900
18.990700 0.622900
19.005400 0.572000
19.020200 0.533100
19.034900 0.514200
19.049700 0.498800
19.064400 0.486000
19.079200 0.475400
19.093900 0.464400
19.108700 0.453400
19.123400 0.442800
19.138200 0.432400
19.152900 0.422200
19.167700 0.411600
19.182400 0.397700
19.197200 0.374000
19.211900 0.343100
19.226700 0.327800
19.241400 0.314000
19.256200 0.300200
19.270900 0.286400
19.285700 0.272700
19.300400 0.258900
19.315100 0.245200
19.329900 0.231500
19.344600 0.217300
19.359400 0.202400
19.374100 0.188300
19.388900 0.177500
19.403600 0.168500
19.418400 0.159500
19.433100 0.150500
19.447900 0.144900
19.462600 0.140000
19.477400 0.135100
19.492100 0.130300
19.506900 0.125700
19.521600 0.121200
19.536400 0.117300
19.551100 0.113800
19.565900 0.110800
19.580600 0.108300
19.595400 0.106000
19.610100 0.103800
19.624900 0.101700
19.639600 0.099600
19.654400 0.097500
19.669100 0.095400
19.683900 0.093400
19.698600 0.091500
19.713400 0.089500
19.728100 0.087700
19.742900 0.085800
19.757600 0.084000
19.772400 0.082300
19.787100 0.080500
19.801900 0.078900
19.816600 0.077200
19.831300 0.075600
19.846100 0.073700
19.860800 0.071700
19.875600 0.069700
19.890300 0.067900
19.905100 0.066100
19.919800 0.064400
19.934600 0.062800
19.949300 0.061200
19.964100 0.059700
19.978800 0.058300
19.993600 0.056900
20.008300 0.055500
20.023100 0.054200
20.037800 0.052800
20.052600 0.051500
20.067300 0.050200
20.082100 0.048900
20.096800 0.047600
20.111600 0.046300
20.126300 0.045000
20.141100 0.043800
20.155800 0.042500
20.170600 0.041300
20.185300 0.040100
20.200100 0.038600
20.214800 0.036200
20.229600 0.032500
20.244300 0.027800
20.259100 0.022500
20.273800 0.016900
20.288600 0.012300
20.303300 0.008800
20.318100 0.006200
20.332800 0.004000
20.347500 0.002300
20.362300 0.001000
20.377000 0.000300
20.391800 0.000000
20.406500 0.000000
20.421300 0.000000
20.436000 0.000000
20.450800 0.000000
20.465500 0.000000
20.480300 0.000000
20.495000 0.000000
20.509800 0.000000
20.524500 0.000000
20.539300 0.000000
20.554000 0.000000
20.568800 0.000000
20.583500 0.000000
20.598300 0.000000
20.613000 0.000000
20.627800 0.000000
20.642500 0.000000
20.657300 0.000000
20.672000 0.000000
20.686800 0.000000
20.701500 0.000000
20.716300 0.000000
20.731000 0.000000
20.745800 0.000000
20.760500 0.000000
20.775300 0.000000
20.790000 0.000000
20.804800 0.000000
20.819500 0.000000
20.834300 0.000000
20.849000 0.000000
20.863700 0.000000
20.878500 0.000000
20.893200 0.000000
20.908000 0.000000
20.922700 0.000000
20.937500 0.000000
20.952200 0.000000
20.967000 0.000000
20.981700 0.000000
20.996500 0.000000
21.011200 0.000000
21.026000 0.000000
21.040700 0.000000
21.055500 0.000000
21.070200 0.000000
21.085000 0.000000
21.099700 0.000000
21.114500 0.000000
21.129200 0.000000
21.144000 0.000000
21.158700 0.000000
21.173500 0.000000
21.188200 0.000000
21.203000 0.000000
21.217700 0.000000
21.232500 0.000000
21.247200 0.000000
21.262000 0.000000
21.276700 0.000000
21.291500 0.000000
21.306200 0.000000
21.321000 0.000000
21.335700 0.000000
21.350500 0.000000
21.365200 0.000000
21.380000 0.000000
21.394700 0.000000
21.409400 0.000000
21.424200 0.000000
21.438900 0.000000
21.453700 0.000000
21.468400 0.000000
21.483200 0.000000
21.497900 0.000000
21.512700 0.000000
21.527400 0.000000
21.542200 0.000000
21.556900 0.000000
21.571700 0.000000
21.586400 0.000000
21.601200 0.000000
21.615900 0.000000
21.630700 0.000000
21.645400 0.000000
21.660200 0.000000
21.674900 0.000000
21.689700 0.000000
21.704400 0.000000
21.719200 0.000000
21.733900 0.000000
e
