set title 'mp-555853 - Density of States'
set xlabel 'Energy (eV)'
set ylabel 'DOS (states/eV)'
set grid
set xrange [-10:10]
set yrange [0:840.556]
set xzeroaxis lt -1
set terminal png size 800,600
set output 'mp-555853_dos_gnuplot.png'
plot '-' using 1:2 with lines title 'DOS'
-10.978700 0.000000
-10.964300 0.000000
-10.949800 0.000000
-10.935400 0.000000
-10.921000 0.000000
-10.906600 0.000000
-10.892100 0.000000
-10.877700 0.000000
-10.863300 0.000000
-10.848900 0.000000
-10.834400 0.000000
-10.820000 0.000000
-10.805600 0.000000
-10.791200 0.000000
-10.776700 0.000000
-10.762300 0.000000
-10.747900 0.000000
-10.733500 0.000000
-10.719000 0.000000
-10.704600 0.000000
-10.690200 0.000000
-10.675800 0.000000
-10.661300 0.000000
-10.646900 0.000000
-10.632500 0.000000
-10.618100 0.000000
-10.603600 0.000000
-10.589200 0.000000
-10.574800 0.000000
-10.560300 0.000000
-10.545900 0.000000
-10.531500 0.000000
-10.517100 0.000000
-10.502600 0.000000
-10.488200 0.000000
-10.473800 0.000000
-10.459400 0.000000
-10.444900 0.000000
-10.430500 0.000000
-10.416100 0.000000
-10.401700 0.000000
-10.387200 0.000000
-10.372800 0.000000
-10.358400 0.000000
-10.344000 0.000000
-10.329500 0.000000
-10.315100 0.000000
-10.300700 0.000000
-10.286300 0.000000
-10.271800 0.000000
-10.257400 0.000000
-10.243000 0.000000
-10.228600 0.000000
-10.214100 0.000000
-10.199700 0.000000
-10.185300 0.000000
-10.170900 0.000000
-10.156400 0.000000
-10.142000 0.000000
-10.127600 0.000000
-10.113200 0.000000
-10.098700 0.000000
-10.084300 0.000000
-10.069900 0.000000
-10.055500 0.000000
-10.041000 0.000000
-10.026600 0.000000
-10.012200 0.000000
-9.997800 0.000000
-9.983300 0.000000
-9.968900 0.000000
-9.954500 0.000000
-9.940100 0.000000
-9.925600 0.000000
-9.911200 0.000000
-9.896800 0.000000
-9.882400 0.000000
-9.867900 0.000000
-9.853500 0.000000
-9.839100 0.000000
-9.824700 0.000000
-9.810200 0.000000
-9.795800 0.000000
-9.781400 0.000000
-9.767000 0.000000
-9.752500 0.000000
-9.738100 0.000000
-9.723700 0.000000
-9.709300 0.000000
-9.694800 0.000000
-9.680400 0.000000
-9.666000 0.679900
-9.651600 22.680100
-9.637100 52.233100
-9.622700 54.796100
-9.608300 61.668100
-9.593900 10.871300
-9.579400 13.611500
-9.565000 42.511100
-9.550600 63.419000
-9.536200 46.521800
-9.521700 92.468800
-9.507300 52.627400
-9.492900 37.991100
-9.478500 49.860500
-9.464000 70.661500
-9.449600 88.995800
-9.435200 87.263500
-9.420800 29.886200
-9.406300 28.183000
-9.391900 58.078800
-9.377500 48.646800
-9.363100 72.359500
-9.348600 68.245800
-9.334200 68.579000
-9.319800 83.340000
-9.305400 114.160800
-9.290900 82.231500
-9.276500 107.097000
-9.262100 83.124000
-9.247700 69.752700
-9.233200 146.846200
-9.218800 135.764100
-9.204400 129.026800
-9.190000 29.538800
-9.175500 212.880100
-9.161100 213.222800
-9.146700 156.260000
-9.132300 304.381200
-9.117800 215.988700
-9.103400 764.142100
-9.089000 412.993600
-9.074600 65.575000
-9.060100 520.662000
-9.045700 0.000000
-9.031300 0.000000
-9.016800 55.189400
-9.002400 65.386700
-8.988000 74.224900
-8.973600 76.379900
-8.959100 141.255200
-8.944700 167.953900
-8.930300 0.000000
-8.915900 85.019900
-8.901400 63.960700
-8.887000 45.478300
-8.872600 0.000000
-8.858200 0.000000
-8.843700 0.000000
-8.829300 0.000000
-8.814900 13.575600
-8.800500 114.059200
-8.786000 72.400800
-8.771600 151.005100
-8.757200 0.000000
-8.742800 0.000000
-8.728300 0.000000
-8.713900 0.000000
-8.699500 0.000000
-8.685100 0.000000
-8.670600 0.000000
-8.656200 0.000000
-8.641800 0.000000
-8.627400 0.000000
-8.612900 0.000000
-8.598500 0.000000
-8.584100 0.000000
-8.569700 0.000000
-8.555200 0.000000
-8.540800 0.000000
-8.526400 0.000000
-8.512000 0.000000
-8.497500 0.000000
-8.483100 0.000000
-8.468700 172.619400
-8.454300 442.761200
-8.439800 0.000000
-8.425400 118.197400
-8.411000 246.298500
-8.396600 50.658700
-8.382100 0.000000
-8.367700 0.000000
-8.353300 0.000000
-8.338900 0.000000
-8.324400 0.000000
-8.310000 0.000000
-8.295600 0.000000
-8.281200 0.000000
-8.266700 0.000000
-8.252300 0.000000
-8.237900 0.000000
-8.223500 0.000000
-8.209000 0.006300
-8.194600 0.429000
-8.180200 0.851700
-8.165800 1.274400
-8.151300 1.697000
-8.136900 2.119700
-8.122500 2.542400
-8.108100 2.965100
-8.093600 4.427500
-8.079200 4.374300
-8.064800 4.111300
-8.050400 3.848300
-8.035900 3.625500
-8.021500 3.996800
-8.007100 4.368100
-7.992700 4.739400
-7.978200 5.110700
-7.963800 6.327600
-7.949400 6.307300
-7.935000 6.287100
-7.920500 6.266900
-7.906100 5.940100
-7.891700 5.583400
-7.877300 5.226800
-7.862800 4.870100
-7.848400 4.513500
-7.834000 3.362000
-7.819600 3.362300
-7.805100 3.362700
-7.790700 3.363100
-7.776300 3.363500
-7.761900 4.679600
-7.747400 5.044200
-7.733000 5.408900
-7.718600 5.773300
-7.704200 6.090300
-7.689700 6.407300
-7.675300 8.131600
-7.660900 8.629800
-7.646500 8.833300
-7.632000 8.989300
-7.617600 9.047800
-7.603200 8.266000
-7.588800 8.185500
-7.574300 8.071900
-7.559900 7.958200
-7.545500 7.844600
-7.531100 6.906800
-7.516600 8.584100
-7.502200 8.933900
-7.487800 9.414300
-7.473300 9.894800
-7.458900 10.256300
-7.444500 10.565900
-7.430100 10.815500
-7.415600 10.668900
-7.401200 10.522300
-7.386800 9.400900
-7.372400 9.108400
-7.357900 8.815900
-7.343500 8.523400
-7.329100 8.230900
-7.314700 8.485300
-7.300200 9.186100
-7.285800 9.888700
-7.271400 12.222100
-7.257000 12.497100
-7.242500 12.880500
-7.228100 13.177700
-7.213700 13.474900
-7.199300 13.869800
-7.184800 20.292100
-7.170400 19.576400
-7.156000 12.066100
-7.141600 15.401200
-7.127100 16.839000
-7.112700 16.407200
-7.098300 11.378100
-7.083900 11.231100
-7.069400 11.012200
-7.055000 10.860900
-7.040600 11.122900
-7.026200 11.763200
-7.011700 12.403500
-6.997300 12.277000
-6.982900 13.089800
-6.968500 14.621800
-6.954000 14.528800
-6.939600 15.823200
-6.925200 15.444400
-6.910800 15.706500
-6.896300 16.721000
-6.881900 16.478900
-6.867500 16.533700
-6.853100 13.694900
-6.838600 13.906900
-6.824200 14.151100
-6.809800 14.395300
-6.795400 14.639500
-6.780900 14.891900
-6.766500 12.960100
-6.752100 12.653100
-6.737700 14.554400
-6.723200 14.861000
-6.708800 14.923500
-6.694400 20.292500
-6.680000 19.983900
-6.665500 19.876300
-6.651100 14.345700
-6.636700 38.922100
-6.622300 11.287300
-6.607800 13.295200
-6.593400 14.540900
-6.579000 14.667700
-6.564600 14.627700
-6.550100 14.373600
-6.535700 17.626200
-6.521300 20.547900
-6.506900 22.465800
-6.492400 18.175500
-6.478000 15.919700
-6.463600 13.816900
-6.449200 12.103500
-6.434700 9.841100
-6.420300 15.214700
-6.405900 15.836600
-6.391500 16.458500
-6.377000 17.092700
-6.362600 17.810300
-6.348200 12.803100
-6.333800 17.477200
-6.319300 19.833600
-6.304900 23.284900
-6.290500 24.557300
-6.276100 20.808900
-6.261600 24.060700
-6.247200 27.905200
-6.232800 24.525200
-6.218400 8.295100
-6.203900 11.017100
-6.189500 18.432500
-6.175100 47.239700
-6.160700 65.504100
-6.146200 14.194600
-6.131800 13.769200
-6.117400 23.951800
-6.103000 20.373800
-6.088500 12.478200
-6.074100 51.997800
-6.059700 9.368600
-6.045300 0.000000
-6.030800 0.000000
-6.016400 0.000000
-6.002000 0.000000
-5.987600 0.000000
-5.973100 0.000000
-5.958700 0.000000
-5.944300 0.000000
-5.929900 0.000000
-5.915400 0.000000
-5.901000 0.000000
-5.886600 0.000000
-5.872100 0.000000
-5.857700 0.000000
-5.843300 0.000000
-5.828900 0.000000
-5.814400 0.000000
-5.800000 0.000000
-5.785600 0.000000
-5.771200 0.000000
-5.756700 0.000000
-5.742300 0.000000
-5.727900 0.000000
-5.713500 0.000000
-5.699000 0.000000
-5.684600 0.000000
-5.670200 0.000000
-5.655800 0.000000
-5.641300 0.000000
-5.626900 0.000000
-5.612500 0.000000
-5.598100 0.000000
-5.583600 0.000000
-5.569200 0.000000
-5.554800 0.000000
-5.540400 0.000000
-5.525900 0.000000
-5.511500 0.000000
-5.497100 0.000000
-5.482700 0.000000
-5.468200 0.000000
-5.453800 0.000000
-5.439400 0.000000
-5.425000 0.000000
-5.410500 0.000000
-5.396100 0.000000
-5.381700 0.000000
-5.367300 0.000000
-5.352800 0.000000
-5.338400 0.000000
-5.324000 0.000000
-5.309600 0.000000
-5.295100 0.000000
-5.280700 0.000000
-5.266300 0.000000
-5.251900 0.000000
-5.237400 0.000000
-5.223000 0.000000
-5.208600 0.000000
-5.194200 0.000000
-5.179700 0.000000
-5.165300 0.000000
-5.150900 0.000000
-5.136500 0.000000
-5.122000 0.000000
-5.107600 0.000000
-5.093200 0.000000
-5.078800 0.000000
-5.064300 0.000000
-5.049900 0.000000
-5.035500 0.000000
-5.021100 0.000000
-5.006600 0.000000
-4.992200 0.000000
-4.977800 0.000000
-4.963400 0.000000
-4.948900 0.000000
-4.934500 0.000000
-4.920100 0.000000
-4.905700 0.000000
-4.891200 0.000000
-4.876800 0.000000
-4.862400 0.000000
-4.848000 0.000000
-4.833500 0.000000
-4.819100 0.000000
-4.804700 0.000000
-4.790300 0.000000
-4.775800 0.000000
-4.761400 0.000000
-4.747000 0.000000
-4.732600 0.000000
-4.718100 0.000000
-4.703700 0.000000
-4.689300 0.000000
-4.674900 0.000000
-4.660400 0.000000
-4.646000 0.000000
-4.631600 0.000000
-4.617200 0.000000
-4.602700 0.000000
-4.588300 0.000000
-4.573900 0.000000
-4.559500 0.000000
-4.545000 0.000000
-4.530600 0.000000
-4.516200 0.000000
-4.501800 0.000000
-4.487300 0.000000
-4.472900 0.000000
-4.458500 0.000000
-4.444100 0.000000
-4.429600 0.000000
-4.415200 0.000000
-4.400800 0.000000
-4.386400 0.000000
-4.371900 0.000000
-4.357500 0.000000
-4.343100 0.000000
-4.328600 0.000000
-4.314200 0.000000
-4.299800 0.000000
-4.285400 0.000000
-4.270900 0.000000
-4.256500 0.000000
-4.242100 0.000000
-4.227700 0.000000
-4.213200 0.000000
-4.198800 0.000000
-4.184400 0.000000
-4.170000 0.000000
-4.155500 0.000000
-4.141100 0.000000
-4.126700 0.000000
-4.112300 0.000000
-4.097800 0.000000
-4.083400 0.000000
-4.069000 0.000000
-4.054600 0.000000
-4.040100 0.000000
-4.025700 0.000000
-4.011300 0.000000
-3.996900 0.000000
-3.982400 0.000000
-3.968000 0.000000
-3.953600 0.000000
-3.939200 0.000000
-3.924700 0.000000
-3.910300 0.000000
-3.895900 0.000000
-3.881500 0.000000
-3.867000 0.000000
-3.852600 0.000000
-3.838200 0.000000
-3.823800 0.000000
-3.809300 0.000000
-3.794900 0.000000
-3.780500 0.000000
-3.766100 0.000000
-3.751600 0.000000
-3.737200 0.000000
-3.722800 0.000000
-3.708400 0.000000
-3.693900 0.000000
-3.679500 0.000000
-3.665100 0.000000
-3.650700 0.000000
-3.636200 0.000000
-3.621800 0.000000
-3.607400 0.000000
-3.593000 0.000000
-3.578500 0.000000
-3.564100 0.000000
-3.549700 0.000000
-3.535300 0.000000
-3.520800 0.000000
-3.506400 0.000000
-3.492000 0.000000
-3.477600 0.000000
-3.463100 0.000000
-3.448700 0.000000
-3.434300 0.000000
-3.419900 0.000000
-3.405400 0.000000
-3.391000 0.000000
-3.376600 0.000000
-3.362200 0.000000
-3.347700 0.000000
-3.333300 0.000000
-3.318900 0.000000
-3.304500 0.000000
-3.290000 0.000000
-3.275600 0.000000
-3.261200 0.000000
-3.246800 0.000000
-3.232300 0.000000
-3.217900 0.000000
-3.203500 0.000000
-3.189100 0.000000
-3.174600 0.000000
-3.160200 0.000000
-3.145800 0.000000
-3.131400 0.000000
-3.116900 0.000000
-3.102500 0.000000
-3.088100 0.000000
-3.073700 0.000000
-3.059200 0.000000
-3.044800 0.000000
-3.030400 0.000000
-3.016000 0.000000
-3.001500 0.000000
-2.987100 0.000000
-2.972700 0.000000
-2.958300 0.000000
-2.943800 0.000000
-2.929400 0.000000
-2.915000 0.000000
-2.900600 0.000000
-2.886100 0.000000
-2.871700 0.000000
-2.857300 0.000000
-2.842900 0.000000
-2.828400 0.000000
-2.814000 0.000000
-2.799600 0.000000
-2.785100 0.000000
-2.770700 0.000000
-2.756300 0.000000
-2.741900 0.000000
-2.727400 0.000000
-2.713000 0.000000
-2.698600 0.000000
-2.684200 0.000000
-2.669700 0.000000
-2.655300 0.000000
-2.640900 0.000000
-2.626500 0.000000
-2.612000 0.000000
-2.597600 0.000000
-2.583200 0.000000
-2.568800 0.000000
-2.554300 0.000000
-2.539900 0.000000
-2.525500 0.000000
-2.511100 0.000000
-2.496600 0.000000
-2.482200 0.000000
-2.467800 0.000000
-2.453400 0.000000
-2.438900 0.000000
-2.424500 0.000000
-2.410100 0.000000
-2.395700 0.000000
-2.381200 0.000000
-2.366800 0.000000
-2.352400 0.000000
-2.338000 0.000000
-2.323500 0.000000
-2.309100 0.000000
-2.294700 0.000000
-2.280300 0.000000
-2.265800 0.000000
-2.251400 0.000000
-2.237000 0.000000
-2.222600 0.000000
-2.208100 0.000000
-2.193700 0.000000
-2.179300 0.000000
-2.164900 0.000000
-2.150400 0.000000
-2.136000 0.000000
-2.121600 0.000000
-2.107200 0.000000
-2.092700 0.000000
-2.078300 0.000000
-2.063900 0.000000
-2.049500 0.000000
-2.035000 0.000000
-2.020600 0.000000
-2.006200 0.000000
-1.991800 0.000000
-1.977300 0.000000
-1.962900 0.000000
-1.948500 0.000000
-1.934100 0.000000
-1.919600 0.000000
-1.905200 0.000000
-1.890800 0.000000
-1.876400 0.000000
-1.861900 0.000000
-1.847500 0.000000
-1.833100 0.000000
-1.818700 0.000000
-1.804200 0.000000
-1.789800 0.000000
-1.775400 0.000000
-1.761000 0.000000
-1.746500 0.000000
-1.732100 0.000000
-1.717700 0.000000
-1.703300 0.000000
-1.688800 0.000000
-1.674400 0.000000
-1.660000 0.000000
-1.645600 0.000000
-1.631100 0.000000
-1.616700 0.000000
-1.602300 0.000000
-1.587900 0.000000
-1.573400 0.000000
-1.559000 0.000000
-1.544600 0.000000
-1.530200 0.000000
-1.515700 0.000000
-1.501300 0.000000
-1.486900 0.000000
-1.472500 0.000000
-1.458000 0.000000
-1.443600 0.000000
-1.429200 0.000000
-1.414800 0.000000
-1.400300 0.000000
-1.385900 0.000000
-1.371500 0.000000
-1.357100 0.000000
-1.342600 0.000000
-1.328200 0.000000
-1.313800 0.000000
-1.299400 0.000000
-1.284900 0.000000
-1.270500 0.000000
-1.256100 0.000000
-1.241600 0.000000
-1.227200 0.000000
-1.212800 0.000000
-1.198400 0.000000
-1.183900 0.000000
-1.169500 0.000000
-1.155100 0.000000
-1.140700 0.000000
-1.126200 0.000000
-1.111800 0.000000
-1.097400 0.000000
-1.083000 0.000000
-1.068500 6.870500
-1.054100 7.649500
-1.039700 7.611400
-1.025300 14.599100
-1.010800 16.797900
-0.996400 18.837700
-0.982000 16.019900
-0.967600 16.708400
-0.953100 34.810400
-0.938700 20.864800
-0.924300 20.223900
-0.909900 14.534400
-0.895400 10.501700
-0.881000 11.858700
-0.866600 11.328400
-0.852200 10.798000
-0.837700 10.267700
-0.823300 9.737300
-0.808900 9.207000
-0.794500 8.691400
-0.780000 8.206800
-0.765600 10.098100
-0.751200 11.478200
-0.736800 10.663700
-0.722300 5.271500
-0.707900 5.422700
-0.693500 5.573900
-0.679100 5.725100
-0.664600 5.876300
-0.650200 10.159000
-0.635800 10.772700
-0.621400 9.687600
-0.606900 23.409700
-0.592500 25.194200
-0.578100 13.291900
-0.563700 11.401500
-0.549200 11.756000
-0.534800 14.815700
-0.520400 15.340000
-0.506000 15.397800
-0.491500 14.737000
-0.477100 14.089900
-0.462700 17.522600
-0.448300 15.668700
-0.433800 15.644300
-0.419400 17.644900
-0.405000 18.646400
-0.390600 27.115900
-0.376100 22.851000
-0.361700 15.154000
-0.347300 12.330000
-0.332900 11.007600
-0.318400 9.919400
-0.304000 8.831200
-0.289600 7.742900
-0.275200 6.654700
-0.260700 5.566400
-0.246300 5.431400
-0.231900 9.169400
-0.217500 11.916800
-0.203000 14.367300
-0.188600 17.400500
-0.174200 17.744100
-0.159800 18.087800
-0.145300 18.431400
-0.130900 36.846600
-0.116500 5.350800
-0.102100 6.170700
-0.087600 9.298900
-0.073200 9.703200
-0.058800 9.741400
-0.044400 9.779700
-0.029900 9.773800
-0.015500 9.640900
-0.001100 7.547000
0.013300 7.342000
0.027800 7.236500
0.042200 6.821500
0.056600 6.704000
0.071000 6.586400
0.085500 6.468800
0.099900 6.351200
0.114300 6.233600
0.128700 6.116100
0.143200 5.998500
0.157600 5.880900
0.172000 5.767400
0.186400 5.658900
0.200900 5.550500
0.215300 5.442100
0.229700 7.508900
0.244100 7.249900
0.258600 6.990800
0.273000 6.731700
0.287400 3.635800
0.301800 3.753100
0.316300 3.870300
0.330700 3.987500
0.345100 4.104700
0.359600 4.221900
0.374000 4.339100
0.388400 4.456300
0.402800 7.372200
0.417300 7.763300
0.431700 8.174400
0.446100 8.585500
0.460500 10.653200
0.475000 10.125900
0.489400 10.508300
0.503800 10.913100
0.518200 11.175900
0.532700 11.438600
0.547100 14.496400
0.561500 15.042700
0.575900 14.869300
0.590400 14.695900
0.604800 14.522500
0.619200 12.862300
0.633600 9.179600
0.648100 7.700900
0.662500 7.921700
0.676900 9.849300
0.691300 10.227700
0.705800 10.606000
0.720200 15.794900
0.734600 16.864500
0.749000 14.050200
0.763500 12.109100
0.777900 7.161400
0.792300 6.692000
0.806700 7.211300
0.821200 7.730600
0.835600 8.250000
0.850000 8.769300
0.864400 9.288600
0.878900 9.866200
0.893300 11.671200
0.907700 14.599500
0.922100 13.798300
0.936600 12.997100
0.951000 8.567000
0.965400 9.918300
0.979800 10.086800
0.994300 10.255200
1.008700 10.722100
1.023100 11.260000
1.037500 10.649600
1.052000 11.979100
1.066400 12.642800
1.080800 10.605800
1.095200 10.431400
1.109700 10.257000
1.124100 10.082700
1.138500 20.516300
1.152900 5.386500
1.167400 5.402000
1.181800 6.206800
1.196200 7.033600
1.210600 7.853700
1.225100 8.003000
1.239500 7.333200
1.253900 6.732700
1.268300 6.132300
1.282800 5.587500
1.297200 5.041600
1.311600 20.510400
1.326000 18.293500
1.340500 14.777900
1.354900 9.862800
1.369300 41.840900
1.383700 17.824700
1.398200 16.979800
1.412600 16.135000
1.427000 13.430300
1.441400 6.934800
1.455900 4.625400
1.470300 4.622900
1.484700 5.849000
1.499100 9.807700
1.513600 17.171000
1.528000 17.610100
1.542400 18.049200
1.556800 14.561000
1.571300 12.373600
1.585700 9.080900
1.600100 9.754300
1.614500 9.046300
1.629000 8.445200
1.643400 8.156200
1.657800 12.512100
1.672200 12.121700
1.686700 11.731300
1.701100 11.341000
1.715500 8.083400
1.729900 7.987700
1.744400 13.457400
1.758800 15.448300
1.773200 16.419000
1.787600 15.573200
1.802100 13.176200
1.816500 13.024000
1.830900 12.773700
1.845300 12.505000
1.859800 14.539700
1.874200 14.589900
1.888600 14.640100
1.903100 14.690300
1.917500 14.740500
1.931900 14.790700
1.946300 14.519900
1.960800 13.645600
1.975200 11.761600
1.989600 14.144600
2.004000 14.615400
2.018500 15.085200
2.032900 16.496700
2.047300 17.172600
2.061700 17.641900
2.076200 18.327700
2.090600 19.013500
2.105000 20.277400
2.119400 20.702200
2.133900 18.160100
2.148300 18.569300
2.162700 19.004900
2.177100 16.532100
2.191600 34.104100
2.206000 14.094400
2.220400 11.940100
2.234800 9.949600
2.249300 12.375300
2.263700 12.866700
2.278100 15.867200
2.292500 16.483400
2.307000 17.099600
2.321400 17.334300
2.335800 18.143800
2.350200 21.934700
2.364700 23.759200
2.379100 25.573100
2.393500 21.929400
2.407900 23.997200
2.422400 20.777900
2.436800 17.483900
2.451200 15.893400
2.465600 16.171200
2.480100 24.289600
2.494500 16.321900
2.508900 15.399600
2.523300 14.490000
2.537800 13.580300
2.552200 14.680700
2.566600 14.970000
2.581000 15.279400
2.595500 15.588700
2.609900 19.953000
2.624300 20.775500
2.638700 21.629200
2.653200 20.086100
2.667600 16.077700
2.682000 15.602400
2.696400 15.045000
2.710900 14.803400
2.725300 25.850700
2.739700 17.639600
2.754100 34.061700
2.768600 21.344200
2.783000 20.132900
2.797400 19.656700
2.811800 19.301800
2.826300 19.002300
2.840700 21.332900
2.855100 18.854500
2.869500 18.408000
2.884000 20.851300
2.898400 18.170200
2.912800 18.256700
2.927200 18.270400
2.941700 18.284100
2.956100 20.921300
2.970500 26.469400
2.984900 24.724500
2.999400 19.097300
3.013800 18.953500
3.028200 18.809700
3.042600 22.722600
3.057100 23.010300
3.071500 21.429500
3.085900 21.364500
3.100300 21.408100
3.114800 18.691200
3.129200 18.443600
3.143600 18.411200
3.158000 25.817700
3.172500 26.643000
3.186900 20.254400
3.201300 24.449400
3.215700 23.729300
3.230200 24.180300
3.244600 21.095500
3.259000 21.795700
3.273400 21.876700
3.287900 22.584300
3.302300 21.602500
3.316700 21.188500
3.331100 20.774600
3.345600 21.747700
3.360000 20.872300
3.374400 20.980000
3.388800 24.545600
3.403300 24.936900
3.417700 24.991400
3.432100 26.518600
3.446600 25.817300
3.461000 25.544200
3.475400 23.856600
3.489800 22.445800
3.504300 23.443400
3.518700 21.032000
3.533100 20.146400
3.547500 21.589400
3.562000 20.211000
3.576400 20.018300
3.590800 19.494400
3.605200 18.234000
3.619700 16.024000
3.634100 24.104500
3.648500 25.488000
3.662900 16.672800
3.677400 16.695800
3.691800 16.019700
3.706200 16.249800
3.720600 16.479800
3.735100 16.661300
3.749500 17.055000
3.763900 17.448700
3.778300 16.788500
3.792800 16.727800
3.807200 16.862100
3.821600 17.203700
3.836000 21.377800
3.850500 39.006800
3.864900 30.260900
3.879300 31.412900
3.893700 32.004400
3.908200 33.670000
3.922600 34.429500
3.937000 32.534300
3.951400 31.913400
3.965900 30.483400
3.980300 28.833400
3.994700 26.631800
4.009100 24.576100
4.023600 24.977800
4.038000 25.410300
4.052400 29.550300
4.066800 29.172800
4.081300 30.593200
4.095700 29.585400
4.110100 32.898000
4.124500 24.269700
4.139000 22.409100
4.153400 19.857600
4.167800 18.402000
4.182200 17.075700
4.196700 14.032500
4.211100 13.417300
4.225500 13.245300
4.239900 13.073300
4.254400 11.042600
4.268800 10.750400
4.283200 10.070700
4.297600 10.120300
4.312100 10.208500
4.326500 10.319700
4.340900 10.430800
4.355300 10.340400
4.369800 9.509000
4.384200 8.889400
4.398600 8.403000
4.413000 7.916700
4.427500 6.236600
4.441900 6.663100
4.456300 5.805400
4.470700 5.829600
4.485200 5.853800
4.499600 5.878000
4.514000 5.902200
4.528400 5.926400
4.542900 6.815700
4.557300 6.294900
4.571700 5.774200
4.586100 5.609600
4.600600 5.611200
4.615000 5.612900
4.629400 9.759100
4.643800 9.165300
4.658300 8.571500
4.672700 3.502900
4.687100 3.591400
4.701500 3.679900
4.716000 3.768400
4.730400 3.856800
4.744800 3.945300
4.759200 3.148500
4.773700 3.191400
4.788100 3.234400
4.802500 3.277400
4.816900 3.320300
4.831400 3.363300
4.845800 3.406300
4.860200 4.892100
4.874600 5.408800
4.889100 5.630700
4.903500 5.852700
4.917900 6.074600
4.932300 6.293900
4.946800 6.486200
4.961200 6.678500
4.975600 6.870800
4.990100 7.063100
5.004500 5.329400
5.018900 5.196000
5.033300 5.062600
5.047800 4.929300
5.062200 4.795900
5.076600 4.540700
5.091000 4.275100
5.105500 5.542000
5.119900 6.052200
5.134300 5.747400
5.148700 5.442700
5.163200 5.137900
5.177600 4.943700
5.192000 4.780700
5.206400 3.552800
5.220900 2.324900
5.235300 0.000000
5.249700 0.000000
5.264100 0.000000
5.278600 0.000000
5.293000 0.000000
5.307400 0.000000
5.321800 0.000000
5.336300 0.000000
5.350700 0.000000
5.365100 0.000000
5.379500 0.000000
5.394000 0.000000
5.408400 0.000000
5.422800 0.000000
5.437200 0.000000
5.451700 0.000000
5.466100 0.000000
5.480500 0.000000
5.494900 0.000000
5.509400 0.000000
5.523800 0.000000
5.538200 0.000000
5.552600 0.000000
5.567100 0.000000
5.581500 0.000000
5.595900 0.000000
5.610300 0.000000
5.624800 0.000000
5.639200 0.000000
5.653600 0.000000
5.668000 0.000000
5.682500 0.000000
5.696900 0.000000
5.711300 0.000000
5.725700 0.000000
5.740200 0.000000
5.754600 0.000000
5.769000 0.000000
5.783400 0.000000
5.797900 0.000000
5.812300 0.000000
5.826700 0.000000
5.841100 0.000000
5.855600 0.000000
5.870000 0.000000
5.884400 0.000000
5.898800 0.000000
5.913300 0.000000
5.927700 0.000000
5.942100 0.000000
5.956500 0.000000
5.971000 0.000000
5.985400 0.597500
5.999800 0.633400
6.014200 0.699800
6.028700 0.793400
6.043100 0.887100
6.057500 1.711000
6.071900 1.842900
6.086400 1.974700
6.100800 2.106600
6.115200 2.238400
6.129600 2.370300
6.144100 2.502200
6.158500 2.634000
6.172900 2.765900
6.187300 2.897700
6.201800 3.029600
6.216200 3.161500
6.230600 3.795900
6.245000 3.873400
6.259500 3.950900
6.273900 4.028400
6.288300 4.105800
6.302700 4.183300
6.317200 4.769100
6.331600 4.844800
6.346000 5.246600
6.360400 5.447500
6.374900 5.470300
6.389300 5.509700
6.403700 5.549100
6.418100 5.588600
6.432600 5.628000
6.447000 5.667400
6.461400 5.751600
6.475800 7.502600
6.490300 7.665200
6.504700 7.520800
6.519100 7.376400
6.533500 7.231900
6.548000 7.087500
6.562400 6.943100
6.576800 6.798700
6.591300 6.654300
6.605700 6.916600
6.620100 9.015800
6.634500 9.523400
6.649000 9.040100
6.663400 8.556800
6.677800 8.073600
6.692200 7.590300
6.706700 7.107100
6.721100 4.533000
6.735500 7.289100
6.749900 6.763400
6.764400 6.237700
6.778800 5.711900
6.793200 5.186200
6.807600 2.008700
6.822100 15.629000
6.836500 24.601500
6.850900 13.121600
6.865300 12.527000
6.879800 11.932400
6.894200 11.337800
6.908600 11.302300
6.923000 11.566400
6.937500 11.830400
6.951900 12.094500
6.966300 7.367300
6.980700 4.472600
6.995200 4.628900
7.009600 4.785100
7.024000 6.225600
7.038400 6.310100
7.052900 7.186600
7.067300 7.459600
7.081700 7.732600
7.096100 8.005700
7.110600 8.278700
7.125000 6.062900
7.139400 5.846200
7.153800 10.206900
7.168300 11.602200
7.182700 12.997600
7.197100 10.447900
7.211500 8.449500
7.226000 7.904300
7.240400 8.769800
7.254800 10.769600
7.269200 11.625100
7.283700 12.480700
7.298100 13.336200
7.312500 14.191800
7.326900 12.976600
7.341400 13.545100
7.355800 13.170600
7.370200 17.119200
7.384600 16.508500
7.399100 16.130000
7.413500 17.556300
7.427900 16.126100
7.442300 15.394500
7.456800 13.233100
7.471200 10.496300
7.485600 8.825900
7.500000 9.447100
7.514500 10.068300
7.528900 5.701400
7.543300 5.473900
7.557700 5.246400
7.572200 5.018900
7.586600 4.791500
7.601000 17.275500
7.615400 8.040800
7.629900 8.189600
7.644300 8.025900
7.658700 7.862100
7.673100 7.698300
7.687600 6.096400
7.702000 6.787600
7.716400 7.882100
7.730800 8.976500
7.745300 10.070900
7.759700 9.275500
7.774100 17.393700
7.788500 5.277300
7.803000 4.654300
7.817400 4.031400
7.831800 3.408400
7.846200 2.785400
7.860700 2.162500
7.875100 0.000000
7.889500 0.000000
7.903900 4.830600
7.918400 5.287700
7.932800 5.744800
7.947200 6.840800
7.961600 3.713700
7.976100 3.750800
7.990500 3.787800
8.004900 3.824900
8.019300 3.861900
8.033800 3.898900
8.048200 3.936000
8.062600 12.882600
8.077000 14.079600
8.091500 7.826200
8.105900 7.785700
8.120300 7.745100
8.134800 7.704500
8.149200 7.663900
8.163600 7.623400
8.178000 7.582800
8.192500 8.737800
8.206900 8.977800
8.221300 9.217700
8.235700 9.457700
8.250200 9.697700
8.264600 9.937700
8.279000 10.809800
8.293400 9.880700
8.307900 9.888800
8.322300 8.440600
8.336700 8.339400
8.351100 8.217900
8.365600 8.085400
8.380000 7.952900
8.394400 13.654600
8.408800 14.006300
8.423300 14.357900
8.437700 9.096000
8.452100 9.136000
8.466500 8.049900
8.481000 7.962800
8.495400 7.829600
8.509800 7.696300
8.524200 7.563000
8.538700 7.429700
8.553100 7.296400
8.567500 6.844700
8.581900 7.102000
8.596400 6.808700
8.610800 35.657500
8.625200 16.666500
8.639600 13.574700
8.654100 5.183100
8.668500 6.313100
8.682900 6.843400
8.697300 7.615200
8.711800 8.387000
8.726200 9.158800
8.740600 9.930600
8.755000 10.701100
8.769500 14.326100
8.783900 15.559400
8.798300 17.698100
8.812700 18.706000
8.827200 17.609000
8.841600 16.512000
8.856000 13.542900
8.870400 9.020200
8.884900 9.615800
8.899300 10.793500
8.913700 15.327900
8.928100 21.585300
8.942600 22.274800
8.957000 22.964400
8.971400 11.604600
8.985800 10.008500
9.000300 15.560900
9.014700 14.649200
9.029100 13.737400
9.043500 12.926900
9.058000 12.185100
9.072400 11.279000
9.086800 7.886700
9.101200 7.763000
9.115700 7.639300
9.130100 7.515500
9.144500 11.095100
9.158900 13.009400
9.173400 21.536900
9.187800 17.930000
9.202200 8.147500
9.216600 8.726700
9.231100 9.306000
9.245500 9.885300
9.259900 13.816500
9.274300 19.817800
9.288800 19.659500
9.303200 19.501300
9.317600 10.806800
9.332000 10.443400
9.346500 11.033000
9.360900 9.748900
9.375300 10.081400
9.389700 10.143100
9.404200 12.921400
9.418600 16.082300
9.433000 15.924500
9.447400 14.825100
9.461900 14.778200
9.476300 14.566100
9.490700 9.907600
9.505100 9.980600
9.519600 14.252000
9.534000 13.481500
9.548400 25.956900
9.562800 9.046600
9.577300 8.402700
9.591700 7.758800
9.606100 7.374100
9.620500 7.403600
9.635000 7.624800
9.649400 7.935400
9.663800 6.937700
9.678300 9.553100
9.692700 15.316700
9.707100 15.746400
9.721500 17.397900
9.736000 17.878700
9.750400 18.359500
9.764800 20.224600
9.779200 16.099600
9.793700 16.287500
9.808100 16.463600
9.822500 11.191500
9.836900 6.828400
9.851400 8.746900
9.865800 8.424400
9.880200 8.102000
9.894600 11.801500
9.909100 11.539700
9.923500 13.797100
9.937900 12.656300
9.952300 12.773700
9.966800 12.891200
9.981200 13.008700
9.995600 13.126100
10.010000 13.243600
10.024500 11.912800
10.038900 7.181000
10.053300 7.298800
10.067700 7.416500
10.082200 7.424200
10.096600 9.721600
10.111000 15.775400
10.125400 28.582200
10.139900 31.430000
10.154300 9.941100
10.168700 17.705100
10.183100 20.161100
10.197600 25.483100
10.212000 22.290500
10.226400 19.839500
10.240800 22.145200
10.255300 17.029100
10.269700 15.957500
10.284100 15.300400
10.298500 14.643400
10.313000 13.985300
10.327400 10.488600
10.341800 11.131700
10.356200 12.703600
10.370700 18.793300
10.385100 20.018700
10.399500 27.670700
10.413900 26.180500
10.428400 15.635200
10.442800 16.095800
10.457200 15.402000
10.471600 14.708200
10.486100 14.014400
10.500500 13.320600
10.514900 10.838100
10.529300 11.008200
10.543800 11.178400
10.558200 13.984000
10.572600 11.002000
10.587000 9.628300
10.601500 9.480400
10.615900 9.613300
10.630300 10.765600
10.644700 15.730700
10.659200 15.724300
10.673600 21.840400
10.688000 22.043000
10.702400 19.973000
10.716900 20.586800
10.731300 21.867900
10.745700 17.857500
10.760100 23.441600
10.774600 22.218000
10.789000 20.644800
10.803400 15.138500
10.817800 20.024400
10.832300 13.948500
10.846700 14.269800
10.861100 17.116100
10.875500 16.961700
10.890000 16.807300
10.904400 21.201700
10.918800 22.609300
10.933200 50.917300
10.947700 12.194100
10.962100 12.651300
10.976500 13.108500
10.990900 14.752600
11.005400 14.697800
11.019800 17.345200
11.034200 32.068500
11.048600 21.130000
11.063100 13.311100
11.077500 12.552100
11.091900 13.714900
11.106300 18.559600
11.120800 18.169100
11.135200 20.973700
11.149600 13.943000
11.164000 13.882300
11.178500 16.989500
11.192900 18.496500
11.207300 20.003400
11.221700 21.510300
11.236200 52.638700
11.250600 19.538400
11.265000 10.703600
11.279500 7.374400
11.293900 15.632400
11.308300 19.335500
11.322700 23.038600
11.337200 14.755500
11.351600 13.386700
11.366000 12.731500
11.380400 15.796200
11.394900 25.264200
11.409300 18.175000
11.423700 17.956300
11.438100 37.335200
11.452600 23.995500
11.467000 23.774200
11.481400 34.632500
11.495800 18.616900
11.510300 18.716800
11.524700 10.949400
11.539100 9.379200
11.553500 11.828100
11.568000 16.965300
11.582400 28.905000
11.596800 25.318000
11.611200 17.857300
11.625700 22.545800
11.640100 27.234200
11.654500 22.774100
11.668900 16.265500
11.683400 10.311600
11.697800 6.519100
11.712200 10.797800
11.726600 13.785300
11.741100 10.849300
11.755500 10.994200
11.769900 13.041500
11.784300 17.026700
11.798800 18.362300
11.813200 19.697900
11.827600 40.335400
11.842000 26.973800
11.856500 19.985300
11.870900 18.820600
11.885300 17.184700
11.899700 17.825600
11.914200 8.761000
11.928600 3.529600
11.943000 3.390600
11.957400 20.523000
11.971900 21.043200
11.986300 18.619300
12.000700 16.267300
12.015100 14.663500
12.029600 14.375600
12.044000 17.637300
12.058400 18.909000
12.072800 20.180600
12.087300 26.601800
12.101700 24.188300
12.116100 19.534200
12.130500 24.990700
12.145000 23.130400
12.159400 21.416400
12.173800 19.028400
12.188200 18.699200
12.202700 15.387500
12.217100 13.652100
12.231500 16.312200
12.245900 22.054300
12.260400 19.043600
12.274800 15.532600
12.289200 15.170800
12.303600 14.888200
12.318100 21.256800
12.332500 27.040900
12.346900 78.075200
12.361300 9.627700
12.375800 9.273200
12.390200 11.924400
12.404600 14.906600
12.419000 14.933100
12.433500 16.462500
12.447900 15.875000
12.462300 15.287500
12.476700 20.537000
12.491200 14.292800
12.505600 11.038000
12.520000 15.481100
12.534400 15.089500
12.548900 16.624000
12.563300 15.715900
12.577700 21.702200
12.592100 23.940400
12.606600 25.973200
12.621000 15.903300
12.635400 14.620800
12.649800 13.316900
12.664300 12.013100
12.678700 10.709200
12.693100 13.956700
12.707500 14.980700
12.722000 16.004700
12.736400 17.817200
12.750800 17.317200
12.765200 16.817200
12.779700 14.379400
12.794100 13.450200
12.808500 10.425000
12.823000 10.726300
12.837400 10.361500
12.851800 9.996800
12.866200 16.285400
12.880700 17.048200
12.895100 14.288500
12.909500 16.597500
12.923900 17.224400
12.938400 18.536400
12.952800 17.896500
12.967200 17.120100
12.981600 18.846800
12.996100 20.100200
13.010500 19.750400
13.024900 19.400700
13.039300 18.901600
13.053800 19.055200
13.068200 18.513600
13.082600 18.063600
13.097000 16.664100
13.111500 16.236200
13.125900 14.382300
13.140300 12.452900
13.154700 11.518500
13.169200 12.300600
13.183600 11.842900
13.198000 11.385200
13.212400 12.355100
13.226900 11.859800
13.241300 11.610800
13.255700 11.361800
13.270100 11.112800
13.284600 10.396600
13.299000 10.176400
13.313400 10.081000
13.327800 8.852500
13.342300 8.691200
13.356700 8.530000
13.371100 24.304200
13.385500 19.795100
13.400000 20.051900
13.414400 17.859800
13.428800 15.082000
13.443200 13.871800
13.457700 14.003800
13.472100 14.121100
13.486500 13.803700
13.500900 13.937400
13.515400 13.877900
13.529800 15.529100
13.544200 13.645600
13.558600 11.404200
13.573100 11.128300
13.587500 11.053600
13.601900 10.742100
13.616300 10.211200
13.630800 9.983900
13.645200 9.756600
13.659600 8.993400
13.674000 8.494200
13.688500 7.395800
13.702900 6.266500
13.717300 4.649300
13.731700 4.218800
13.746200 3.788300
13.760600 7.968200
13.775000 9.006500
13.789400 12.253900
13.803900 19.450300
13.818300 18.767000
13.832700 18.083700
13.847100 11.295100
13.861600 8.686300
13.876000 6.779500
13.890400 4.872700
13.904800 2.965900
13.919300 8.555700
13.933700 10.317600
13.948100 12.079500
13.962500 11.149400
13.977000 11.257700
13.991400 9.989500
14.005800 7.878200
14.020200 6.863000
14.034700 6.402100
14.049100 4.359100
14.063500 6.887600
14.077900 12.567500
14.092400 12.654600
14.106800 12.741800
14.121200 21.876200
14.135600 16.975600
14.150100 15.072900
14.164500 12.413700
14.178900 12.206200
14.193300 11.998700
14.207800 13.295300
14.222200 11.964400
14.236600 12.833100
14.251000 12.590600
14.265500 12.348100
14.279900 12.229400
14.294300 12.414800
14.308700 12.664200
14.323200 12.990400
14.337600 13.316500
14.352000 12.884700
14.366500 12.837600
14.380900 12.730300
14.395300 12.489000
14.409700 12.247700
14.424200 18.552500
14.438600 18.204100
14.453000 22.016000
14.467400 9.238800
14.481900 8.792500
14.496300 8.346300
14.510700 8.364700
14.525100 142.720000
14.539600 8.851200
14.554000 9.690600
14.568400 15.190700
14.582800 18.338300
14.597300 19.787200
14.611700 22.748100
14.626100 19.323600
14.640500 18.039400
14.655000 16.601100
14.669400 16.142600
14.683800 10.282100
14.698200 7.970400
14.712700 7.821100
14.727100 10.352200
14.741500 11.215000
14.755900 12.077800
14.770400 12.940500
14.784800 15.435200
14.799200 16.460600
14.813600 18.501000
14.828100 17.735100
14.842500 15.781500
14.856900 15.320800
14.871300 15.278700
14.885800 15.236700
14.900200 15.194700
14.914600 14.275400
14.929000 13.299000
14.943500 14.082200
14.957900 15.117300
14.972300 16.152400
14.986700 17.318400
15.001200 17.264300
15.015600 16.730900
15.030000 16.546300
15.044400 16.361700
15.058900 16.177000
15.073300 15.992400
15.087700 13.430300
15.102100 13.361100
15.116600 12.235100
15.131000 15.507600
15.145400 16.547200
15.159800 17.591800
15.174300 17.523800
15.188700 16.426100
15.203100 13.976100
15.217500 13.718800
15.232000 13.248000
15.246400 18.416700
15.260800 18.162500
15.275200 17.908400
15.289700 18.800200
15.304100 18.243400
15.318500 18.325100
15.332900 17.809200
15.347400 15.415000
15.361800 15.792100
15.376200 16.888600
15.390600 17.873700
15.405100 15.424900
15.419500 17.429600
15.433900 16.861900
15.448300 16.294200
15.462800 18.630400
15.477200 18.309600
15.491600 17.566800
15.506000 15.567200
15.520500 20.714400
15.534900 20.420800
15.549300 20.172800
15.563700 16.456200
15.578200 17.054500
15.592600 17.652800
15.607000 14.755800
15.621400 15.951200
15.635900 16.689900
15.650300 20.315700
15.664700 20.868400
15.679100 17.261000
15.693600 17.164900
15.708000 13.461500
15.722400 13.283100
15.736800 13.082700
15.751300 12.515800
15.765700 13.806200
15.780100 13.540200
15.794500 13.274200
15.809000 12.983200
15.823400 12.683400
15.837800 12.100400
15.852200 12.015200
15.866700 11.930000
15.881100 9.994800
15.895500 9.991800
15.910000 9.988900
15.924400 8.948100
15.938800 10.976300
15.953200 11.005700
15.967700 10.467400
15.982100 10.209700
15.996500 9.945800
16.010900 7.199600
16.025400 7.095100
16.039800 6.990600
16.054200 6.886200
16.068600 6.781700
16.083100 6.677200
16.097500 7.541200
16.111900 7.363100
16.126300 7.185000
16.140800 7.006900
16.155200 6.551000
16.169600 6.479300
16.184000 8.976100
16.198500 8.732700
16.212900 8.489300
16.227300 6.841900
16.241700 3.615400
16.256200 3.617500
16.270600 3.619600
16.285000 3.621600
16.299400 3.623700
16.313900 6.833100
16.328300 6.638000
16.342700 6.443000
16.357100 2.530800
16.371600 2.532600
16.386000 2.534500
16.400400 2.536400
16.414800 3.967700
16.429300 3.869000
16.443700 3.770400
16.458100 3.671700
16.472500 3.573100
16.487000 4.987900
16.501400 2.803100
16.515800 2.659700
16.530200 2.516200
16.544700 2.372800
16.559100 2.229400
16.573500 0.000000
16.587900 0.000000
16.602400 0.000000
16.616800 0.000000
16.631200 0.000000
16.645600 0.000000
16.660100 0.000000
16.674500 0.000000
16.688900 0.000000
16.703300 0.000000
16.717800 0.000000
16.732200 0.000000
16.746600 0.000000
16.761000 0.000000
16.775500 0.000000
16.789900 0.000000
16.804300 0.000000
16.818700 0.000000
16.833200 0.000000
16.847600 0.000000
16.862000 0.000000
16.876400 0.000000
16.890900 0.000000
16.905300 0.000000
16.919700 0.000000
16.934100 0.000000
16.948600 0.000000
16.963000 0.000000
16.977400 0.000000
16.991800 0.000000
17.006300 0.000000
17.020700 0.000000
17.035100 0.000000
17.049500 0.000000
17.064000 0.000000
17.078400 0.000000
17.092800 0.000000
17.107200 0.000000
17.121700 0.000000
17.136100 0.000000
17.150500 0.000000
17.164900 0.000000
17.179400 0.000000
17.193800 0.000000
17.208200 0.000000
17.222600 0.000000
17.237100 0.000000
17.251500 0.000000
17.265900 0.000000
17.280300 0.000000
17.294800 0.000000
17.309200 0.000000
17.323600 0.000000
17.338000 0.000000
17.352500 0.000000
17.366900 0.000000
17.381300 0.000000
17.395700 0.000000
17.410200 0.000000
17.424600 0.000000
17.439000 0.000000
17.453400 0.000000
17.467900 0.000000
17.482300 0.000000
17.496700 0.000000
17.511200 0.000000
17.525600 0.000000
17.540000 0.000000
17.554400 0.000000
17.568900 0.000000
17.583300 0.000000
17.597700 0.000000
17.612100 0.000000
17.626600 0.000000
17.641000 0.000000
17.655400 0.000000
17.669800 0.000000
17.684300 0.000000
17.698700 0.000000
17.713100 0.000000
17.727500 0.000000
17.742000 0.000000
17.756400 0.000000
17.770800 0.000000
17.785200 0.000000
17.799700 0.000000
17.814100 0.000000
17.828500 0.000000
17.842900 0.000000
17.857400 0.000000
17.871800 0.000000
e
