set title 'mp-1187450 - Density of States'
set xlabel 'Energy (eV)'
set ylabel 'DOS (states/eV)'
set grid
set xrange [-10:10]
set yrange [0:6.137]
set xzeroaxis lt -1
set terminal png size 800,600
set output 'mp-1187450_dos_gnuplot.png'
plot '-' using 1:2 with lines title 'DOS'
-12.432400 0.000000
-12.413900 0.000000
-12.395300 0.000000
-12.376800 0.000000
-12.358200 0.000000
-12.339600 0.000000
-12.321100 0.000000
-12.302500 0.000000
-12.284000 0.000000
-12.265400 0.000000
-12.246800 0.000000
-12.228300 0.000000
-12.209700 0.000000
-12.191200 0.000000
-12.172600 0.000000
-12.154000 0.000000
-12.135500 0.000000
-12.116900 0.000000
-12.098400 0.000000
-12.079800 0.000000
-12.061200 0.000000
-12.042700 0.000000
-12.024100 0.000000
-12.005600 0.000000
-11.987000 0.000000
-11.968400 0.000000
-11.949900 0.000000
-11.931300 0.000000
-11.912800 0.000000
-11.894200 0.000000
-11.875600 0.000000
-11.857100 0.000000
-11.838500 0.000000
-11.820000 0.000000
-11.801400 0.000000
-11.782800 0.000000
-11.764300 0.000000
-11.745700 0.000000
-11.727200 0.000000
-11.708600 0.000000
-11.690000 0.000000
-11.671500 0.000000
-11.652900 0.000000
-11.634400 0.000000
-11.615800 0.000000
-11.597200 0.000000
-11.578700 0.000000
-11.560100 0.000000
-11.541600 0.000000
-11.523000 0.000000
-11.504400 0.000000
-11.485900 0.000000
-11.467300 0.000000
-11.448800 0.000000
-11.430200 0.000000
-11.411600 0.000000
-11.393100 0.000000
-11.374500 0.000000
-11.356000 0.000000
-11.337400 0.000000
-11.318800 0.000000
-11.300300 0.000000
-11.281700 0.000000
-11.263200 0.000000
-11.244600 0.000000
-11.226000 0.000000
-11.207500 0.000000
-11.188900 0.000000
-11.170400 0.000000
-11.151800 0.000000
-11.133200 0.000000
-11.114700 0.000000
-11.096100 0.000000
-11.077600 0.000000
-11.059000 0.000000
-11.040400 0.000000
-11.021900 0.000000
-11.003300 0.000000
-10.984800 0.000000
-10.966200 0.000000
-10.947600 0.000000
-10.929100 0.000000
-10.910500 0.000000
-10.892000 0.000000
-10.873400 0.000000
-10.854800 0.000000
-10.836300 0.000000
-10.817700 0.000000
-10.799200 0.000000
-10.780600 0.000000
-10.762000 0.000000
-10.743500 0.336400
-10.724900 7.841500
-10.706400 11.915100
-10.687800 40.849500
-10.669200 48.839600
-10.650700 95.332900
-10.632100 111.106900
-10.613600 99.645800
-10.595000 52.284700
-10.576400 75.376200
-10.557900 146.188900
-10.539300 159.856100
-10.520800 38.478500
-10.502200 325.943800
-10.483600 101.603900
-10.465100 142.286800
-10.446500 120.421800
-10.428000 91.557000
-10.409400 58.600200
-10.390800 21.961900
-10.372300 10.514100
-10.353700 8.311900
-10.335200 7.375500
-10.316600 5.626400
-10.298000 7.143500
-10.279500 0.000000
-10.260900 0.000000
-10.242400 0.000000
-10.223800 0.000000
-10.205200 0.000000
-10.186700 0.000000
-10.168100 0.000000
-10.149600 0.000000
-10.131000 0.000000
-10.112400 0.000000
-10.093900 0.000000
-10.075300 0.000000
-10.056800 0.000000
-10.038200 0.000000
-10.019600 0.000000
-10.001100 0.000000
-9.982500 0.000000
-9.964000 0.000000
-9.945400 0.000000
-9.926800 0.000000
-9.908300 0.000000
-9.889700 0.000000
-9.871200 0.000000
-9.852600 0.000000
-9.834000 0.000000
-9.815500 0.000000
-9.796900 0.000000
-9.778400 0.000000
-9.759800 0.000000
-9.741200 0.000000
-9.722700 0.000000
-9.704100 0.000000
-9.685600 0.000000
-9.667000 0.000000
-9.648400 0.000000
-9.629900 0.000000
-9.611300 0.000000
-9.592800 0.000000
-9.574200 0.000000
-9.555600 0.000000
-9.537100 0.000000
-9.518500 0.000000
-9.500000 0.000000
-9.481400 0.000000
-9.462800 0.000000
-9.444300 0.000000
-9.425700 0.000000
-9.407200 0.000000
-9.388600 0.000000
-9.370000 0.000000
-9.351500 0.000000
-9.332900 0.000000
-9.314400 0.000000
-9.295800 0.000000
-9.277200 0.000000
-9.258700 0.000000
-9.240100 0.000000
-9.221600 0.000000
-9.203000 0.000000
-9.184400 0.000000
-9.165900 0.000000
-9.147300 0.000000
-9.128800 0.000000
-9.110200 0.000000
-9.091600 0.000000
-9.073100 0.000000
-9.054500 0.000000
-9.036000 0.000000
-9.017400 0.000000
-8.998800 0.000000
-8.980300 0.000000
-8.961700 0.000000
-8.943200 0.000000
-8.924600 0.000000
-8.906000 0.000000
-8.887500 0.000000
-8.868900 0.000000
-8.850400 0.000000
-8.831800 0.000000
-8.813200 0.000000
-8.794700 0.000000
-8.776100 0.000000
-8.757600 0.000000
-8.739000 0.000000
-8.720400 0.000000
-8.701900 0.000000
-8.683300 0.000000
-8.664800 0.000000
-8.646200 0.000000
-8.627600 0.000000
-8.609100 0.000000
-8.590500 0.000000
-8.572000 0.000000
-8.553400 0.000000
-8.534800 0.000000
-8.516300 0.000000
-8.497700 0.000000
-8.479200 0.000000
-8.460600 0.000000
-8.442000 0.000000
-8.423500 0.000000
-8.404900 0.000000
-8.386400 0.000000
-8.367800 0.000000
-8.349200 0.000000
-8.330700 0.000000
-8.312100 0.000000
-8.293600 0.000000
-8.275000 0.000000
-8.256400 0.000000
-8.237900 0.000000
-8.219300 0.000000
-8.200800 0.000000
-8.182200 0.000000
-8.163600 0.000000
-8.145100 0.000000
-8.126500 0.000000
-8.108000 0.000000
-8.089400 0.000000
-8.070800 0.000000
-8.052300 0.000000
-8.033700 0.000000
-8.015200 0.000000
-7.996600 0.000000
-7.978000 0.000000
-7.959500 0.000000
-7.940900 0.000000
-7.922400 0.000000
-7.903800 0.000000
-7.885200 0.000000
-7.866700 0.000000
-7.848100 0.000000
-7.829600 0.000000
-7.811000 0.000000
-7.792400 0.000000
-7.773900 0.000000
-7.755300 0.000000
-7.736800 0.000000
-7.718200 0.000000
-7.699600 0.000000
-7.681100 0.000000
-7.662500 0.000000
-7.644000 0.000000
-7.625400 0.000000
-7.606800 0.000000
-7.588300 0.000000
-7.569700 0.000000
-7.551200 0.000000
-7.532600 0.000000
-7.514000 0.000000
-7.495500 0.000000
-7.476900 0.000000
-7.458400 0.000000
-7.439800 0.000000
-7.421200 0.000000
-7.402700 0.000000
-7.384100 0.000000
-7.365600 0.000000
-7.347000 0.000000
-7.328400 0.000000
-7.309900 0.000000
-7.291300 0.000000
-7.272800 0.000000
-7.254200 0.000000
-7.235600 0.000000
-7.217100 0.000000
-7.198500 0.000000
-7.180000 0.000000
-7.161400 0.000000
-7.142800 0.000000
-7.124300 0.000000
-7.105700 0.000000
-7.087200 0.000000
-7.068600 0.000000
-7.050000 0.000000
-7.031500 0.000000
-7.012900 0.000000
-6.994400 0.000000
-6.975800 0.000000
-6.957200 0.000000
-6.938700 0.000000
-6.920100 0.000000
-6.901600 0.000000
-6.883000 0.000000
-6.864400 0.000000
-6.845900 0.000000
-6.827300 0.000000
-6.808800 0.000000
-6.790200 0.000000
-6.771600 0.000000
-6.753100 0.000000
-6.734500 0.000000
-6.716000 0.000000
-6.697400 0.000000
-6.678800 0.000000
-6.660300 0.000000
-6.641700 0.000000
-6.623200 0.000000
-6.604600 0.000000
-6.586000 0.000000
-6.567500 0.000000
-6.548900 0.000000
-6.530400 0.000000
-6.511800 0.000000
-6.493200 0.000000
-6.474700 0.000000
-6.456100 0.000000
-6.437600 0.000000
-6.419000 0.000000
-6.400400 0.000000
-6.381900 0.000000
-6.363300 0.000000
-6.344800 0.000000
-6.326200 0.000000
-6.307600 0.000000
-6.289100 0.000000
-6.270500 0.000000
-6.252000 0.000000
-6.233400 0.000000
-6.214800 0.000000
-6.196300 0.000000
-6.177700 0.000000
-6.159200 0.000000
-6.140600 0.000000
-6.122000 0.000000
-6.103500 0.000000
-6.084900 0.000000
-6.066400 0.000000
-6.047800 0.000000
-6.029200 0.000000
-6.010700 0.000000
-5.992100 0.000000
-5.973600 0.000000
-5.955000 0.000000
-5.936400 0.000000
-5.917900 0.000000
-5.899300 0.000000
-5.880800 0.000000
-5.862200 0.000000
-5.843600 0.000000
-5.825100 0.000000
-5.806500 0.000000
-5.788000 0.000000
-5.769400 0.000000
-5.750800 0.000000
-5.732300 0.000000
-5.713700 0.000000
-5.695200 0.000000
-5.676600 0.000000
-5.658000 0.000000
-5.639500 0.000000
-5.620900 0.000000
-5.602400 0.000000
-5.583800 0.000000
-5.565200 0.000000
-5.546700 0.000000
-5.528100 0.000000
-5.509600 0.000000
-5.491000 0.000000
-5.472400 0.018400
-5.453900 0.081600
-5.435300 0.183900
-5.416800 0.274400
-5.398200 0.347900
-5.379600 0.380700
-5.361100 0.413100
-5.342500 0.448000
-5.324000 0.487200
-5.305400 0.506700
-5.286800 0.548900
-5.268300 0.592700
-5.249700 0.638100
-5.231200 0.684100
-5.212600 0.721700
-5.194100 0.748500
-5.175500 0.771300
-5.156900 0.803800
-5.138400 0.839400
-5.119800 0.875000
-5.101300 0.911100
-5.082700 0.948200
-5.064100 0.987600
-5.045600 1.028700
-5.027000 1.071300
-5.008500 1.115300
-4.989900 1.165000
-4.971300 1.225900
-4.952800 1.324200
-4.934200 1.434700
-4.915700 1.519500
-4.897100 1.573200
-4.878500 1.596200
-4.860000 1.650500
-4.841400 1.639300
-4.822900 1.681600
-4.804300 1.726400
-4.785700 1.773700
-4.767200 1.819700
-4.748600 1.852200
-4.730100 1.896000
-4.711500 1.945300
-4.692900 2.002400
-4.674400 2.068500
-4.655800 2.136000
-4.637300 2.234500
-4.618700 2.417600
-4.600100 2.672200
-4.581600 3.082600
-4.563000 3.517200
-4.544500 3.733400
-4.525900 3.716800
-4.507300 3.364700
-4.488800 2.978000
-4.470200 2.622300
-4.451700 2.501800
-4.433100 2.384900
-4.414500 2.215200
-4.396000 2.065300
-4.377400 1.943900
-4.358900 1.860600
-4.340300 1.802900
-4.321700 1.747200
-4.303200 1.742000
-4.284600 1.743700
-4.266100 1.760900
-4.247500 1.670800
-4.228900 1.501400
-4.210400 1.345400
-4.191800 1.444200
-4.173300 1.043700
-4.154700 0.000000
-4.136100 0.000000
-4.117600 0.000000
-4.099000 0.000000
-4.080500 0.000000
-4.061900 0.000000
-4.043300 0.000000
-4.024800 0.000000
-4.006200 0.000000
-3.987700 0.000000
-3.969100 0.000000
-3.950500 0.000000
-3.932000 0.000000
-3.913400 0.000000
-3.894900 0.000000
-3.876300 0.000000
-3.857700 0.000000
-3.839200 0.000000
-3.820600 0.000000
-3.802100 0.000000
-3.783500 0.000000
-3.764900 0.000000
-3.746400 0.000000
-3.727800 0.000000
-3.709300 0.000000
-3.690700 0.000000
-3.672100 0.000000
-3.653600 0.000000
-3.635000 0.000000
-3.616500 0.000000
-3.597900 0.000000
-3.579300 0.000000
-3.560800 0.000000
-3.542200 0.000000
-3.523700 0.000000
-3.505100 0.018500
-3.486500 0.094600
-3.468000 0.100900
-3.449400 0.131800
-3.430900 0.158900
-3.412300 0.182500
-3.393700 0.202400
-3.375200 0.218600
-3.356600 0.233700
-3.338100 0.251600
-3.319500 0.263000
-3.300900 0.282700
-3.282400 0.304000
-3.263800 0.325900
-3.245300 0.348400
-3.226700 0.371300
-3.208100 0.386100
-3.189600 0.393800
-3.171000 0.407000
-3.152500 0.423900
-3.133900 0.441600
-3.115300 0.460200
-3.096800 0.479600
-3.078200 0.501000
-3.059700 0.525400
-3.041100 0.549900
-3.022500 0.577200
-3.004000 0.607200
-2.985400 0.639500
-2.966900 0.671400
-2.948300 0.704700
-2.929700 0.740000
-2.911200 0.778200
-2.892600 0.818400
-2.874100 0.861400
-2.855500 0.923700
-2.836900 1.279000
-2.818400 2.041000
-2.799800 2.591200
-2.781300 2.974200
-2.762700 3.142800
-2.744100 3.285500
-2.725600 3.435500
-2.707000 3.622600
-2.688500 3.509700
-2.669900 3.421800
-2.651300 3.420000
-2.632800 3.476500
-2.614200 3.594500
-2.595700 3.814800
-2.577100 3.808500
-2.558500 3.827800
-2.540000 3.906300
-2.521400 3.809400
-2.502900 3.703000
-2.484300 3.457200
-2.465700 2.964500
-2.447200 2.482200
-2.428600 2.032900
-2.410100 1.455700
-2.391500 1.174500
-2.372900 1.116200
-2.354400 1.058400
-2.335800 0.930200
-2.317300 0.876800
-2.298700 0.963800
-2.280100 0.958900
-2.261600 0.971900
-2.243000 0.993400
-2.224500 1.022200
-2.205900 1.045700
-2.187300 1.060500
-2.168800 1.065100
-2.150200 1.060200
-2.131700 1.060700
-2.113100 1.068500
-2.094500 1.079400
-2.076000 1.127400
-2.057400 1.180400
-2.038900 1.225600
-2.020300 1.269300
-2.001700 1.320700
-1.983200 1.423100
-1.964600 1.419800
-1.946100 1.425700
-1.927500 1.440700
-1.908900 1.464900
-1.890400 1.497600
-1.871800 1.566400
-1.853300 1.672300
-1.834700 1.767800
-1.816100 1.868900
-1.797600 1.996900
-1.779000 2.097500
-1.760500 2.234000
-1.741900 2.373400
-1.723300 2.487900
-1.704800 2.577000
-1.686200 2.661600
-1.667700 2.788100
-1.649100 3.019800
-1.630500 3.084300
-1.612000 2.930500
-1.593400 2.534300
-1.574900 2.307300
-1.556300 2.172500
-1.537700 2.140300
-1.519200 2.125700
-1.500600 2.115000
-1.482100 2.200700
-1.463500 2.081900
-1.444900 2.232700
-1.426400 2.416100
-1.407800 2.341600
-1.389300 2.296000
-1.370700 2.241100
-1.352100 2.215500
-1.333600 2.178200
-1.315000 2.152700
-1.296500 2.157600
-1.277900 2.173500
-1.259300 2.170600
-1.240800 2.125400
-1.222200 2.161000
-1.203700 2.222900
-1.185100 2.280400
-1.166500 2.333400
-1.148000 2.381000
-1.129400 2.427600
-1.110900 2.501500
-1.092300 2.556200
-1.073700 2.625200
-1.055200 2.721300
-1.036600 2.814200
-1.018100 3.371000
-0.999500 3.625700
-0.980900 4.257800
-0.962400 4.311000
-0.943800 4.151800
-0.925300 4.247600
-0.906700 4.439200
-0.888100 5.578700
-0.869600 3.738800
-0.851000 3.035300
-0.832500 2.781400
-0.813900 2.545700
-0.795300 2.360800
-0.776800 2.218000
-0.758200 2.078000
-0.739700 1.945700
-0.721100 1.821000
-0.702500 1.702400
-0.684000 1.604800
-0.665400 1.534700
-0.646900 1.478600
-0.628300 1.477200
-0.609700 1.358900
-0.591200 1.275700
-0.572600 1.197800
-0.554100 1.129400
-0.535500 1.067200
-0.516900 1.006700
-0.498400 0.964700
-0.479800 0.942300
-0.461300 0.885800
-0.442700 0.863300
-0.424100 0.841000
-0.405600 0.818700
-0.387000 0.796100
-0.368500 0.772900
-0.349900 0.749300
-0.331300 0.725300
-0.312800 0.701400
-0.294200 0.678400
-0.275700 0.660300
-0.257100 0.643700
-0.238500 0.627400
-0.220000 0.611200
-0.201400 0.595200
-0.182900 0.579600
-0.164300 0.564500
-0.145700 0.550400
-0.127200 0.537200
-0.108600 0.525200
-0.090100 0.515100
-0.071500 0.507300
-0.052900 0.504900
-0.034400 0.505500
-0.015800 0.506300
0.002700 0.507300
0.021300 0.510100
0.039900 0.504900
0.058400 0.489300
0.077000 0.461400
0.095500 0.403600
0.114100 0.356900
0.132700 0.310200
0.151200 0.263500
0.169800 0.216700
0.188300 0.169900
0.206900 0.123000
0.225500 0.076200
0.244000 0.040400
0.262600 0.014900
0.281100 0.000500
0.299700 0.000000
0.318300 0.000000
0.336800 0.000000
0.355400 0.000000
0.373900 0.000000
0.392500 0.000000
0.411100 0.000000
0.429600 0.000000
0.448200 0.000000
0.466700 0.000000
0.485300 0.000000
0.503900 0.000000
0.522400 0.000000
0.541000 0.000000
0.559500 0.000000
0.578100 0.000000
0.596700 0.000000
0.615200 0.000000
0.633800 0.000000
0.652300 0.000000
0.670900 0.000000
0.689500 0.000000
0.708000 0.000000
0.726600 0.000000
0.745100 0.000000
0.763700 0.000000
0.782300 0.000000
0.800800 0.000000
0.819400 0.000000
0.837900 0.000000
0.856500 0.000000
0.875100 0.000000
0.893600 0.000000
0.912200 0.000000
0.930700 0.000000
0.949300 0.000000
0.967900 0.000000
0.986400 0.000000
1.005000 0.000000
1.023500 0.000000
1.042100 0.000000
1.060700 0.000000
1.079200 0.000000
1.097800 0.000000
1.116300 0.000000
1.134900 0.000000
1.153500 0.000000
1.172000 0.000000
1.190600 0.000000
1.209100 0.000000
1.227700 0.000000
1.246300 0.000000
1.264800 0.000000
1.283400 0.000000
1.301900 0.000000
1.320500 0.000000
1.339100 0.000000
1.357600 0.000000
1.376200 0.000000
1.394700 0.000000
1.413300 0.000000
1.431900 0.000000
1.450400 0.000000
1.469000 0.000000
1.487500 0.000000
1.506100 0.000000
1.524700 0.000000
1.543200 0.000000
1.561800 0.000000
1.580300 0.000000
1.598900 0.000000
1.617500 0.000000
1.636000 0.000000
1.654600 0.000000
1.673100 0.000000
1.691700 0.000000
1.710300 0.000000
1.728800 0.000000
1.747400 0.000000
1.765900 0.000000
1.784500 0.000000
1.803100 0.000000
1.821600 0.000000
1.840200 0.000000
1.858700 0.000000
1.877300 0.000000
1.895900 0.000000
1.914400 0.000000
1.933000 0.000000
1.951500 0.000000
1.970100 0.000000
1.988700 0.000000
2.007200 0.000000
2.025800 0.006700
2.044300 0.025900
2.062900 0.049700
2.081500 0.078300
2.100000 0.111500
2.118600 0.149400
2.137100 0.191900
2.155700 0.239200
2.174300 0.232100
2.192800 0.254300
2.211400 0.275800
2.229900 0.296700
2.248500 0.316900
2.267100 0.336500
2.285600 0.355400
2.304200 0.373700
2.322700 0.422500
2.341300 0.442800
2.359900 0.464300
2.378400 0.487100
2.397000 0.511100
2.415500 0.536300
2.434100 0.565100
2.452700 0.607700
2.471200 0.644100
2.489800 0.716500
2.508300 0.799100
2.526900 0.891900
2.545500 0.994900
2.564000 1.033000
2.582600 1.046900
2.601100 1.031900
2.619700 0.999000
2.638300 1.000000
2.656800 1.090500
2.675400 1.150500
2.693900 1.211500
2.712500 1.273300
2.731100 1.335900
2.749600 1.417500
2.768200 1.625100
2.786700 1.634100
2.805300 1.705100
2.823900 1.778400
2.842400 1.859500
2.861000 1.935400
2.879500 2.003700
2.898100 1.992200
2.916700 1.886400
2.935200 1.823700
2.953800 1.799800
2.972300 1.798600
2.990900 1.928800
3.009500 1.957900
3.028000 1.991300
3.046600 2.028200
3.065100 2.068300
3.083700 2.111500
3.102300 2.165300
3.120800 2.141100
3.139400 2.172800
3.157900 2.204300
3.176500 2.241600
3.195100 2.297900
3.213600 2.368000
3.232200 2.454000
3.250700 2.562400
3.269300 2.661200
3.287900 2.750200
3.306400 2.841100
3.325000 2.923000
3.343500 3.014400
3.362100 3.101400
3.380700 3.186600
3.399200 3.291000
3.417800 3.370700
3.436300 3.570200
3.454900 3.690800
3.473500 3.784800
3.492000 3.855300
3.510600 3.978100
3.529100 3.950300
3.547700 4.067400
3.566300 4.339900
3.584800 4.360900
3.603400 4.402300
3.621900 4.369300
3.640500 4.116300
3.659000 4.361600
3.677600 4.088000
3.696200 4.012800
3.714700 3.886300
3.733300 3.759900
3.751800 3.675700
3.770400 3.633300
3.789000 3.634500
3.807500 3.362400
3.826100 3.398800
3.844600 3.322600
3.863200 3.143200
3.881800 3.077300
3.900300 3.045800
3.918900 2.943600
3.937400 2.956700
3.956000 2.850800
3.974600 2.820000
3.993100 2.794600
4.011700 2.765900
4.030200 2.733600
4.048800 2.699200
4.067400 2.667200
4.085900 2.646600
4.104500 2.650800
4.123000 2.663100
4.141600 2.685300
4.160200 2.717500
4.178700 2.754100
4.197300 2.787300
4.215800 2.813600
4.234400 2.858000
4.253000 2.895700
4.271500 2.828600
4.290100 2.771700
4.308600 2.726800
4.327200 2.696400
4.345800 2.693300
4.364300 2.687300
4.382900 2.691400
4.401400 2.712300
4.420000 2.813100
4.438600 2.912100
4.457100 2.877500
4.475700 2.791800
4.494200 2.708500
4.512800 2.654900
4.531400 2.587900
4.549900 2.514900
4.568500 2.453200
4.587000 2.396700
4.605600 2.351600
4.624200 2.316300
4.642700 2.299000
4.661300 2.308200
4.679800 2.319400
4.698400 2.329800
4.717000 2.337700
4.735500 2.331500
4.754100 2.425400
4.772600 2.370500
4.791200 2.332400
4.809800 2.326400
4.828300 2.332500
4.846900 2.653600
4.865400 2.722400
4.884000 2.789600
4.902600 2.826300
4.921100 2.837500
4.939700 2.817500
4.958200 2.766000
4.976800 2.668800
4.995400 2.553500
5.013900 2.519400
5.032500 2.535000
5.051000 2.469000
5.069600 2.196400
5.088200 2.039200
5.106700 1.921200
5.125300 1.829900
5.143800 1.760900
5.162400 1.719400
5.181000 1.703300
5.199500 1.676400
5.218100 1.642300
5.236600 1.608800
5.255200 1.610000
5.273800 1.615000
5.292300 1.624500
5.310900 1.639400
5.329400 1.659800
5.348000 1.689500
5.366600 1.728700
5.385100 1.781000
5.403700 1.855600
5.422200 1.955100
5.440800 1.886600
5.459400 1.785100
5.477900 1.678400
5.496500 1.553000
5.515000 1.445600
5.533600 1.378800
5.552200 1.336600
5.570700 1.295500
5.589300 1.255400
5.607800 1.208900
5.626400 1.158300
5.645000 1.134600
5.663500 1.097800
5.682100 1.080700
5.700600 1.069600
5.719200 1.063400
5.737800 1.061800
5.756300 1.063200
5.774900 1.070200
5.793400 1.081000
5.812000 1.092800
5.830600 1.105600
5.849100 1.119600
5.867700 1.134400
5.886200 1.151600
5.904800 1.177500
5.923400 1.206600
5.941900 1.339900
5.960500 1.286600
5.979000 1.342600
5.997600 1.415000
6.016200 1.504400
6.034700 1.612500
6.053300 1.743600
6.071800 1.914800
6.090400 2.121200
6.109000 2.334900
6.127500 2.532100
6.146100 2.710400
6.164600 2.882600
6.183200 3.042900
6.201800 3.189300
6.220300 3.376200
6.238900 3.583600
6.257400 3.810300
6.276000 3.841300
6.294600 3.766900
6.313100 3.590100
6.331700 3.424300
6.350200 3.344100
6.368800 3.252900
6.387400 3.154700
6.405900 3.049900
6.424500 2.921900
6.443000 2.797600
6.461600 2.689100
6.480200 2.614000
6.498700 2.501400
6.517300 2.402900
6.535800 2.347800
6.554400 2.059700
6.573000 1.713800
6.591500 1.511000
6.610100 1.430900
6.628600 1.378400
6.647200 1.240100
6.665800 1.320800
6.684300 1.398000
6.702900 1.492800
6.721400 1.615900
6.740000 1.740300
6.758600 1.866200
6.777100 1.971000
6.795700 1.972400
6.814200 1.997700
6.832800 2.038400
6.851400 2.058500
6.869900 2.088700
6.888500 2.095300
6.907000 2.173600
6.925600 2.272300
6.944200 2.436800
6.962700 2.741800
6.981300 3.033200
6.999800 3.229100
7.018400 3.413900
7.037000 3.561600
7.055500 3.702600
7.074100 3.780600
7.092600 3.786000
7.111200 3.758500
7.129800 3.766900
7.148300 3.702600
7.166900 3.706300
7.185400 3.580000
7.204000 3.442000
7.222600 3.301700
7.241100 3.105000
7.259700 2.916200
7.278200 2.650300
7.296800 2.311300
7.315400 2.041900
7.333900 1.887100
7.352500 1.799300
7.371000 1.749600
7.389600 2.031600
7.408200 1.964700
7.426700 2.112000
7.445300 2.205500
7.463800 2.276900
7.482400 2.376600
7.501000 2.463100
7.519500 2.540900
7.538100 2.617200
7.556600 2.696500
7.575200 2.758700
7.593800 2.822300
7.612300 2.879700
7.630900 2.967100
7.649400 3.123100
7.668000 3.127400
7.686600 2.932200
7.705100 2.799500
7.723700 2.687900
7.742200 2.634400
7.760800 2.607800
7.779400 2.702100
7.797900 2.792400
7.816500 2.839700
7.835000 2.854000
7.853600 2.892800
7.872200 2.782400
7.890700 2.553400
7.909300 2.386800
7.927800 2.309900
7.946400 2.314200
7.965000 2.363500
7.983500 2.431300
8.002100 2.511000
8.020600 2.600400
8.039200 2.723100
8.057800 2.895400
8.076300 3.288000
8.094900 4.723500
8.113400 4.901000
8.132000 4.631600
8.150600 4.390100
8.169100 4.142500
8.187700 4.717500
8.206200 5.229700
8.224800 3.719500
8.243400 3.534300
8.261900 3.366800
8.280500 3.216300
8.299000 3.084300
8.317600 2.977300
8.336200 2.880200
8.354700 2.826500
8.373300 2.780300
8.391800 2.774900
8.410400 2.825900
8.429000 2.865600
8.447500 2.893700
8.466100 2.910000
8.484600 2.913900
8.503200 2.953400
8.521800 3.011800
8.540300 3.027300
8.558900 2.999800
8.577400 2.926800
8.596000 2.854200
8.614600 2.866500
8.633100 2.888800
8.651700 2.923600
8.670200 2.971500
8.688800 3.040600
8.707400 3.133500
8.725900 3.240600
8.744500 3.289100
8.763000 3.321500
8.781600 3.349500
8.800200 3.348400
8.818700 3.372400
8.837300 3.462200
8.855800 3.579300
8.874400 3.686700
8.893000 3.790600
8.911500 3.896700
8.930100 4.006100
8.948600 4.130100
8.967200 4.265700
8.985800 4.355900
9.004300 4.389400
9.022900 4.396400
9.041400 4.367400
9.060000 4.298600
9.078600 3.928600
9.097100 3.555600
9.115700 3.395000
9.134200 3.280600
9.152800 3.163400
9.171400 3.029800
9.189900 2.988600
9.208500 3.141600
9.227000 2.826600
9.245600 2.562900
9.264200 2.481000
9.282700 2.426600
9.301300 2.398500
9.319800 2.386300
9.338400 2.367800
9.357000 2.351300
9.375500 2.370500
9.394100 2.412800
9.412600 2.461900
9.431200 2.542700
9.449800 2.631800
9.468300 2.744700
9.486900 2.845100
9.505400 2.758200
9.524000 2.771400
9.542600 2.743100
9.561100 2.740000
9.579700 2.713500
9.598200 2.727100
9.616800 2.829100
9.635400 2.856000
9.653900 2.814200
9.672500 2.688200
9.691000 2.583500
9.709600 2.415600
9.728200 2.387000
9.746700 2.379700
9.765300 2.374200
9.783800 2.356200
9.802400 2.327800
9.821000 2.334300
9.839500 2.382900
9.858100 2.378500
9.876600 2.376600
9.895200 2.377100
9.913800 2.380100
9.932300 2.384900
9.950900 2.391000
9.969400 2.423600
9.988000 2.647600
10.006600 2.651600
10.025100 2.663900
10.043700 2.645900
10.062200 2.635200
10.080800 2.588600
10.099400 2.526500
10.117900 2.149400
10.136500 2.121000
10.155000 2.080100
10.173600 2.026700
10.192200 2.033800
10.210700 2.039700
10.229300 2.048200
10.247800 2.063900
10.266400 2.074200
10.285000 2.086700
10.303500 2.103000
10.322100 2.123200
10.340600 2.147200
10.359200 2.174300
10.377800 2.199400
10.396300 2.235600
10.414900 2.321400
10.433400 2.447900
10.452000 2.439000
10.470600 2.358200
10.489100 2.286400
10.507700 2.313500
10.526200 2.333100
10.544800 2.292300
10.563400 2.250700
10.581900 2.208500
10.600500 2.167100
10.619000 2.127800
10.637600 2.090400
10.656200 2.055000
10.674700 2.021400
10.693300 1.960500
10.711800 1.946000
10.730400 1.881800
10.749000 1.808800
10.767500 1.808900
10.786100 1.823700
10.804600 1.835800
10.823200 1.845400
10.841800 1.731400
10.860300 1.726000
10.878900 1.722100
10.897400 1.719600
10.916000 1.718600
10.934600 1.719100
10.953100 1.723400
10.971700 1.730700
10.990200 1.739400
11.008800 1.753900
11.027400 1.798200
11.045900 1.835600
11.064500 1.862600
11.083000 1.902600
11.101600 1.935400
11.120200 1.972000
11.138700 2.009800
11.157300 2.056900
11.175800 2.108100
11.194400 2.177500
11.213000 2.267400
11.231500 2.320400
11.250100 2.039000
11.268600 2.010600
11.287200 1.982800
11.305800 1.957000
11.324300 1.952600
11.342900 1.917200
11.361400 1.802000
11.380000 1.771600
11.398600 1.759600
11.417100 1.750000
11.435700 1.739500
11.454200 1.729800
11.472800 1.723300
11.491400 1.719400
11.509900 1.718900
11.528500 1.724400
11.547000 1.728800
11.565600 1.732000
11.584200 1.736500
11.602700 1.745200
11.621300 1.742000
11.639800 1.742400
11.658400 1.745300
11.677000 1.727200
11.695500 1.713600
11.714100 1.701100
11.732600 1.689200
11.751200 1.677100
11.769800 1.665700
11.788300 1.658300
11.806900 1.654600
11.825400 1.650700
11.844000 1.646000
11.862600 1.646500
11.881100 1.652600
11.899700 1.659800
11.918200 1.667400
11.936800 1.669900
11.955400 1.667900
11.973900 1.658100
11.992500 1.648400
12.011000 1.631700
12.029600 1.610900
12.048200 1.597800
12.066700 1.591100
12.085300 1.585900
12.103800 1.612100
12.122400 1.714400
12.141000 1.730200
12.159500 1.753000
12.178100 1.746600
12.196600 1.765800
12.215200 1.847100
12.233800 1.844800
12.252300 1.871000
12.270900 1.909600
12.289400 1.944800
12.308000 1.999200
12.326600 1.876200
12.345100 1.810800
12.363700 1.722700
12.382200 1.692500
12.400800 1.714200
12.419400 1.748800
12.437900 1.780900
12.456500 1.777900
12.475000 1.782900
12.493600 1.825000
12.512200 1.832500
12.530700 1.838500
12.549300 1.842800
12.567800 1.845000
12.586400 1.866800
12.604900 1.860500
12.623500 1.856900
12.642100 1.858300
12.660600 1.872400
12.679200 1.893200
12.697700 1.910100
12.716300 1.919200
12.734900 1.920500
12.753400 1.911200
12.772000 1.897600
12.790500 1.882100
12.809100 3.100700
12.827700 1.663000
12.846200 1.668000
12.864800 1.668200
12.883300 1.662300
12.901900 1.657800
12.920500 1.658500
12.939000 1.657100
12.957600 1.653300
12.976100 1.609700
12.994700 1.629900
13.013300 1.646700
13.031800 1.670800
13.050400 1.698100
13.068900 1.728100
13.087500 1.760000
13.106100 1.788400
13.124600 1.817400
13.143200 1.849000
13.161700 1.881900
13.180300 2.052900
13.198900 1.997500
13.217400 2.029000
13.236000 1.990400
13.254500 1.863600
13.273100 1.889200
13.291700 1.913600
13.310200 1.947100
13.328800 1.983700
13.347300 2.024800
13.365900 2.073400
13.384500 2.125800
13.403000 2.182000
13.421600 2.243300
13.440100 2.306400
13.458700 2.371900
13.477300 2.440800
13.495800 2.525100
13.514400 2.619400
13.532900 2.715800
13.551500 2.885100
13.570100 2.971000
13.588600 3.031400
13.607200 3.070600
13.625700 3.063000
13.644300 3.102600
13.662900 3.132600
13.681400 3.154200
13.700000 3.176700
13.718500 3.191300
13.737100 3.202100
13.755700 3.212500
13.774200 3.205700
13.792800 3.203600
13.811300 3.186700
13.829900 3.256300
13.848500 3.227100
13.867000 3.185000
13.885600 3.130400
13.904100 3.108600
13.922700 3.106500
13.941300 3.154900
13.959800 3.176000
13.978400 3.205000
13.996900 3.262800
14.015500 3.336900
14.034100 3.400400
14.052600 3.442600
14.071200 3.459400
14.089700 3.422900
14.108300 3.425800
14.126900 3.422800
14.145400 3.415300
14.164000 3.404000
14.182500 3.404200
14.201100 3.415600
14.219700 3.430700
14.238200 3.399000
14.256800 3.408900
14.275300 3.423300
14.293900 3.432000
14.312500 3.447900
14.331000 3.482300
14.349600 3.523900
14.368100 3.573400
14.386700 3.633800
14.405300 3.699600
14.423800 3.725400
14.442400 3.770200
14.460900 3.824000
14.479500 3.908200
14.498100 4.063900
14.516600 4.277700
14.535200 4.316000
14.553700 4.252200
14.572300 3.809900
14.590900 3.752300
14.609400 3.739400
14.628000 3.687000
14.646500 3.534200
14.665100 3.570500
14.683700 3.546200
14.702200 3.502000
14.720800 3.458600
14.739300 3.416500
14.757900 3.433100
14.776500 3.367200
14.795000 3.326400
14.813600 3.332200
14.832100 3.326700
14.850700 3.368300
14.869300 3.433700
14.887800 3.546300
14.906400 3.775700
14.924900 4.114100
14.943500 4.480600
14.962100 4.802300
14.980600 5.079700
14.999200 4.828200
15.017700 4.846900
15.036300 4.920300
15.054900 4.928700
15.073400 4.953500
15.092000 4.949200
15.110500 4.960400
15.129100 4.291400
15.147700 4.006400
15.166200 3.620800
15.184800 3.528200
15.203300 3.481500
15.221900 3.441200
15.240500 3.445300
15.259000 3.369700
15.277600 3.454400
15.296100 3.521100
15.314700 3.568800
15.333300 3.579600
15.351800 3.472400
15.370400 3.368300
15.388900 3.494500
15.407500 3.615900
15.426100 3.681800
15.444600 3.866400
15.463200 4.053000
15.481700 4.183700
15.500300 4.216000
15.518900 3.855800
15.537400 3.700100
15.556000 3.560000
15.574500 3.443400
15.593100 3.348600
15.611700 3.286700
15.630200 3.261200
15.648800 3.433000
15.667300 3.738700
15.685900 3.573000
15.704500 3.587900
15.723000 3.642600
15.741600 3.667100
15.760100 3.691700
15.778700 3.731900
15.797300 3.653300
15.815800 3.562500
15.834400 3.586800
15.852900 3.548800
15.871500 3.530200
15.890100 3.557300
15.908600 3.648900
15.927200 3.778400
15.945700 3.859700
15.964300 3.808800
15.982900 3.817200
16.001400 3.829600
16.020000 3.883600
16.038500 4.008700
16.057100 4.061900
16.075700 4.075500
16.094200 4.040700
16.112800 3.957400
16.131300 3.900300
16.149900 3.858300
16.168500 3.665900
16.187000 3.338300
16.205600 3.193900
16.224100 3.083200
16.242700 3.003200
16.261300 2.940500
16.279800 3.008000
16.298400 3.011900
16.316900 3.002900
16.335500 3.018700
16.354100 3.047800
16.372600 3.012400
16.391200 2.986500
16.409700 2.950400
16.428300 2.946300
16.446900 2.977300
16.465400 3.025100
16.484000 3.074300
16.502500 3.108700
16.521100 3.123000
16.539700 3.118800
16.558200 3.096700
16.576800 3.107500
16.595300 3.115800
16.613900 3.120600
16.632500 3.121900
16.651000 3.120400
16.669600 3.122000
16.688100 3.129300
16.706700 3.157700
16.725300 3.216800
16.743800 3.327100
16.762400 3.509900
16.780900 3.738400
16.799500 3.010400
16.818100 2.887700
16.836600 2.873100
16.855200 2.853500
16.873700 2.798900
16.892300 2.781400
16.910900 2.809200
16.929400 2.855800
16.948000 2.899500
16.966500 2.776700
16.985100 2.744500
17.003700 2.712600
17.022200 2.748600
17.040800 2.896300
17.059300 2.821800
17.077900 2.980800
17.096500 3.173100
17.115000 3.114300
17.133600 3.007500
17.152100 3.064200
17.170700 3.208900
17.189300 3.165100
17.207800 3.152300
17.226400 3.184200
17.244900 3.174800
17.263500 3.158200
17.282100 3.144100
17.300600 3.141600
17.319200 3.133100
17.337700 3.140900
17.356300 3.136100
17.374900 3.186300
17.393400 3.228500
17.412000 3.300000
17.430500 3.350000
17.449100 3.393400
17.467700 3.432400
17.486200 3.628300
17.504800 3.435700
17.523300 3.270100
17.541900 3.173000
17.560500 3.107500
17.579000 3.022400
17.597600 2.955500
17.616100 2.889700
17.634700 2.829900
17.653300 2.770400
17.671800 2.728500
17.690400 2.850900
17.708900 2.884800
17.727500 2.934100
17.746100 3.029300
17.764600 3.118100
17.783200 3.268100
17.801700 3.722400
17.820300 4.453400
17.838900 5.147900
17.857400 4.839700
17.876000 4.666400
17.894500 4.488800
17.913100 4.290900
17.931700 4.072300
17.950200 4.051900
17.968800 4.789500
17.987300 4.578900
18.005900 4.449900
18.024500 4.372800
18.043000 4.318900
18.061600 4.235700
18.080100 4.196400
18.098700 4.177300
18.117300 4.174700
18.135800 4.170300
18.154400 4.179300
18.172900 4.119600
18.191500 4.060200
18.210100 3.974100
18.228600 3.868800
18.247200 3.807800
18.265700 3.789700
18.284300 3.773000
18.302900 3.757300
18.321400 3.847100
18.340000 3.679300
18.358500 3.599200
18.377100 3.597000
18.395700 3.635400
18.414200 3.684400
18.432800 3.704300
18.451300 3.712300
18.469900 3.711000
18.488500 3.709000
18.507000 3.943000
18.525600 3.953300
18.544100 4.055600
18.562700 4.208900
18.581300 4.345700
18.599800 4.355900
18.618400 4.354400
18.636900 4.363100
18.655500 4.392900
18.674100 4.426600
18.692600 4.468800
18.711200 4.525800
18.729700 4.591500
18.748300 4.664400
18.766900 4.754200
18.785400 4.851500
18.804000 4.825600
18.822500 4.779100
18.841100 4.830600
18.859700 4.942700
18.878200 5.079300
18.896800 5.103100
18.915300 5.076100
18.933900 5.028000
18.952500 4.999500
18.971000 4.998700
18.989600 5.054700
19.008100 5.389000
19.026700 5.591600
19.045300 5.636900
19.063800 5.713200
19.082400 5.978500
19.100900 5.692600
19.119500 5.302500
19.138100 5.115800
19.156600 4.913400
19.175200 4.744700
19.193700 4.583200
19.212300 4.442700
19.230900 4.342300
19.249400 4.284800
19.268000 4.251300
19.286500 4.230300
19.305100 4.227400
19.323700 4.215000
19.342200 4.199600
19.360800 4.192800
19.379300 4.281400
19.397900 4.307000
19.416500 4.324900
19.435000 4.248400
19.453600 4.280700
19.472100 4.348000
19.490700 4.414100
19.509300 4.309400
19.527800 4.201100
19.546400 4.258200
19.564900 4.373800
19.583500 4.488700
19.602100 4.603300
19.620600 4.708300
19.639200 4.703500
19.657700 4.678800
19.676300 4.705000
19.694900 4.654900
19.713400 4.628300
19.732000 4.534000
19.750500 4.555100
19.769100 4.594300
19.787700 4.628400
19.806200 4.593800
19.824800 4.528700
19.843300 4.540700
19.861900 4.534500
19.880500 4.522800
19.899000 4.561000
19.917600 4.507900
19.936100 4.460500
19.954700 4.445200
19.973300 4.442400
19.991800 4.407100
20.010400 4.382000
20.028900 4.380300
20.047500 4.370000
20.066100 4.366200
20.084600 4.247200
20.103200 4.271000
20.121700 4.347300
20.140300 4.417100
20.158900 4.475200
20.177400 4.537900
20.196000 4.607200
20.214500 4.651000
20.233100 4.676800
20.251700 4.706900
20.270200 4.685200
20.288800 4.642000
20.307300 4.652600
20.325900 4.662600
20.344500 4.612700
20.363000 4.555100
20.381600 4.512200
20.400100 4.480800
20.418700 4.455100
20.437300 4.503200
20.455800 4.485800
20.474400 4.483900
20.492900 4.489200
20.511500 4.500400
20.530100 4.537100
20.548600 4.590700
20.567200 4.668400
20.585700 4.636800
20.604300 4.697200
20.622900 4.730200
20.641400 4.728500
20.660000 4.631200
20.678500 4.510400
20.697100 4.398200
20.715700 4.359400
20.734200 4.306500
20.752800 4.407500
20.771300 4.149900
20.789900 3.997500
20.808500 3.884600
20.827000 3.794400
20.845600 3.721100
20.864100 3.671000
20.882700 3.637300
20.901300 3.616100
20.919800 3.610400
20.938400 3.702200
20.956900 3.775100
20.975500 3.765200
20.994100 3.696600
21.012600 3.716400
21.031200 3.686100
21.049700 3.691600
21.068300 3.643000
21.086900 3.659300
21.105400 3.659200
21.124000 3.588600
21.142500 3.492400
21.161100 3.399700
21.179700 3.330800
21.198200 3.324400
21.216800 3.274800
21.235300 3.229300
21.253900 3.195100
21.272500 3.179100
21.291000 3.168700
21.309600 3.153600
21.328100 3.135200
21.346700 3.110800
21.365300 3.086700
21.383800 3.077100
21.402400 3.316900
21.420900 3.366000
21.439500 3.370500
21.458000 3.367500
21.476600 3.339400
21.495200 3.311300
21.513700 3.110400
21.532300 2.986800
21.550800 2.876600
21.569400 2.782000
21.588000 2.705000
21.606500 2.616800
21.625100 2.513800
21.643600 2.414000
21.662200 2.169600
21.680800 1.882800
21.699300 1.701800
21.717900 1.582200
21.736400 1.514800
21.755000 1.457500
21.773600 1.401700
21.792100 1.349100
21.810700 1.303100
21.829200 1.259300
21.847800 1.217100
21.866400 1.174600
21.884900 1.133300
21.903500 1.093600
21.922000 1.055900
21.940600 1.018600
21.959200 0.981800
21.977700 0.948600
21.996300 0.919300
22.014800 0.891400
22.033400 0.860900
22.052000 0.832900
22.070500 0.810400
22.089100 0.795500
22.107600 0.790500
22.126200 0.785900
22.144800 0.780900
22.163300 0.775800
22.181900 0.778000
22.200400 0.775300
22.219000 0.768000
22.237600 0.748500
22.256100 0.690200
22.274700 0.595000
22.293200 0.551600
22.311800 0.518400
22.330400 0.451000
22.348900 0.363500
22.367500 0.302400
22.386000 0.259200
22.404600 0.232400
22.423200 0.209900
22.441700 0.190600
22.460300 0.174500
22.478800 0.161500
22.497400 0.154900
22.516000 0.150000
22.534500 0.143900
22.553100 0.136500
22.571600 0.127700
22.590200 0.117700
22.608800 0.106300
22.627300 0.096700
22.645900 0.088000
22.664400 0.078900
22.683000 0.067800
22.701600 0.054700
22.720100 0.039700
22.738700 0.022600
22.757200 0.012900
22.775800 0.011000
22.794400 0.009200
22.812900 0.007600
22.831500 0.006200
22.850000 0.004900
22.868600 0.003800
22.887200 0.002800
22.905700 0.001900
22.924300 0.001300
22.942800 0.000700
22.961400 0.000300
22.980000 0.000100
22.998500 0.000000
23.017100 0.000000
23.035600 0.000000
23.054200 0.000000
23.072800 0.000000
23.091300 0.000000
23.109900 0.000000
23.128400 0.000000
23.147000 0.000000
23.165600 0.000000
23.184100 0.000000
23.202700 0.000000
23.221200 0.000000
23.239800 0.000000
23.258400 0.000000
23.276900 0.000000
23.295500 0.000000
23.314000 0.000000
23.332600 0.000000
23.351200 0.000000
23.369700 0.000000
23.388300 0.000000
23.406800 0.000000
23.425400 0.000000
23.444000 0.000000
23.462500 0.000000
23.481100 0.000000
23.499600 0.000000
23.518200 0.000000
23.536800 0.000000
23.555300 0.000000
23.573900 0.000000
23.592400 0.000000
23.611000 0.000000
23.629600 0.000000
23.648100 0.000000
23.666700 0.000000
23.685200 0.000000
23.703800 0.000000
23.722400 0.000000
23.740900 0.000000
23.759500 0.000000
23.778000 0.000000
23.796600 0.000000
23.815200 0.000000
23.833700 0.000000
23.852300 0.000000
23.870800 0.000000
23.889400 0.000000
23.908000 0.000000
23.926500 0.000000
23.945100 0.000000
23.963600 0.000000
23.982200 0.000000
24.000800 0.000000
24.019300 0.000000
24.037900 0.000000
24.056400 0.000000
24.075000 0.000000
24.093600 0.000000
24.112100 0.000000
24.130700 0.000000
24.149200 0.000000
24.167800 0.000000
24.186400 0.000000
24.204900 0.000000
24.223500 0.000000
24.242000 0.000000
24.260600 0.000000
24.279200 0.000000
24.297700 0.000000
24.316300 0.000000
24.334800 0.000000
24.353400 0.000000
24.372000 0.000000
24.390500 0.000000
24.409100 0.000000
24.427600 0.000000
24.446200 0.000000
24.464800 0.000000
24.483300 0.000000
24.501900 0.000000
24.520400 0.000000
24.539000 0.000000
24.557600 0.000000
24.576100 0.000000
24.594700 0.000000
24.613200 0.000000
24.631800 0.000000
24.650400 0.000000
24.668900 0.000000
24.687500 0.000000
e
