set title 'mp-1184296 - Density of States'
set xlabel 'Energy (eV)'
set ylabel 'DOS (states/eV)'
set grid
set xrange [-10:10]
set yrange [0:23.598]
set xzeroaxis lt -1
set terminal png size 800,600
set output 'mp-1184296_dos_gnuplot.png'
plot '-' using 1:2 with lines title 'DOS'
-13.014700 0.000000
-12.992300 0.000000
-12.969900 0.000000
-12.947500 0.000000
-12.925100 0.000000
-12.902700 0.000000
-12.880300 0.000000
-12.857900 0.000000
-12.835500 0.000000
-12.813100 0.000000
-12.790700 0.000000
-12.768300 0.000000
-12.745900 0.000000
-12.723500 0.000000
-12.701100 0.000000
-12.678700 0.000000
-12.656300 0.000000
-12.633900 0.000000
-12.611500 0.000000
-12.589100 0.000000
-12.566700 0.000000
-12.544300 0.000000
-12.521900 0.000000
-12.499500 0.000000
-12.477100 0.000000
-12.454700 0.000000
-12.432300 0.000000
-12.409900 0.000000
-12.387500 0.000000
-12.365100 0.000000
-12.342700 0.000000
-12.320300 0.000000
-12.297900 0.000000
-12.275500 0.000000
-12.253100 0.000000
-12.230700 0.000000
-12.208300 0.000000
-12.185900 0.000000
-12.163500 0.000000
-12.141100 0.000000
-12.118700 0.000000
-12.096300 0.000000
-12.073900 0.000000
-12.051500 0.000000
-12.029100 0.000000
-12.006700 0.000000
-11.984300 0.000000
-11.961900 0.000000
-11.939500 0.000000
-11.917100 0.000000
-11.894700 0.000000
-11.872300 0.000000
-11.849900 0.000000
-11.827500 0.000000
-11.805100 0.000000
-11.782700 0.000000
-11.760300 0.000000
-11.737900 0.000000
-11.715500 0.000000
-11.693100 0.000000
-11.670700 0.000000
-11.648300 0.000000
-11.625900 0.000000
-11.603500 0.000000
-11.581100 0.000000
-11.558700 0.000000
-11.536300 0.000000
-11.513900 0.000000
-11.491500 0.000000
-11.469100 0.000000
-11.446700 0.000000
-11.424300 0.000000
-11.401900 0.000000
-11.379500 0.000000
-11.357100 0.000000
-11.334700 0.000000
-11.312300 0.000000
-11.289900 0.000000
-11.267500 0.000000
-11.245100 0.000000
-11.222700 0.000000
-11.200300 0.000000
-11.177900 0.000000
-11.155500 0.000000
-11.133100 0.000000
-11.110700 0.000000
-11.088300 0.000000
-11.065900 0.000000
-11.043500 0.000000
-11.021100 0.000000
-10.998700 0.000000
-10.976300 0.370900
-10.953900 29.334800
-10.931500 62.653000
-10.909000 56.058300
-10.886600 64.794500
-10.864200 120.715700
-10.841800 93.533000
-10.819400 62.342000
-10.797000 72.835100
-10.774600 99.670500
-10.752200 128.274700
-10.729800 112.110100
-10.707400 65.617800
-10.685000 100.102600
-10.662600 76.035500
-10.640200 27.101000
-10.617800 0.000000
-10.595400 0.000000
-10.573000 0.000000
-10.550600 0.000000
-10.528200 0.000000
-10.505800 0.000000
-10.483400 0.000000
-10.461000 0.000000
-10.438600 0.000000
-10.416200 0.000000
-10.393800 0.000000
-10.371400 0.000000
-10.349000 0.000000
-10.326600 0.000000
-10.304200 0.000000
-10.281800 0.000000
-10.259400 0.000000
-10.237000 0.000000
-10.214600 0.000000
-10.192200 0.000000
-10.169800 0.000000
-10.147400 0.000000
-10.125000 0.000000
-10.102600 0.000000
-10.080200 0.000000
-10.057800 0.000000
-10.035400 0.000000
-10.013000 0.000000
-9.990600 0.000000
-9.968200 0.000000
-9.945800 0.000000
-9.923400 0.000000
-9.901000 0.000000
-9.878600 0.000000
-9.856200 0.000000
-9.833800 0.000000
-9.811400 0.000000
-9.789000 0.000000
-9.766600 0.000000
-9.744200 0.000000
-9.721800 0.000000
-9.699400 0.000000
-9.677000 0.000000
-9.654600 0.000000
-9.632200 0.000000
-9.609800 0.000000
-9.587400 0.000000
-9.565000 0.000000
-9.542600 0.000000
-9.520200 0.000000
-9.497800 0.000000
-9.475400 0.000000
-9.453000 0.000000
-9.430600 0.000000
-9.408200 0.000000
-9.385800 0.000000
-9.363400 0.000000
-9.341000 0.000000
-9.318600 0.000000
-9.296200 0.000000
-9.273800 0.000000
-9.251400 0.000000
-9.229000 0.000000
-9.206600 0.000000
-9.184200 0.000000
-9.161800 0.000000
-9.139400 0.000000
-9.117000 0.000000
-9.094600 0.000000
-9.072200 0.000000
-9.049800 0.000000
-9.027400 0.000000
-9.005000 0.000000
-8.982600 0.000000
-8.960200 0.000000
-8.937800 0.000000
-8.915400 0.000000
-8.893000 0.000000
-8.870600 0.000000
-8.848200 0.000000
-8.825800 0.000000
-8.803400 0.000000
-8.781000 0.000000
-8.758600 0.000000
-8.736100 0.000000
-8.713700 0.000000
-8.691300 0.000000
-8.668900 0.000000
-8.646500 0.000000
-8.624100 0.000000
-8.601700 0.000000
-8.579300 0.000000
-8.556900 0.000000
-8.534500 0.000000
-8.512100 0.000000
-8.489700 0.000000
-8.467300 0.000000
-8.444900 0.000000
-8.422500 0.000000
-8.400100 0.000000
-8.377700 0.000000
-8.355300 0.000000
-8.332900 0.000000
-8.310500 0.000000
-8.288100 0.000000
-8.265700 0.000000
-8.243300 0.000000
-8.220900 0.000000
-8.198500 0.000000
-8.176100 0.000000
-8.153700 0.000000
-8.131300 0.000000
-8.108900 0.000000
-8.086500 0.000000
-8.064100 0.000000
-8.041700 0.000000
-8.019300 0.000000
-7.996900 0.000000
-7.974500 0.000000
-7.952100 0.000000
-7.929700 0.000000
-7.907300 0.000000
-7.884900 0.000000
-7.862500 0.000000
-7.840100 0.000000
-7.817700 0.000000
-7.795300 0.000000
-7.772900 0.000000
-7.750500 0.000000
-7.728100 0.000000
-7.705700 0.000000
-7.683300 0.000000
-7.660900 0.000000
-7.638500 0.000000
-7.616100 0.000000
-7.593700 0.000000
-7.571300 0.000000
-7.548900 0.000000
-7.526500 0.000000
-7.504100 0.000000
-7.481700 0.000000
-7.459300 0.000000
-7.436900 0.000000
-7.414500 0.000000
-7.392100 0.000000
-7.369700 0.000000
-7.347300 0.000000
-7.324900 0.000000
-7.302500 0.000000
-7.280100 0.000000
-7.257700 0.000000
-7.235300 0.000000
-7.212900 0.000000
-7.190500 0.000000
-7.168100 0.000000
-7.145700 0.000000
-7.123300 0.000000
-7.100900 0.000000
-7.078500 0.000000
-7.056100 0.000000
-7.033700 0.000000
-7.011300 0.000000
-6.988900 0.000000
-6.966500 0.000000
-6.944100 0.000000
-6.921700 0.000000
-6.899300 0.000000
-6.876900 0.000000
-6.854500 0.000000
-6.832100 0.000000
-6.809700 0.000000
-6.787300 0.000000
-6.764900 0.001400
-6.742500 0.016200
-6.720100 0.047300
-6.697700 0.094600
-6.675300 0.139600
-6.652900 0.140900
-6.630500 0.148400
-6.608100 0.160300
-6.585700 0.174200
-6.563300 0.189900
-6.540800 0.206300
-6.518400 0.216000
-6.496000 0.230300
-6.473600 0.244900
-6.451200 0.256500
-6.428800 0.263800
-6.406400 0.266800
-6.384000 0.272900
-6.361600 0.282100
-6.339200 0.291500
-6.316800 0.301100
-6.294400 0.310300
-6.272000 0.318400
-6.249600 0.325500
-6.227200 0.331600
-6.204800 0.337700
-6.182400 0.344900
-6.160000 0.353200
-6.137600 0.362200
-6.115200 0.371700
-6.092800 0.381000
-6.070400 0.387000
-6.048000 0.393100
-6.025600 0.399200
-6.003200 0.405100
-5.980800 0.411000
-5.958400 0.416800
-5.936000 0.423200
-5.913600 0.427600
-5.891200 0.432600
-5.868800 0.438000
-5.846400 0.443400
-5.824000 0.448700
-5.801600 0.455200
-5.779200 0.461200
-5.756800 0.467200
-5.734400 0.473500
-5.712000 0.479900
-5.689600 0.486600
-5.667200 0.493600
-5.644800 0.500700
-5.622400 0.507900
-5.600000 0.515100
-5.577600 0.521500
-5.555200 0.526800
-5.532800 0.531200
-5.510400 0.536000
-5.488000 0.541200
-5.465600 0.545500
-5.443200 0.550100
-5.420800 0.554700
-5.398400 0.559500
-5.376000 0.564300
-5.353600 0.569200
-5.331200 0.574400
-5.308800 0.579900
-5.286400 0.585400
-5.264000 0.591000
-5.241600 0.596700
-5.219200 0.602500
-5.196800 0.608200
-5.174400 0.614100
-5.152000 0.620000
-5.129600 0.626000
-5.107200 0.632200
-5.084800 0.638400
-5.062400 0.644600
-5.040000 0.651000
-5.017600 0.657500
-4.995200 0.664100
-4.972800 0.670800
-4.950400 0.678400
-4.928000 0.684200
-4.905600 0.690000
-4.883200 0.696000
-4.860800 0.704000
-4.838400 0.713800
-4.816000 0.723300
-4.793600 0.732600
-4.771200 0.741600
-4.748800 0.750200
-4.726400 0.762700
-4.704000 0.776000
-4.681600 0.787500
-4.659200 0.797300
-4.636800 0.805600
-4.614400 0.812400
-4.592000 0.812500
-4.569600 0.815900
-4.547200 0.823100
-4.524800 0.835100
-4.502400 0.845000
-4.480000 0.854400
-4.457600 0.863200
-4.435200 0.871700
-4.412800 0.879700
-4.390400 0.887300
-4.367900 0.894600
-4.345500 0.935400
-4.323100 0.941800
-4.300700 0.938600
-4.278300 0.941700
-4.255900 0.933100
-4.233500 0.928200
-4.211100 0.926200
-4.188700 0.934700
-4.166300 0.960900
-4.143900 1.003100
-4.121500 1.025300
-4.099100 0.998000
-4.076700 0.969300
-4.054300 0.944600
-4.031900 0.924100
-4.009500 0.904600
-3.987100 0.881200
-3.964700 0.854500
-3.942300 0.836500
-3.919900 0.825000
-3.897500 0.822900
-3.875100 0.820700
-3.852700 0.821800
-3.830300 0.823400
-3.807900 0.826300
-3.785500 0.834700
-3.763100 0.845200
-3.740700 0.865800
-3.718300 0.898700
-3.695900 0.922100
-3.673500 0.933200
-3.651100 0.936300
-3.628700 0.932800
-3.606300 0.943000
-3.583900 0.957800
-3.561500 0.976300
-3.539100 0.999700
-3.516700 1.027700
-3.494300 1.074000
-3.471900 1.122800
-3.449500 1.197800
-3.427100 1.413400
-3.404700 1.424700
-3.382300 1.434400
-3.359900 1.475300
-3.337500 1.519700
-3.315100 1.477000
-3.292700 1.412000
-3.270300 1.384100
-3.247900 1.355000
-3.225500 1.332500
-3.203100 1.304000
-3.180700 1.269500
-3.158300 1.222300
-3.135900 1.098000
-3.113500 1.073200
-3.091100 1.100800
-3.068700 1.121700
-3.046300 1.132800
-3.023900 1.133600
-3.001500 1.132200
-2.979100 1.124800
-2.956700 1.112700
-2.934300 1.098200
-2.911900 1.097300
-2.889500 1.111400
-2.867100 1.141800
-2.844700 1.169900
-2.822300 1.195300
-2.799900 1.218600
-2.777500 1.235500
-2.755100 1.246500
-2.732700 1.239100
-2.710300 1.229700
-2.687900 1.226200
-2.665500 1.230600
-2.643100 1.239800
-2.620700 1.249400
-2.598300 1.259300
-2.575900 1.269600
-2.553500 1.280300
-2.531100 1.291200
-2.508700 1.324800
-2.486300 1.426900
-2.463900 1.527800
-2.441500 1.500700
-2.419100 1.470900
-2.396700 1.662800
-2.374300 1.732700
-2.351900 1.535100
-2.329500 1.581000
-2.307100 1.621200
-2.284700 1.655700
-2.262300 1.803500
-2.239900 1.912000
-2.217500 2.003900
-2.195000 2.021300
-2.172600 2.027400
-2.150200 2.029500
-2.127800 1.952600
-2.105400 1.957200
-2.083000 1.963600
-2.060600 1.970700
-2.038200 1.986500
-2.015800 1.982000
-1.993400 1.955500
-1.971000 1.897500
-1.948600 1.921300
-1.926200 1.926600
-1.903800 1.873200
-1.881400 1.852000
-1.859000 1.887400
-1.836600 1.821300
-1.814200 1.814900
-1.791800 1.813800
-1.769400 1.810700
-1.747000 1.809300
-1.724600 1.786900
-1.702200 1.790100
-1.679800 1.797200
-1.657400 1.933200
-1.635000 1.948100
-1.612600 1.908200
-1.590200 1.906200
-1.567800 1.914000
-1.545400 1.920300
-1.523000 1.925300
-1.500600 1.904400
-1.478200 1.899900
-1.455800 1.889000
-1.433400 1.886600
-1.411000 1.996500
-1.388600 2.097600
-1.366200 2.081700
-1.343800 2.053700
-1.321400 2.173100
-1.299000 2.230200
-1.276600 2.025700
-1.254200 1.642000
-1.231800 1.604800
-1.209400 1.558600
-1.187000 1.533300
-1.164600 1.608600
-1.142200 1.642100
-1.119800 1.647100
-1.097400 1.621600
-1.075000 1.679100
-1.052600 1.814700
-1.030200 2.011800
-1.007800 2.246500
-0.985400 2.603900
-0.963000 2.881800
-0.940600 3.788500
-0.918200 4.465500
-0.895800 4.012600
-0.873400 5.046100
-0.851000 7.988200
-0.828600 8.003200
-0.806200 7.557200
-0.783800 7.302600
-0.761400 8.066200
-0.739000 8.236200
-0.716600 6.434100
-0.694200 4.999200
-0.671800 4.187400
-0.649400 3.883700
-0.627000 4.440200
-0.604600 6.560300
-0.582200 10.579200
-0.559800 10.639700
-0.537400 11.041600
-0.515000 10.654800
-0.492600 10.784100
-0.470200 11.907600
-0.447800 14.219300
-0.425400 16.529900
-0.403000 21.452900
-0.380600 15.910100
-0.358200 10.027700
-0.335800 6.022700
-0.313400 4.678300
-0.291000 3.357400
-0.268600 2.502500
-0.246200 2.648200
-0.223800 2.481400
-0.201400 1.832300
-0.179000 1.628800
-0.156600 1.546800
-0.134200 1.528500
-0.111800 1.618200
-0.089400 1.713300
-0.067000 1.752900
-0.044600 1.924000
-0.022100 2.209500
0.000300 2.664600
0.022700 4.120700
0.045100 5.570900
0.067500 5.615600
0.089900 5.208400
0.112300 4.277500
0.134700 3.401200
0.157100 3.076300
0.179500 2.990300
0.201900 2.791600
0.224300 2.633000
0.246700 2.549800
0.269100 2.499700
0.291500 2.468900
0.313900 2.432700
0.336300 2.412900
0.358700 2.354700
0.381100 2.295000
0.403500 2.232300
0.425900 2.247600
0.448300 2.210400
0.470700 2.202200
0.493100 2.118200
0.515500 2.153400
0.537900 2.173100
0.560300 2.207800
0.582700 2.251600
0.605100 2.280200
0.627500 2.285000
0.649900 2.230300
0.672300 2.191900
0.694700 2.162500
0.717100 2.111400
0.739500 2.055000
0.761900 2.004400
0.784300 1.956100
0.806700 2.014300
0.829100 2.116400
0.851500 2.195800
0.873900 2.235300
0.896300 2.280300
0.918700 2.285500
0.941100 2.261200
0.963500 2.205900
0.985900 2.158500
1.008300 2.125700
1.030700 2.131400
1.053100 2.142800
1.075500 2.158300
1.097900 2.047400
1.120300 2.024000
1.142700 1.998300
1.165100 1.958200
1.187500 1.928300
1.209900 1.903200
1.232300 1.887000
1.254700 1.873200
1.277100 1.862800
1.299500 1.854900
1.321900 1.843900
1.344300 1.830500
1.366700 1.818800
1.389100 1.802500
1.411500 1.776000
1.433900 1.763300
1.456300 1.751300
1.478700 1.750800
1.501100 1.741300
1.523500 1.784300
1.545900 1.758400
1.568300 1.711800
1.590700 1.668800
1.613100 1.622000
1.635500 1.570600
1.657900 1.516500
1.680300 1.448300
1.702700 1.413900
1.725100 1.398200
1.747500 1.395300
1.769900 1.389500
1.792300 1.378400
1.814700 1.356700
1.837100 1.333100
1.859500 1.309200
1.881900 1.291200
1.904300 1.277300
1.926700 1.279600
1.949100 1.224000
1.971500 1.211200
1.993900 1.214600
2.016300 1.247600
2.038700 1.323700
2.061100 1.351600
2.083500 1.488500
2.105900 1.668600
2.128300 1.546000
2.150800 1.483200
2.173200 1.476000
2.195600 1.509200
2.218000 1.478200
2.240400 1.550200
2.262800 1.424500
2.285200 1.417900
2.307600 1.422800
2.330000 1.431400
2.352400 1.443700
2.374800 1.468600
2.397200 1.482300
2.419600 1.482300
2.442000 1.482200
2.464400 1.481500
2.486800 1.526300
2.509200 1.505800
2.531600 1.486400
2.554000 1.469000
2.576400 1.455500
2.598800 1.452000
2.621200 1.451400
2.643600 1.465300
2.666000 1.485000
2.688400 1.511100
2.710800 1.592000
2.733200 1.843000
2.755600 2.163700
2.778000 2.436000
2.800400 2.076100
2.822800 1.965300
2.845200 1.927500
2.867600 2.083300
2.890000 1.922800
2.912400 1.833700
2.934800 1.835100
2.957200 1.626300
2.979600 1.545900
3.002000 1.475600
3.024400 1.406800
3.046800 1.355900
3.069200 1.317100
3.091600 1.286600
3.114000 1.286000
3.136400 1.270700
3.158800 1.254300
3.181200 1.230400
3.203600 1.200300
3.226000 1.169800
3.248400 1.138200
3.270800 1.155200
3.293200 1.334700
3.315600 1.431000
3.338000 1.389400
3.360400 1.357800
3.382800 1.386600
3.405200 1.413400
3.427600 1.421800
3.450000 1.412800
3.472400 1.410300
3.494800 1.425600
3.517200 1.417700
3.539600 1.411300
3.562000 1.402000
3.584400 1.406100
3.606800 1.419600
3.629200 1.440500
3.651600 1.423100
3.674000 1.440900
3.696400 1.458600
3.718800 1.476200
3.741200 1.493800
3.763600 1.511300
3.786000 1.527000
3.808400 1.541000
3.830800 1.553900
3.853200 1.566400
3.875600 1.585200
3.898000 1.608100
3.920400 1.646100
3.942800 1.686000
3.965200 1.718300
3.987600 1.747000
4.010000 1.769000
4.032400 1.780400
4.054800 1.784300
4.077200 1.788100
4.099600 1.789700
4.122000 1.789000
4.144400 1.785000
4.166800 1.778200
4.189200 1.796500
4.211600 1.792700
4.234000 1.752100
4.256400 1.736900
4.278800 1.735500
4.301200 1.771900
4.323700 1.803900
4.346100 1.835900
4.368500 1.861200
4.390900 1.885500
4.413300 1.874100
4.435700 1.845300
4.458100 1.832200
4.480500 1.821500
4.502900 1.813900
4.525300 1.816300
4.547700 1.810400
4.570100 1.795200
4.592500 1.808100
4.614900 1.804200
4.637300 1.790600
4.659700 1.779300
4.682100 1.770200
4.704500 1.757600
4.726900 1.738900
4.749300 1.712500
4.771700 1.655000
4.794100 1.620600
4.816500 1.590100
4.838900 1.563100
4.861300 1.537300
4.883700 1.515000
4.906100 1.498300
4.928500 1.483300
4.950900 1.469600
4.973300 1.508700
4.995700 1.484200
5.018100 1.469300
5.040500 1.459200
5.062900 1.454800
5.085300 1.447000
5.107700 1.518000
5.130100 1.492700
5.152500 1.469700
5.174900 1.448400
5.197300 1.430800
5.219700 1.433900
5.242100 1.420100
5.264500 1.408000
5.286900 1.397100
5.309300 1.386500
5.331700 1.376900
5.354100 1.370900
5.376500 1.370000
5.398900 1.370800
5.421300 1.394600
5.443700 1.389500
5.466100 1.358200
5.488500 1.325800
5.510900 1.257100
5.533300 1.190600
5.555700 1.187300
5.578100 1.188400
5.600500 1.195700
5.622900 1.217900
5.645300 1.249500
5.667700 1.233300
5.690100 1.243300
5.712500 1.257500
5.734900 1.275100
5.757300 1.288200
5.779700 1.306100
5.802100 1.326400
5.824500 1.349300
5.846900 1.372400
5.869300 1.394300
5.891700 1.415200
5.914100 1.438900
5.936500 1.468000
5.958900 1.497800
5.981300 1.528300
6.003700 1.557200
6.026100 1.587400
6.048500 1.611500
6.070900 1.633400
6.093300 1.653500
6.115700 1.682600
6.138100 1.756600
6.160500 1.935300
6.182900 2.009500
6.205300 2.032800
6.227700 2.040900
6.250100 2.020900
6.272500 1.997200
6.294900 1.980700
6.317300 1.961800
6.339700 1.919600
6.362100 1.922300
6.384500 1.992800
6.406900 1.974300
6.429300 1.928600
6.451700 1.879200
6.474100 1.848900
6.496500 1.811700
6.519000 1.767500
6.541400 1.719900
6.563800 1.669200
6.586200 1.622300
6.608600 1.594000
6.631000 1.568700
6.653400 1.543400
6.675800 1.528400
6.698200 1.552700
6.720600 1.569900
6.743000 1.577500
6.765400 1.573800
6.787800 1.535300
6.810200 1.503200
6.832600 1.475600
6.855000 1.489800
6.877400 1.473400
6.899800 1.457900
6.922200 1.442000
6.944600 1.430800
6.967000 1.424300
6.989400 1.414500
7.011800 1.439400
7.034200 1.497100
7.056600 1.545500
7.079000 1.571400
7.101400 1.617600
7.123800 1.623500
7.146200 1.707700
7.168600 1.743000
7.191000 1.738300
7.213400 1.652400
7.235800 1.657000
7.258200 1.665500
7.280600 1.716700
7.303000 1.744800
7.325400 1.755600
7.347800 1.947600
7.370200 1.804100
7.392600 1.773700
7.415000 1.826900
7.437400 1.923900
7.459800 2.058300
7.482200 2.039200
7.504600 2.027200
7.527000 2.012800
7.549400 1.997100
7.571800 1.980600
7.594200 1.960900
7.616600 1.939000
7.639000 1.912900
7.661400 1.891200
7.683800 1.878000
7.706200 1.868100
7.728600 1.860100
7.751000 1.858600
7.773400 1.875200
7.795800 2.021400
7.818200 1.927500
7.840600 1.883200
7.863000 1.852300
7.885400 1.825300
7.907800 1.804000
7.930200 1.785900
7.952600 1.748400
7.975000 1.710700
7.997400 1.698900
8.019800 1.697100
8.042200 1.661100
8.064600 1.620600
8.087000 1.592100
8.109400 1.563900
8.131800 1.553800
8.154200 1.550400
8.176600 1.557000
8.199000 1.587000
8.221400 1.647500
8.243800 1.677700
8.266200 1.707600
8.288600 1.737300
8.311000 1.766000
8.333400 1.792100
8.355800 1.816600
8.378200 1.842300
8.400600 1.872400
8.423000 1.826100
8.445400 1.831000
8.467800 1.841400
8.490200 1.855700
8.512600 1.873100
8.535000 1.951600
8.557400 2.015000
8.579800 2.082200
8.602200 2.157600
8.624600 2.400600
8.647000 2.308700
8.669400 2.277400
8.691900 2.247900
8.714300 2.179100
8.736700 2.132700
8.759100 2.100200
8.781500 2.073100
8.803900 2.084700
8.826300 2.110200
8.848700 2.130500
8.871100 2.097100
8.893500 2.124000
8.915900 2.051600
8.938300 1.954800
8.960700 1.898200
8.983100 1.890100
9.005500 1.928500
9.027900 1.972100
9.050300 2.003400
9.072700 1.993300
9.095100 2.010900
9.117500 2.055900
9.139900 2.114000
9.162300 2.195100
9.184700 2.278100
9.207100 2.335200
9.229500 2.365800
9.251900 2.396100
9.274300 2.428800
9.296700 2.453700
9.319100 2.475900
9.341500 2.496600
9.363900 2.505500
9.386300 2.457500
9.408700 2.428700
9.431100 2.436300
9.453500 2.399500
9.475900 2.318000
9.498300 2.282400
9.520700 2.257100
9.543100 2.226000
9.565500 2.182400
9.587900 2.150800
9.610300 2.135700
9.632700 2.134800
9.655100 2.138300
9.677500 2.151900
9.699900 2.114300
9.722300 2.102900
9.744700 2.059200
9.767100 2.071200
9.789500 2.067300
9.811900 2.067900
9.834300 2.103800
9.856700 2.113500
9.879100 2.111300
9.901500 2.123100
9.923900 2.127800
9.946300 2.116300
9.968700 2.086600
9.991100 2.041900
10.013500 2.011600
10.035900 2.028400
10.058300 2.049500
10.080700 2.109400
10.103100 2.170800
10.125500 2.246500
10.147900 2.321600
10.170300 2.422100
10.192700 2.477100
10.215100 2.471600
10.237500 2.501300
10.259900 2.535800
10.282300 2.443300
10.304700 2.252400
10.327100 2.198600
10.349500 2.044300
10.371900 1.934700
10.394300 1.902600
10.416700 1.940200
10.439100 1.995500
10.461500 2.035600
10.483900 2.006200
10.506300 2.011700
10.528700 2.012100
10.551100 2.068400
10.573500 1.956500
10.595900 1.991000
10.618300 2.020000
10.640700 2.034200
10.663100 2.043000
10.685500 2.053800
10.707900 2.067600
10.730300 2.080000
10.752700 2.112900
10.775100 2.171000
10.797500 2.196800
10.819900 2.185200
10.842300 2.173400
10.864800 2.209400
10.887200 2.211100
10.909600 2.174900
10.932000 2.153400
10.954400 2.077000
10.976800 1.972800
10.999200 1.949300
11.021600 1.945700
11.044000 1.963700
11.066400 2.017200
11.088800 2.060100
11.111200 2.105600
11.133600 2.152400
11.156000 2.213200
11.178400 2.300300
11.200800 2.379400
11.223200 2.348000
11.245600 2.277500
11.268000 2.214700
11.290400 2.180200
11.312800 2.162000
11.335200 2.146400
11.357600 2.132800
11.380000 2.124800
11.402400 2.125400
11.424800 2.132100
11.447200 2.132800
11.469600 2.125100
11.492000 2.113800
11.514400 2.099500
11.536800 2.112900
11.559200 2.122600
11.581600 2.122900
11.604000 2.118200
11.626400 2.097000
11.648800 2.058000
11.671200 2.025900
11.693600 1.984100
11.716000 1.949600
11.738400 1.921300
11.760800 1.887100
11.783200 1.827200
11.805600 1.791100
11.828000 1.760100
11.850400 1.794400
11.872800 1.723800
11.895200 1.695500
11.917600 1.697400
11.940000 1.610200
11.962400 1.579200
11.984800 1.569800
12.007200 1.461900
12.029600 1.460400
12.052000 1.466000
12.074400 1.471200
12.096800 1.481700
12.119200 1.478700
12.141600 1.478900
12.164000 1.485200
12.186400 1.516600
12.208800 1.533400
12.231200 1.530200
12.253600 1.537900
12.276000 1.551500
12.298400 1.565500
12.320800 1.594900
12.343200 1.674200
12.365600 1.704400
12.388000 1.733100
12.410400 1.735200
12.432800 1.730900
12.455200 1.718300
12.477600 1.711200
12.500000 1.711600
12.522400 1.704400
12.544800 1.714100
12.567200 1.747700
12.589600 1.774100
12.612000 1.793500
12.634400 1.827100
12.656800 1.864300
12.679200 1.870700
12.701600 1.866800
12.724000 1.842100
12.746400 1.800200
12.768800 1.812900
12.791200 1.828700
12.813600 1.842800
12.836000 1.849300
12.858400 1.861700
12.880800 1.888500
12.903200 1.894100
12.925600 1.900600
12.948000 2.140300
12.970400 2.018700
12.992800 1.959000
13.015200 1.901700
13.037700 1.898400
13.060100 1.895700
13.082500 1.892600
13.104900 1.877500
13.127300 1.864000
13.149700 1.843300
13.172100 1.817100
13.194500 1.795600
13.216900 1.777300
13.239300 1.756900
13.261700 1.728100
13.284100 1.695700
13.306500 1.665600
13.328900 1.639800
13.351300 1.641800
13.373700 1.614000
13.396100 1.590900
13.418500 1.585300
13.440900 1.541500
13.463300 1.531300
13.485700 1.518100
13.508100 1.504800
13.530500 1.491900
13.552900 1.479000
13.575300 1.463900
13.597700 1.452500
13.620100 1.442800
13.642500 1.421700
13.664900 1.418500
13.687300 1.416700
13.709700 1.418900
13.732100 1.422700
13.754500 1.568600
13.776900 1.448700
13.799300 1.463600
13.821700 1.480800
13.844100 1.504200
13.866500 1.530500
13.888900 1.565500
13.911300 1.663400
13.933700 1.695000
13.956100 1.650500
13.978500 1.656300
14.000900 1.652700
14.023300 1.678500
14.045700 1.736300
14.068100 1.700500
14.090500 1.687400
14.112900 1.726000
14.135300 1.725400
14.157700 1.738400
14.180100 1.748300
14.202500 1.753700
14.224900 1.764700
14.247300 1.823500
14.269700 1.877600
14.292100 1.861800
14.314500 1.726600
14.336900 1.661400
14.359300 1.612100
14.381700 1.571000
14.404100 1.540100
14.426500 1.518500
14.448900 1.509400
14.471300 1.508700
14.493700 1.506900
14.516100 1.510300
14.538500 1.518500
14.560900 1.532200
14.583300 1.547000
14.605700 1.560700
14.628100 1.574400
14.650500 1.541500
14.672900 1.586200
14.695300 1.578100
14.717700 1.598500
14.740100 1.613400
14.762500 1.634000
14.784900 1.643500
14.807300 1.653300
14.829700 1.668500
14.852100 1.694700
14.874500 1.734500
14.896900 1.750700
14.919300 1.801200
14.941700 1.858000
14.964100 1.912400
14.986500 1.936100
15.008900 1.911600
15.031300 1.920100
15.053700 1.921800
15.076100 1.916400
15.098500 1.908800
15.120900 1.904700
15.143300 1.900900
15.165700 1.898900
15.188100 1.900100
15.210600 1.900000
15.233000 1.897500
15.255400 1.891700
15.277800 1.880200
15.300200 1.944800
15.322600 1.863900
15.345000 1.873400
15.367400 1.867400
15.389800 1.884900
15.412200 1.944000
15.434600 2.023300
15.457000 2.114500
15.479400 2.232700
15.501800 2.284400
15.524200 2.344700
15.546600 2.330800
15.569000 2.312100
15.591400 2.278600
15.613800 2.288200
15.636200 2.321400
15.658600 2.360800
15.681000 2.339100
15.703400 2.367200
15.725800 2.407200
15.748200 2.441100
15.770600 2.474400
15.793000 2.542500
15.815400 2.592700
15.837800 2.617900
15.860200 2.717600
15.882600 2.900300
15.905000 3.059900
15.927400 3.156100
15.949800 3.213200
15.972200 3.224200
15.994600 3.211300
16.017000 3.234100
16.039400 3.243400
16.061800 3.063400
16.084200 2.867300
16.106600 2.544400
16.129000 2.302800
16.151400 2.124200
16.173800 1.964000
16.196200 1.881700
16.218600 1.847000
16.241000 1.818300
16.263400 1.805500
16.285800 1.819000
16.308200 1.830000
16.330600 1.821300
16.353000 1.807800
16.375400 1.792800
16.397800 1.776600
16.420200 1.763200
16.442600 1.770600
16.465000 1.798000
16.487400 1.828300
16.509800 1.861500
16.532200 1.924100
16.554600 1.947800
16.577000 2.003500
16.599400 2.061700
16.621800 2.121900
16.644200 2.204400
16.666600 2.314900
16.689000 2.426300
16.711400 2.490500
16.733800 2.611800
16.756200 2.701400
16.778600 2.761400
16.801000 2.773000
16.823400 2.775000
16.845800 2.804100
16.868200 2.721600
16.890600 2.603900
16.913000 2.672700
16.935400 2.718100
16.957800 2.653800
16.980200 2.604400
17.002600 2.531100
17.025000 2.468400
17.047400 2.424800
17.069800 2.387500
17.092200 2.354800
17.114600 2.317900
17.137000 2.295500
17.159400 2.277500
17.181800 2.264800
17.204200 2.281800
17.226600 2.344100
17.249000 2.415100
17.271400 2.569700
17.293800 2.604500
17.316200 2.547100
17.338600 2.531400
17.361000 2.518000
17.383400 2.497000
17.405900 2.472900
17.428300 2.449900
17.450700 2.446000
17.473100 2.476900
17.495500 2.381900
17.517900 2.384900
17.540300 2.405200
17.562700 2.450400
17.585100 2.517700
17.607500 2.453500
17.629900 2.494000
17.652300 2.496400
17.674700 2.614000
17.697100 2.663600
17.719500 2.667300
17.741900 2.661100
17.764300 2.645100
17.786700 2.621600
17.809100 2.617900
17.831500 2.621500
17.853900 2.639800
17.876300 2.658400
17.898700 2.664600
17.921100 2.751900
17.943500 2.682600
17.965900 2.650500
17.988300 2.618400
18.010700 2.606600
18.033100 2.583500
18.055500 2.559200
18.077900 2.540700
18.100300 2.507600
18.122700 2.473600
18.145100 2.431900
18.167500 2.403500
18.189900 2.385000
18.212300 2.368200
18.234700 2.358200
18.257100 2.349800
18.279500 2.353100
18.301900 2.418000
18.324300 2.353600
18.346700 2.329800
18.369100 2.302300
18.391500 2.280000
18.413900 2.253000
18.436300 2.237100
18.458700 2.223200
18.481100 2.251000
18.503500 2.273200
18.525900 2.363700
18.548300 2.448400
18.570700 2.490100
18.593100 2.478800
18.615500 2.503200
18.637900 2.538800
18.660300 2.584200
18.682700 2.617100
18.705100 2.636000
18.727500 2.653200
18.749900 2.654900
18.772300 2.641300
18.794700 2.624000
18.817100 2.609400
18.839500 2.595600
18.861900 2.598500
18.884300 2.576800
18.906700 2.551500
18.929100 2.531800
18.951500 2.521400
18.973900 2.539000
18.996300 2.554800
19.018700 2.561300
19.041100 2.579300
19.063500 2.587700
19.085900 2.597200
19.108300 2.621200
19.130700 2.636600
19.153100 2.660700
19.175500 2.664100
19.197900 2.679700
19.220300 2.723000
19.242700 2.730000
19.265100 2.696200
19.287500 2.630500
19.309900 2.603200
19.332300 2.565600
19.354700 2.504300
19.377100 2.408000
19.399500 2.357200
19.421900 2.174600
19.444300 2.023800
19.466700 1.903800
19.489100 1.795200
19.511500 1.703200
19.533900 1.673100
19.556300 1.455900
19.578800 1.371700
19.601200 1.414600
19.623600 1.479600
19.646000 1.399500
19.668400 1.382200
19.690800 1.374300
19.713200 1.401600
19.735600 1.474000
19.758000 1.606400
19.780400 1.728200
19.802800 1.856600
19.825200 1.974800
19.847600 2.068100
19.870000 2.154800
19.892400 2.245800
19.914800 2.347400
19.937200 2.463700
19.959600 2.679600
19.982000 2.538100
20.004400 2.490600
20.026800 2.445800
20.049200 2.417400
20.071600 2.346800
20.094000 2.277700
20.116400 2.213300
20.138800 2.155400
20.161200 2.104600
20.183600 2.060200
20.206000 2.011700
20.228400 1.966200
20.250800 1.933600
20.273200 1.907000
20.295600 1.903700
20.318000 1.912300
20.340400 1.934700
20.362800 1.971400
20.385200 2.009000
20.407600 2.047300
20.430000 2.119900
20.452400 2.162200
20.474800 2.238500
20.497200 2.304000
20.519600 2.383700
20.542000 2.403900
20.564400 2.394000
20.586800 2.404700
20.609200 2.334800
20.631600 2.340500
20.654000 2.301200
20.676400 2.260500
20.698800 2.230600
20.721200 2.221900
20.743600 2.259500
20.766000 2.312100
20.788400 2.361300
20.810800 2.340600
20.833200 2.322600
20.855600 2.280100
20.878000 2.212800
20.900400 2.151200
20.922800 2.148000
20.945200 2.093200
20.967600 2.159500
20.990000 2.099200
21.012400 2.080600
21.034800 2.153500
21.057200 2.166400
21.079600 2.178300
21.102000 2.184300
21.124400 2.197800
21.146800 2.201300
21.169200 2.204200
21.191600 2.207700
21.214000 2.215600
21.236400 2.228300
21.258800 2.237800
21.281200 2.256700
21.303600 2.273000
21.326000 2.274900
21.348400 2.285100
21.370800 2.308200
21.393200 2.325600
21.415600 2.322100
21.438000 2.334300
21.460400 2.315200
21.482800 2.275800
21.505200 2.274700
21.527600 2.296700
21.550000 2.314100
21.572400 2.330800
21.594800 2.345200
21.617200 2.368100
21.639600 2.378300
21.662000 2.276300
21.684400 2.227000
21.706800 2.194700
21.729200 2.164000
21.751700 2.144000
21.774100 2.106100
21.796500 2.005900
21.818900 1.965300
21.841300 1.956600
21.863700 1.950100
21.886100 1.947300
21.908500 1.948500
21.930900 1.947100
21.953300 1.950000
21.975700 1.983100
21.998100 2.011500
22.020500 2.038600
22.042900 2.062200
22.065300 2.036600
22.087700 1.983000
22.110100 1.991900
22.132500 2.030200
22.154900 2.092000
22.177300 2.157100
22.199700 2.232600
22.222100 2.310600
22.244500 2.352000
22.266900 2.365000
22.289300 2.363400
22.311700 2.364100
22.334100 2.360600
22.356500 2.375600
22.378900 2.385600
22.401300 2.503400
22.423700 2.549200
22.446100 2.613900
22.468500 2.641000
22.490900 2.639500
22.513300 2.808200
22.535700 2.643600
22.558100 2.522500
22.580500 2.377600
22.602900 2.261100
22.625300 2.119800
22.647700 2.028200
22.670100 1.981000
22.692500 1.967600
22.714900 2.058600
22.737300 2.231100
22.759700 2.395900
22.782100 2.495800
22.804500 2.557100
22.826900 2.645700
22.849300 2.615600
22.871700 2.793900
22.894100 2.913000
22.916500 2.912900
22.938900 2.742700
22.961300 2.697600
22.983700 2.689600
23.006100 2.643500
23.028500 2.603800
23.050900 2.571000
23.073300 2.547600
23.095700 2.543600
23.118100 2.571500
23.140500 2.558000
23.162900 2.510000
23.185300 2.491400
23.207700 2.467300
23.230100 2.454600
23.252500 2.462800
23.274900 2.487700
23.297300 2.527500
23.319700 2.577700
23.342100 2.631600
23.364500 2.658600
23.386900 2.673100
23.409300 2.684500
23.431700 2.680300
23.454100 2.641200
23.476500 2.624500
23.498900 2.624700
23.521300 2.666800
23.543700 2.746300
23.566100 2.835300
23.588500 2.876600
23.610900 2.914700
23.633300 3.006900
23.655700 3.085000
23.678100 3.189400
23.700500 3.301000
23.722900 3.353700
23.745300 3.418400
23.767700 3.517800
23.790100 3.568200
23.812500 3.442400
23.834900 3.377300
23.857300 3.290200
23.879700 3.200300
23.902100 3.095300
23.924600 3.045900
23.947000 3.010000
23.969400 2.989500
23.991800 2.947200
24.014200 2.841300
24.036600 2.805700
24.059000 2.727300
24.081400 2.658800
24.103800 2.704000
24.126200 2.770200
24.148600 2.863000
24.171000 3.040900
24.193400 3.077500
24.215800 3.042600
24.238200 3.050800
24.260600 3.050900
24.283000 3.048400
24.305400 3.054300
24.327800 3.101300
24.350200 3.089500
24.372600 3.071400
24.395000 3.026900
24.417400 2.994500
24.439800 2.879800
24.462200 2.780100
24.484600 2.683400
24.507000 2.604500
24.529400 2.561300
24.551800 2.552000
24.574200 2.515700
24.596600 2.463700
24.619000 2.408400
24.641400 2.403700
24.663800 2.413900
24.686200 2.426600
24.708600 2.439200
24.731000 2.455600
24.753400 2.684100
24.775800 2.471300
24.798200 2.373200
24.820600 2.289900
24.843000 2.234300
24.865400 2.190800
24.887800 2.148200
24.910200 2.130600
24.932600 2.296000
24.955000 2.393500
24.977400 2.443000
24.999800 2.378500
25.022200 2.353600
25.044600 2.337800
25.067000 2.345300
25.089400 2.377800
25.111800 2.420600
25.134200 2.460600
25.156600 2.486900
25.179000 2.487800
25.201400 2.467700
25.223800 2.415600
25.246200 2.370300
25.268600 2.327300
25.291000 2.370800
25.313400 2.247500
25.335800 2.052900
25.358200 1.913900
25.380600 1.839200
25.403000 1.786300
25.425400 1.753900
25.447800 1.725300
25.470200 1.711800
25.492600 1.650600
25.515000 1.616500
25.537400 1.591800
25.559800 1.571900
25.582200 1.553200
25.604600 1.537300
25.627000 1.527000
25.649400 1.514500
25.671800 1.499700
25.694200 1.486100
25.716600 1.471500
25.739000 1.451300
25.761400 1.425400
25.783800 1.394700
25.806200 1.358500
25.828600 1.319100
25.851000 1.279000
25.873400 1.243000
25.895800 1.209700
25.918200 1.148000
25.940600 1.099800
25.963000 1.031100
25.985400 0.961400
26.007800 0.927900
26.030200 0.897600
26.052600 0.863000
26.075000 0.827800
26.097500 0.800700
26.119900 0.792200
26.142300 0.789500
26.164700 0.790400
26.187100 0.790100
26.209500 0.784000
26.231900 0.755700
26.254300 0.703300
26.276700 0.653200
26.299100 0.623000
26.321500 0.583100
26.343900 0.541600
26.366300 0.503000
26.388700 0.467700
26.411100 0.436100
26.433500 0.407900
26.455900 0.383300
26.478300 0.362200
26.500700 0.344600
26.523100 0.330600
26.545500 0.319800
26.567900 0.310500
26.590300 0.301800
26.612700 0.294900
26.635100 0.290300
26.657500 0.284300
26.679900 0.278200
26.702300 0.273100
26.724700 0.268300
26.747100 0.263600
26.769500 0.258900
26.791900 0.254100
26.814300 0.248700
26.836700 0.242600
26.859100 0.236300
26.881500 0.230100
26.903900 0.224100
26.926300 0.218200
26.948700 0.212500
26.971100 0.206900
26.993500 0.201700
27.015900 0.197700
27.038300 0.193800
27.060700 0.190200
27.083100 0.186900
27.105500 0.183800
27.127900 0.180600
27.150300 0.177600
27.172700 0.175000
27.195100 0.172700
27.217500 0.171100
27.239900 0.169300
27.262300 0.166700
27.284700 0.164100
27.307100 0.161500
27.329500 0.158700
27.351900 0.155900
27.374300 0.153200
27.396700 0.150700
27.419100 0.148300
27.441500 0.146000
27.463900 0.143800
27.486300 0.141700
27.508700 0.139700
27.531100 0.137400
27.553500 0.134800
27.575900 0.132300
27.598300 0.129800
27.620700 0.127300
27.643100 0.124800
27.665500 0.122400
27.687900 0.119900
27.710300 0.117900
27.732700 0.116100
27.755100 0.114400
27.777500 0.112800
27.799900 0.111100
27.822300 0.109500
27.844700 0.108000
27.867100 0.106500
27.889500 0.105000
27.911900 0.105600
27.934300 0.104100
27.956700 0.102300
27.979100 0.100600
28.001500 0.098900
28.023900 0.097200
28.046300 0.095500
28.068700 0.094200
28.091100 0.092900
28.113500 0.091600
28.135900 0.090400
28.158300 0.089200
28.180700 0.087900
28.203100 0.085800
28.225500 0.083500
28.247900 0.081200
28.270300 0.078900
28.292800 0.076600
28.315200 0.074100
28.337600 0.071700
28.360000 0.069200
28.382400 0.066800
28.404800 0.064300
28.427200 0.061800
28.449600 0.059300
28.472000 0.056800
28.494400 0.054300
28.516800 0.051800
28.539200 0.049300
28.561600 0.047000
28.584000 0.045100
28.606400 0.043800
28.628800 0.042500
28.651200 0.041300
28.673600 0.040000
28.696000 0.038800
28.718400 0.037600
28.740800 0.036400
28.763200 0.035200
28.785600 0.034000
28.808000 0.032900
28.830400 0.031700
28.852800 0.030600
28.875200 0.029500
28.897600 0.028400
28.920000 0.027300
28.942400 0.026200
28.964800 0.025100
28.987200 0.024100
29.009600 0.023100
29.032000 0.022200
29.054400 0.021400
29.076800 0.020600
29.099200 0.019800
29.121600 0.019000
29.144000 0.018200
29.166400 0.012000
29.188800 0.011600
29.211200 0.011200
29.233600 0.010800
29.256000 0.010400
29.278400 0.010000
29.300800 0.009600
29.323200 0.009200
29.345600 0.008900
29.368000 0.008500
29.390400 0.008100
29.412800 0.007800
29.435200 0.007500
29.457600 0.007100
29.480000 0.006800
29.502400 0.006500
29.524800 0.006200
29.547200 0.005900
29.569600 0.005800
29.592000 0.006600
29.614400 0.006900
29.636800 0.006900
29.659200 0.006400
29.681600 0.005500
29.704000 0.004100
29.726400 0.002400
29.748800 0.000200
29.771200 0.000000
29.793600 0.000000
29.816000 0.000000
29.838400 0.000000
29.860800 0.000000
29.883200 0.000000
29.905600 0.000000
29.928000 0.000000
29.950400 0.000000
29.972800 0.000000
29.995200 0.000000
30.017600 0.000000
30.040000 0.000000
30.062400 0.000000
30.084800 0.000000
30.107200 0.000000
30.129600 0.000000
30.152000 0.000000
30.174400 0.000000
30.196800 0.000000
30.219200 0.000000
30.241600 0.000000
30.264000 0.000000
30.286400 0.000000
30.308800 0.000000
30.331200 0.000000
30.353600 0.000000
30.376000 0.000000
30.398400 0.000000
30.420800 0.000000
30.443200 0.000000
30.465700 0.000000
30.488100 0.000000
30.510500 0.000000
30.532900 0.000000
30.555300 0.000000
30.577700 0.000000
30.600100 0.000000
30.622500 0.000000
30.644900 0.000000
30.667300 0.000000
30.689700 0.000000
30.712100 0.000000
30.734500 0.000000
30.756900 0.000000
30.779300 0.000000
30.801700 0.000000
30.824100 0.000000
30.846500 0.000000
30.868900 0.000000
30.891300 0.000000
30.913700 0.000000
30.936100 0.000000
30.958500 0.000000
30.980900 0.000000
31.003300 0.000000
31.025700 0.000000
31.048100 0.000000
31.070500 0.000000
31.092900 0.000000
31.115300 0.000000
31.137700 0.000000
31.160100 0.000000
31.182500 0.000000
31.204900 0.000000
31.227300 0.000000
31.249700 0.000000
31.272100 0.000000
31.294500 0.000000
31.316900 0.000000
31.339300 0.000000
31.361700 0.000000
31.384100 0.000000
31.406500 0.000000
31.428900 0.000000
31.451300 0.000000
31.473700 0.000000
31.496100 0.000000
31.518500 0.000000
31.540900 0.000000
31.563300 0.000000
31.585700 0.000000
31.608100 0.000000
31.630500 0.000000
31.652900 0.000000
31.675300 0.000000
31.697700 0.000000
31.720100 0.000000
31.742500 0.000000
31.764900 0.000000
31.787300 0.000000
e
