set title 'mp-1063988 - Density of States'
set xlabel 'Energy (eV)'
set ylabel 'DOS (states/eV)'
set grid
set xrange [-10:10]
set yrange [0:1.584]
set xzeroaxis lt -1
set terminal png size 800,600
set output 'mp-1063988_dos_gnuplot.png'
plot '-' using 1:2 with lines title 'DOS'
-21.538000 0.000000
-21.402700 0.000000
-21.267300 0.000000
-21.132000 0.000000
-20.996700 0.000000
-20.861400 0.000000
-20.726000 0.000000
-20.590700 0.000000
-20.455400 0.000000
-20.320100 0.000000
-20.184700 0.000000
-20.049400 0.000000
-19.914100 0.000000
-19.778800 0.000000
-19.643400 0.000000
-19.508100 0.000000
-19.372800 0.000000
-19.237500 0.000000
-19.102100 0.000000
-18.966800 0.000000
-18.831500 0.000000
-18.696200 0.000000
-18.560800 0.000000
-18.425500 0.000000
-18.290200 0.000000
-18.154900 0.000000
-18.019500 0.000000
-17.884200 0.000000
-17.748900 0.000000
-17.613600 0.000000
-17.478200 0.000000
-17.342900 0.000000
-17.207600 0.000000
-17.072300 0.000000
-16.936900 0.000000
-16.801600 0.000000
-16.666300 0.000000
-16.531000 0.000000
-16.395600 0.000000
-16.260300 0.000000
-16.125000 0.000000
-15.989700 0.000000
-15.854300 0.000000
-15.719000 0.000000
-15.583700 0.000000
-15.448400 0.000000
-15.313000 0.000000
-15.177700 0.000000
-15.042400 0.000000
-14.907100 0.000000
-14.771700 0.000000
-14.636400 0.000000
-14.501100 0.000000
-14.365800 0.000000
-14.230400 0.000000
-14.095100 0.000000
-13.959800 0.000000
-13.824500 0.000000
-13.689100 0.000000
-13.553800 0.000000
-13.418500 0.000000
-13.283200 0.000000
-13.147800 0.000000
-13.012500 0.000000
-12.877200 0.000000
-12.741900 0.000000
-12.606500 0.000000
-12.471200 0.000000
-12.335900 0.000000
-12.200600 0.000000
-12.065200 0.000000
-11.929900 0.000000
-11.794600 0.000000
-11.659300 0.000000
-11.523900 0.000000
-11.388600 0.000000
-11.253300 0.000000
-11.118000 0.000000
-10.982600 0.000000
-10.847300 0.000000
-10.712000 0.000000
-10.576700 0.000000
-10.441300 0.000000
-10.306000 0.000000
-10.170700 0.000000
-10.035400 0.000000
-9.900000 0.000000
-9.764700 0.000000
-9.629400 0.000000
-9.494100 0.000000
-9.358700 0.000000
-9.223400 0.000900
-9.088100 0.048000
-8.952800 0.070300
-8.817400 0.091200
-8.682100 0.104600
-8.546800 0.117300
-8.411400 0.130800
-8.276100 0.141600
-8.140800 0.152900
-8.005500 0.164900
-7.870100 0.173300
-7.734800 0.183900
-7.599500 0.195800
-7.464200 0.204600
-7.328800 0.214000
-7.193500 0.224100
-7.058200 0.236300
-6.922900 0.245600
-6.787500 0.255500
-6.652200 0.267400
-6.516900 0.279600
-6.381600 0.291700
-6.246200 0.304700
-6.110900 0.318300
-5.975600 0.334500
-5.840300 0.351400
-5.704900 0.369600
-5.569600 0.392900
-5.434300 0.418600
-5.299000 0.450300
-5.163600 0.490500
-5.028300 0.551000
-4.893000 0.666000
-4.757700 0.745600
-4.622300 0.715800
-4.487000 0.723500
-4.351700 0.699700
-4.216400 0.688000
-4.081000 0.666500
-3.945700 0.451500
-3.810400 0.261700
-3.675100 0.215500
-3.539700 0.187800
-3.404400 0.166800
-3.269100 0.139800
-3.133800 0.122300
-2.998400 0.105800
-2.863100 0.094600
-2.727800 0.079800
-2.592500 0.069000
-2.457100 0.058300
-2.321800 0.049600
-2.186500 0.039500
-2.051200 0.030300
-1.915800 0.020800
-1.780500 0.008700
-1.645200 0.000000
-1.509900 0.000000
-1.374500 0.000000
-1.239200 0.000000
-1.103900 0.000000
-0.968600 0.000000
-0.833200 0.000000
-0.697900 0.000000
-0.562600 0.000000
-0.427300 0.000000
-0.291900 0.000000
-0.156600 0.000000
-0.021300 0.000000
0.114000 0.000000
0.249400 0.000000
0.384700 0.089100
0.520000 0.180700
0.655300 0.226600
0.790700 0.262500
0.926000 0.328000
1.061300 0.374100
1.196600 0.397700
1.332000 0.449900
1.467300 0.509900
1.602600 0.585500
1.737900 0.718100
1.873300 0.844200
2.008600 0.752000
2.143900 0.677500
2.279200 0.588200
2.414600 0.530000
2.549900 0.465700
2.685200 0.449200
2.820500 0.454300
2.955900 0.450500
3.091200 0.469800
3.226500 0.492300
3.361800 0.490700
3.497200 0.508200
3.632500 0.499000
3.767800 0.507200
3.903100 0.500100
4.038500 0.538500
4.173800 0.572300
4.309100 0.587100
4.444400 0.605400
4.579800 0.588000
4.715100 0.595100
4.850400 0.592600
4.985700 0.600700
5.121100 0.594300
5.256400 0.602700
5.391700 0.602700
5.527000 0.617600
5.662400 0.617900
5.797700 0.616400
5.933000 0.615700
6.068300 0.622200
6.203700 0.626700
6.339000 0.641000
6.474300 0.669200
6.609600 0.651100
6.745000 0.655500
6.880300 0.662300
7.015600 0.673600
7.150900 0.689900
7.286300 0.733500
7.421600 0.717200
7.556900 0.712200
7.692200 0.664900
7.827600 0.644000
7.962900 0.638600
8.098200 0.652400
8.233500 0.665300
8.368900 0.683000
8.504200 0.706100
8.639500 0.734900
8.774800 0.790700
8.910200 0.922500
9.045500 1.231100
9.180800 1.439900
9.316100 0.943300
9.451500 0.781200
9.586800 0.690800
9.722100 0.647400
9.857400 0.510500
9.992800 0.400100
10.128100 0.323500
10.263400 0.263200
10.398700 0.207700
10.534100 0.122500
10.669400 0.029600
10.804700 0.000000
10.940000 0.000000
11.075400 0.000000
11.210700 0.000000
11.346000 0.000000
11.481400 0.000000
11.616700 0.000000
11.752000 0.006000
11.887300 0.020100
12.022700 0.042000
12.158000 0.039500
12.293300 0.048300
12.428600 0.061400
12.564000 0.060400
12.699300 0.064800
12.834600 0.072000
12.969900 0.078300
13.105300 0.086500
13.240600 0.089200
13.375900 0.092000
13.511200 0.097400
13.646600 0.103500
13.781900 0.110400
13.917200 0.116900
14.052500 0.121400
14.187900 0.124800
14.323200 0.130000
14.458500 0.136100
14.593800 0.143000
14.729200 0.150400
14.864500 0.156100
14.999800 0.163500
15.135100 0.170500
15.270500 0.180600
15.405800 0.228800
15.541100 0.312600
15.676400 0.363300
15.811800 0.456900
15.947100 0.529800
16.082400 0.697800
16.217700 0.854400
16.353100 0.825400
16.488400 0.813400
16.623700 0.824600
16.759000 0.912300
16.894400 1.195600
17.029700 0.893600
17.165000 0.802100
17.300300 0.740700
17.435700 0.735700
17.571000 0.765700
17.706300 0.819100
17.841600 0.908000
17.977000 1.233600
18.112300 1.207500
18.247600 1.185100
18.382900 1.135500
18.518300 1.109900
18.653600 0.969600
18.788900 0.837000
18.924200 0.718900
19.059600 0.622800
19.194900 0.571600
19.330200 0.532600
19.465500 0.516100
19.600900 0.476000
19.736200 0.454300
19.871500 0.426400
20.006800 0.372300
20.142200 0.395900
20.277500 0.399700
20.412800 0.451200
20.548100 0.505400
20.683500 0.583000
20.818800 0.603800
20.954100 0.600900
21.089400 0.590800
21.224800 0.578200
21.360100 0.591500
21.495400 0.578400
21.630700 0.564100
21.766100 0.555100
21.901400 0.533300
22.036700 0.533400
22.172000 0.543000
22.307400 0.568700
22.442700 0.621300
22.578000 0.638400
22.713300 0.672800
22.848700 0.728400
22.984000 0.837100
23.119300 0.857400
23.254600 0.891500
23.390000 0.924900
23.525300 0.967300
23.660600 0.998200
23.795900 0.995700
23.931300 0.991900
24.066600 1.019900
24.201900 1.016900
24.337200 0.992000
24.472600 0.986800
24.607900 1.012000
24.743200 0.992300
24.878500 0.950100
25.013900 0.939700
25.149200 0.926800
25.284500 0.906400
25.419800 0.906400
25.555200 0.890700
25.690500 0.882400
25.825800 0.804000
25.961100 0.708400
26.096500 0.646800
26.231800 0.530400
26.367100 0.529900
26.502400 0.504000
26.637800 0.519600
26.773100 0.881800
26.908400 0.529700
27.043700 0.516300
27.179100 0.516800
27.314400 0.529200
27.449700 0.542800
27.585000 0.556300
27.720400 0.574100
27.855700 0.551300
27.991000 0.510800
28.126300 0.495400
28.261700 0.494400
28.397000 0.498200
28.532300 0.474500
28.667600 0.482900
28.803000 0.496100
28.938300 0.517900
29.073600 0.521300
29.208900 0.492200
29.344300 0.479400
29.479600 0.492800
29.614900 0.489600
29.750200 0.485100
29.885600 0.525200
30.020900 0.506400
30.156200 0.486600
30.291500 0.471200
30.426900 0.460400
30.562200 0.451900
30.697500 0.454900
30.832900 0.481200
30.968200 0.497900
31.103500 0.499000
31.238800 0.502800
31.374200 0.503200
31.509500 0.533500
31.644800 0.570400
31.780100 0.590800
31.915500 0.610200
32.050800 0.668700
32.186100 0.753700
32.321400 0.773000
32.456800 0.758000
32.592100 0.840900
32.727400 0.923900
32.862700 0.869600
32.998100 0.842100
33.133400 0.820400
33.268700 0.797000
33.404000 0.747300
33.539400 0.699400
33.674700 0.662300
33.810000 0.648400
33.945300 0.662800
34.080700 0.714700
34.216000 0.700900
34.351300 0.619300
34.486600 0.648600
34.622000 0.701800
34.757300 0.734100
34.892600 0.742200
35.027900 0.842900
35.163300 0.790400
35.298600 0.727300
35.433900 0.646600
35.569200 0.577600
35.704600 0.550800
35.839900 0.545600
35.975200 0.559600
36.110500 0.575700
36.245900 0.596800
36.381200 0.621600
36.516500 0.636900
36.651800 0.657600
36.787200 0.661100
36.922500 0.670100
37.057800 0.679800
37.193100 0.678700
37.328500 0.696600
37.463800 0.706600
37.599100 0.723000
37.734400 0.736800
37.869800 0.785900
38.005100 0.847500
38.140400 0.823000
38.275700 0.826600
38.411100 0.849900
38.546400 0.954200
38.681700 0.914800
38.817000 0.840000
38.952400 0.876800
39.087700 0.910500
39.223000 0.942700
39.358300 0.983100
39.493700 0.975400
39.629000 0.980300
39.764300 0.904500
39.899600 0.870900
40.035000 0.883300
40.170300 0.883900
40.305600 0.895900
40.440900 0.893700
40.576300 0.886000
40.711600 0.860100
40.846900 0.840900
40.982200 0.878100
41.117600 0.861900
41.252900 0.807900
41.388200 0.855700
41.523500 0.833900
41.658900 0.788000
41.794200 0.852700
41.929500 0.885000
42.064800 0.911500
42.200200 0.910500
42.335500 0.885400
42.470800 0.869500
42.606100 0.839700
42.741500 0.796000
42.876800 0.684600
43.012100 0.578500
43.147400 0.497000
43.282800 0.499400
43.418100 0.523700
43.553400 0.685600
43.688700 0.833200
43.824100 0.807200
43.959400 0.845200
44.094700 0.864600
44.230000 0.842200
44.365400 0.739200
44.500700 0.654500
44.636000 0.628500
44.771300 0.625600
44.906700 0.666900
45.042000 0.702500
45.177300 0.732200
45.312600 0.740700
45.448000 0.736200
45.583300 0.774800
45.718600 0.764600
45.853900 0.752600
45.989300 0.765600
46.124600 0.751300
46.259900 0.709900
46.395200 0.640900
46.530600 0.618000
46.665900 0.618000
46.801200 0.610700
46.936500 0.634800
47.071900 0.665800
47.207200 0.706000
47.342500 0.800600
47.477800 0.748100
47.613200 0.731800
47.748500 0.696900
47.883800 0.648400
48.019100 0.604100
48.154500 0.573900
48.289800 0.568900
48.425100 0.595000
48.560400 0.642500
48.695800 0.774600
48.831100 0.961200
48.966400 0.909500
49.101700 0.870500
49.237100 0.807400
49.372400 0.771200
49.507700 0.803700
49.643000 0.875900
49.778400 1.100900
49.913700 1.248900
50.049000 1.282500
50.184400 1.273200
50.319700 1.128600
50.455000 0.981300
50.590300 0.903000
50.725700 0.831400
50.861000 0.774700
50.996300 0.759800
51.131600 0.782000
51.267000 0.805600
51.402300 0.851100
51.537600 0.983300
51.672900 1.046200
51.808300 1.004200
51.943600 0.920000
52.078900 0.901400
52.214200 0.840700
52.349600 0.826700
52.484900 0.817200
52.620200 0.814400
52.755500 0.841000
52.890900 0.827000
53.026200 0.816300
53.161500 0.830300
53.296800 0.795100
53.432200 0.787700
53.567500 0.796300
53.702800 0.813400
53.838100 0.809600
53.973500 0.802400
54.108800 0.801400
54.244100 0.731900
54.379400 0.710300
54.514800 0.730400
54.650100 0.740900
54.785400 0.708300
54.920700 0.738100
55.056100 0.800000
55.191400 0.848100
55.326700 0.894800
55.462000 0.957200
55.597400 0.957500
55.732700 0.918600
55.868000 0.894400
56.003300 0.902500
56.138700 0.931500
56.274000 0.924900
56.409300 0.939100
56.544600 0.994200
56.680000 1.047900
56.815300 1.108400
56.950600 1.114000
57.085900 1.109300
57.221300 1.125900
57.356600 1.147900
57.491900 1.143400
57.627200 1.109000
57.762600 1.055000
57.897900 0.998900
58.033200 1.001000
58.168500 1.040400
58.303900 0.995500
58.439200 0.958700
58.574500 0.948400
58.709800 0.934300
58.845200 0.882000
58.980500 0.870900
59.115800 0.908300
59.251100 0.886400
59.386500 0.833700
59.521800 0.747800
59.657100 0.694500
59.792400 0.676500
59.927800 0.669000
60.063100 0.656000
60.198400 0.669600
60.333700 0.747400
60.469100 0.832000
60.604400 0.795500
60.739700 0.805400
60.875000 0.811800
61.010400 0.796600
61.145700 0.826600
61.281000 0.808600
61.416300 0.715300
61.551700 0.641800
61.687000 0.682800
61.822300 0.690600
61.957600 0.734200
62.093000 0.791500
62.228300 0.834800
62.363600 0.823200
62.498900 0.852700
62.634300 0.871300
62.769600 0.876000
62.904900 0.841100
63.040200 0.876600
63.175600 0.916400
63.310900 0.958300
63.446200 1.009500
63.581500 1.021200
63.716900 0.988400
63.852200 0.926500
63.987500 0.900500
64.122800 0.900500
64.258200 0.909400
64.393500 0.905700
64.528800 0.855400
64.664100 0.854700
64.799500 0.846700
64.934800 0.839400
65.070100 0.827200
65.205400 0.846800
65.340800 0.921600
65.476100 0.950300
65.611400 0.987000
65.746700 0.973500
65.882100 0.986800
66.017400 0.989500
66.152700 0.936600
66.288000 0.898400
66.423400 0.815300
66.558700 0.756000
66.694000 0.756300
66.829300 0.777400
66.964700 0.822100
67.100000 0.860400
67.235300 0.851700
67.370600 0.857100
67.506000 0.880500
67.641300 0.893300
67.776600 0.973900
67.911900 1.083700
68.047300 1.070900
68.182600 0.966100
68.317900 0.857000
68.453200 0.801400
68.588600 0.774600
68.723900 0.763500
68.859200 0.786400
68.994500 0.840500
69.129900 0.910500
69.265200 0.973600
69.400500 1.033300
69.535800 1.082800
69.671200 1.109900
69.806500 1.077500
69.941800 1.088100
70.077200 1.132500
70.212500 1.111500
70.347800 0.997700
70.483100 0.968000
70.618500 0.962200
70.753800 0.990700
70.889100 1.077800
71.024400 1.121400
71.159800 1.101900
71.295100 1.070900
71.430400 1.057100
71.565700 1.041500
71.701100 1.043000
71.836400 1.113300
71.971700 1.230800
72.107000 1.396000
72.242400 1.311600
72.377700 1.252300
72.513000 1.257400
72.648300 1.221800
72.783700 1.180300
72.919000 1.149100
73.054300 1.138200
73.189600 1.143500
73.325000 1.092800
73.460300 1.071100
73.595600 1.013400
73.730900 0.919200
73.866300 0.866000
74.001600 0.871900
74.136900 0.893000
74.272200 1.006500
74.407600 0.962400
74.542900 0.970700
74.678200 0.947700
74.813500 0.793600
74.948900 0.759500
75.084200 0.771000
75.219500 0.786800
75.354800 0.782400
75.490200 0.775500
75.625500 0.789600
75.760800 0.825200
75.896100 0.972200
76.031500 0.957500
76.166800 1.033400
76.302100 1.287600
76.437400 1.497100
76.572800 1.573800
76.708100 1.527600
76.843400 1.281000
76.978700 1.137700
77.114100 1.015400
77.249400 0.877100
77.384700 0.839300
77.520000 0.820900
77.655400 0.799300
77.790700 0.803700
77.926000 0.829700
78.061300 0.891500
78.196700 0.950300
78.332000 0.975200
78.467300 0.985000
78.602600 1.020200
78.738000 0.968500
78.873300 0.930300
79.008600 0.885800
79.143900 0.866000
79.279300 0.852700
79.414600 0.861700
79.549900 0.926000
79.685200 1.040900
79.820600 0.958000
79.955900 0.964100
80.091200 0.936900
80.226500 0.909400
80.361900 0.886700
80.497200 0.887800
80.632500 0.892800
80.767800 0.917000
80.903200 1.164100
81.038500 0.948900
81.173800 0.985900
81.309100 0.966700
81.444500 0.975200
81.579800 1.008900
81.715100 1.029900
81.850400 1.027700
81.985800 1.036600
82.121100 1.124500
82.256400 1.073400
82.391700 1.065600
82.527100 1.088600
82.662400 1.076500
82.797700 1.075400
82.933000 1.110700
83.068400 1.125700
83.203700 1.158500
83.339000 1.197200
83.474300 1.202200
83.609700 1.090900
83.745000 0.991300
83.880300 0.916700
84.015600 0.875600
84.151000 0.935000
84.286300 0.936700
84.421600 0.972400
84.556900 1.004700
84.692300 0.996900
84.827600 0.982600
84.962900 0.941800
85.098200 0.919600
85.233600 0.945300
85.368900 1.025600
85.504200 1.069200
85.639500 1.064200
85.774900 1.118100
85.910200 1.127100
86.045500 1.085300
86.180800 1.073300
86.316200 1.093200
86.451500 1.135900
86.586800 1.195100
86.722100 1.222000
86.857500 1.303200
86.992800 1.360400
87.128100 1.453700
87.263400 1.379900
87.398800 1.146700
87.534100 0.985800
87.669400 0.900100
87.804700 0.857900
87.940100 0.859000
88.075400 0.906300
88.210700 1.010300
88.346000 1.105100
88.481400 1.188800
88.616700 1.228100
88.752000 1.251400
88.887300 1.242800
89.022700 1.136000
89.158000 1.046900
89.293300 0.960700
89.428700 0.939500
89.564000 0.984600
89.699300 1.174100
89.834600 1.216800
89.970000 1.152300
90.105300 1.099800
90.240600 1.046300
90.375900 0.980800
90.511300 0.929900
90.646600 0.924900
90.781900 0.944600
90.917200 0.978300
91.052600 1.005400
91.187900 1.047700
91.323200 1.115400
91.458500 1.196600
91.593900 1.240000
91.729200 1.274700
91.864500 1.198700
91.999800 1.123400
92.135200 1.034300
92.270500 0.986700
92.405800 1.030900
92.541100 1.139900
92.676500 1.316100
92.811800 1.411900
92.947100 1.368800
93.082400 1.289700
93.217800 1.203100
93.353100 1.139300
93.488400 1.102200
93.623700 0.954000
93.759100 0.936300
93.894400 1.003200
94.029700 1.109000
94.165000 1.190200
94.300400 1.249800
94.435700 1.223700
94.571000 1.172500
94.706300 1.088400
94.841700 1.096900
94.977000 1.054800
95.112300 1.025200
95.247600 1.000700
95.383000 0.981600
95.518300 0.986200
95.653600 1.103100
95.788900 1.157500
95.924300 1.119500
96.059600 1.125600
96.194900 1.176300
96.330200 1.192800
96.465600 1.212100
96.600900 1.292600
96.736200 1.213400
96.871500 1.145700
97.006900 1.063000
97.142200 0.979300
97.277500 0.930600
97.412800 0.911500
97.548200 0.896600
97.683500 0.889300
97.818800 0.892100
97.954100 0.904300
98.089500 0.923100
98.224800 0.967500
98.360100 1.027300
98.495400 1.053800
98.630800 1.117000
98.766100 1.156100
98.901400 1.214700
99.036700 1.264700
99.172100 1.301500
99.307400 1.250100
99.442700 1.193900
99.578000 1.130700
99.713400 1.098700
99.848700 1.123700
99.984000 1.148300
100.119300 1.189900
100.254700 1.258200
100.390000 1.284700
100.525300 1.223200
100.660600 1.138300
100.796000 1.093500
100.931300 1.100900
101.066600 1.139900
101.201900 1.169300
101.337300 1.191900
101.472600 1.202500
101.607900 1.223600
101.743200 1.185700
101.878600 1.155700
102.013900 1.150700
102.149200 1.140700
102.284500 1.120500
102.419900 1.106800
102.555200 1.096800
102.690500 1.101200
102.825800 1.120500
102.961200 1.157200
103.096500 1.200400
103.231800 1.193900
103.367100 1.167900
103.502500 1.159200
103.637800 1.167400
103.773100 1.185600
103.908400 1.225900
104.043800 1.238600
104.179100 1.178500
104.314400 1.073700
104.449700 1.034700
104.585100 1.043700
104.720400 1.024200
104.855700 1.011300
104.991000 1.076400
105.126400 1.115400
105.261700 1.164600
105.397000 1.208500
105.532300 1.249300
105.667700 1.273200
105.803000 1.331500
105.938300 1.273500
106.073600 1.228100
106.209000 1.228700
106.344300 1.196600
106.479600 1.136200
106.614900 1.067200
106.750300 1.057200
106.885600 1.039900
107.020900 1.106900
107.156200 1.207900
107.291600 1.206900
107.426900 1.214000
107.562200 1.252800
107.697500 1.209600
107.832900 1.176400
107.968200 1.138500
108.103500 1.130000
108.238800 1.131500
108.374200 1.171900
108.509500 1.156500
108.644800 1.083600
108.780200 1.003800
108.915500 0.987900
109.050800 1.045400
109.186100 1.082500
109.321500 1.104100
109.456800 1.109900
109.592100 1.238500
109.727400 1.327900
109.862800 1.268300
109.998100 1.279600
110.133400 1.264800
110.268700 1.261400
110.404100 1.200800
110.539400 1.097100
110.674700 1.080100
110.810000 1.100900
110.945400 1.046900
111.080700 1.058500
111.216000 1.086300
111.351300 1.129900
111.486700 1.202600
111.622000 1.233800
111.757300 1.242600
111.892600 1.226200
112.028000 1.188700
112.163300 1.136600
112.298600 1.121700
112.433900 1.156600
112.569300 1.142000
112.704600 1.163900
112.839900 1.189400
112.975200 1.259800
113.110600 1.313800
113.245900 1.310100
113.381200 1.299200
113.516500 1.267500
113.651900 1.139100
113.787200 1.178700
113.922500 1.271400
114.057800 1.278800
114.193200 1.301900
114.328500 1.303100
114.463800 1.325400
114.599100 1.324100
114.734500 1.281700
114.869800 1.215900
115.005100 1.170700
115.140400 1.134600
115.275800 1.164900
115.411100 1.234900
115.546400 1.286300
115.681700 1.346100
115.817100 1.353500
115.952400 1.339400
116.087700 1.331400
116.223000 1.312800
116.358400 1.237100
116.493700 1.214300
116.629000 1.204600
116.764300 1.239600
116.899700 1.266100
117.035000 1.239900
117.170300 1.254700
117.305600 1.263200
117.441000 1.314500
117.576300 1.407600
117.711600 1.443000
117.846900 1.455200
117.982300 1.456000
118.117600 1.379900
118.252900 1.279500
118.388200 1.194600
118.523600 1.149900
118.658900 1.118000
118.794200 1.150100
118.929500 1.237300
119.064900 1.321000
119.200200 1.322900
119.335500 1.287400
119.470800 1.212900
119.606200 1.147600
119.741500 1.132800
119.876800 1.129200
120.012100 1.158500
120.147500 1.195200
120.282800 1.196300
120.418100 1.211700
120.553400 1.239800
120.688800 1.307400
120.824100 1.346000
120.959400 1.255500
121.094700 1.203300
121.230100 1.186800
121.365400 1.197200
121.500700 1.226900
121.636000 1.250300
121.771400 1.229200
121.906700 1.187000
122.042000 1.145500
122.177300 1.125200
122.312700 1.113900
122.448000 1.116500
122.583300 1.151000
122.718600 1.133100
122.854000 1.166400
122.989300 1.167600
123.124600 1.175900
123.259900 1.218800
123.395300 1.271300
123.530600 1.267500
123.665900 1.278700
123.801200 1.313000
123.936600 1.336800
124.071900 1.341700
124.207200 1.329900
124.342500 1.332600
124.477900 1.349700
124.613200 1.331800
124.748500 1.294300
124.883800 1.254900
125.019200 1.248300
125.154500 1.233600
125.289800 1.239400
125.425100 1.263200
125.560500 1.304700
125.695800 1.347500
125.831100 1.388700
125.966400 1.373100
126.101800 1.350500
126.237100 1.325000
126.372400 1.339700
126.507700 1.331400
126.643100 1.297100
126.778400 1.266400
126.913700 1.222500
127.049000 1.238100
127.184400 1.291600
127.319700 1.287800
127.455000 1.280300
127.590300 1.258000
127.725700 1.210200
127.861000 1.218200
127.996300 1.240300
128.131700 1.268100
128.267000 1.321900
128.402300 1.333500
128.537600 1.309400
128.673000 1.294400
128.808300 1.316300
128.943600 1.274200
129.078900 1.271500
129.214300 1.288300
129.349600 1.276900
129.484900 1.293300
129.620200 1.340500
129.755600 1.456100
129.890900 1.431300
130.026200 1.380700
130.161500 1.362000
130.296900 1.391800
130.432200 1.393300
130.567500 1.373800
130.702800 1.381000
130.838200 1.320300
130.973500 1.268300
131.108800 1.234100
131.244100 1.247300
131.379500 1.281500
131.514800 1.305600
131.650100 1.295800
131.785400 1.333800
131.920800 1.342400
132.056100 1.369200
132.191400 1.418400
132.326700 1.427900
132.462100 1.315200
132.597400 1.336900
132.732700 1.271800
132.868000 1.212500
133.003400 1.172100
133.138700 1.153200
133.274000 1.141800
133.409300 1.189700
133.544700 1.249500
133.680000 1.242500
133.815300 1.203000
133.950600 1.209100
134.086000 1.258600
134.221300 1.325300
134.356600 1.366300
134.491900 1.367200
134.627300 1.383600
134.762600 1.433100
134.897900 1.470900
135.033200 1.474000
135.168600 1.476400
135.303900 1.438200
135.439200 1.391200
135.574500 1.390100
135.709900 1.419600
135.845200 1.408600
135.980500 1.357000
136.115800 1.321200
136.251200 1.309100
136.386500 1.330600
136.521800 1.261400
136.657100 1.240400
136.792500 1.244700
136.927800 1.258700
137.063100 1.273400
137.198400 1.208600
137.333800 1.232600
137.469100 1.253600
137.604400 1.316200
137.739700 1.452700
137.875100 1.492500
138.010400 1.474600
138.145700 1.366600
138.281000 1.295200
138.416400 1.270100
138.551700 1.272000
138.687000 1.318500
138.822300 1.333600
138.957700 1.326700
139.093000 1.311800
139.228300 1.333100
139.363600 1.354300
139.499000 1.382400
139.634300 1.406800
139.769600 1.392100
139.904900 1.396800
140.040300 1.321100
140.175600 1.283200
140.310900 1.267900
140.446200 1.301500
140.581600 1.282100
140.716900 1.330200
140.852200 1.390900
140.987500 1.371500
141.122900 1.353600
141.258200 1.404200
141.393500 1.448800
141.528800 1.432300
141.664200 1.385400
141.799500 1.347500
141.934800 1.382100
142.070100 1.423400
142.205500 1.379400
142.340800 1.374600
142.476100 1.410000
142.611400 1.403600
142.746800 1.377100
142.882100 1.401600
143.017400 1.394800
143.152700 1.372900
143.288100 1.411700
143.423400 1.323600
143.558700 1.319700
143.694000 1.260600
143.829400 1.201500
143.964700 1.164300
144.100000 1.144100
144.235300 1.140300
144.370700 1.181000
144.506000 1.265400
144.641300 1.380900
144.776600 1.415400
144.912000 1.505000
145.047300 1.483400
145.182600 1.461900
145.317900 1.448200
145.453300 1.405300
145.588600 1.383300
145.723900 1.394500
145.859200 1.372200
145.994600 1.328700
146.129900 1.355700
146.265200 1.375900
146.400500 1.389300
146.535900 1.386800
146.671200 1.375000
146.806500 1.387900
146.941800 1.414900
147.077200 1.495700
147.212500 1.594000
147.347800 1.548500
147.483100 1.493200
147.618500 1.417400
147.753800 1.319700
147.889100 1.220600
148.024500 1.177900
148.159800 1.174800
148.295100 1.241400
148.430400 1.309800
148.565800 1.433000
148.701100 1.351400
148.836400 1.359100
148.971700 1.345400
149.107100 1.370800
149.242400 1.393100
149.377700 1.352900
149.513000 1.354700
149.648400 1.335300
149.783700 1.323200
149.919000 1.323300
150.054300 1.326100
150.189700 1.319800
150.325000 1.333300
150.460300 1.361900
150.595600 1.339500
150.731000 1.546200
150.866300 1.392700
151.001600 1.405500
151.136900 1.395200
151.272300 1.398100
151.407600 1.389600
151.542900 1.388000
151.678200 1.410300
151.813600 1.445600
151.948900 1.456500
152.084200 1.422300
152.219500 1.406400
152.354900 1.415900
152.490200 1.488900
152.625500 1.528000
152.760800 1.547200
152.896200 1.538200
153.031500 1.473000
153.166800 1.409600
153.302100 1.397100
153.437500 1.415700
153.572800 1.402900
153.708100 1.385300
153.843400 1.369800
153.978800 1.362800
154.114100 1.363800
154.249400 1.364600
154.384700 1.363600
154.520100 1.447500
154.655400 1.444000
154.790700 1.435400
154.926000 1.411600
155.061400 1.393400
155.196700 1.363500
155.332000 1.336700
155.467300 1.343700
155.602700 1.365200
155.738000 1.391400
155.873300 1.331700
156.008600 1.324300
156.144000 1.321200
156.279300 1.318000
156.414600 1.319400
156.549900 1.343600
156.685300 1.431500
156.820600 1.482400
156.955900 1.484700
157.091200 1.450400
157.226600 1.424500
157.361900 1.420800
157.497200 1.436700
157.632500 1.484700
157.767900 1.493900
157.903200 1.483300
158.038500 1.463500
158.173800 1.446200
158.309200 1.453100
158.444500 1.463700
158.579800 1.481300
158.715100 1.528900
158.850500 1.571300
158.985800 1.543700
159.121100 1.499600
159.256400 1.412300
159.391800 1.352500
159.527100 1.326600
159.662400 1.336200
159.797700 1.326300
159.933100 1.351300
160.068400 1.356400
160.203700 1.365300
160.339000 1.383400
160.474400 1.378300
160.609700 1.366100
160.745000 1.385800
160.880300 1.403800
161.015700 1.424000
161.151000 1.440100
161.286300 1.439700
161.421600 1.452200
161.557000 1.495200
161.692300 1.498500
161.827600 1.461900
161.962900 1.455700
162.098300 1.417700
162.233600 1.396200
162.368900 1.413500
162.504200 1.453700
162.639600 1.507400
162.774900 1.528700
162.910200 1.549600
163.045500 1.544300
163.180900 1.510700
163.316200 1.512200
163.451500 1.563000
163.586800 1.565400
163.722200 1.546900
163.857500 1.558300
163.992800 1.456100
164.128100 1.388400
164.263500 1.341300
164.398800 1.323300
164.534100 1.354000
164.669400 1.373800
164.804800 1.362700
164.940100 1.359400
165.075400 1.377500
165.210700 1.374000
165.346100 1.391700
165.481400 1.415500
165.616700 1.400600
165.752000 1.365800
165.887400 1.319800
166.022700 1.307400
166.158000 1.288300
166.293300 1.283000
166.428700 1.314900
166.564000 1.341000
166.699300 1.339700
166.834600 1.323800
166.970000 1.313100
167.105300 1.313400
167.240600 1.340500
167.376000 1.394300
167.511300 1.425600
167.646600 1.459700
167.781900 1.504100
167.917300 1.546300
168.052600 1.531900
168.187900 1.514000
168.323200 1.510500
168.458600 1.517900
168.593900 1.518800
168.729200 1.499700
168.864500 1.503000
168.999900 1.503600
169.135200 1.453400
169.270500 1.410700
169.405800 1.387600
169.541200 1.385900
169.676500 1.405200
169.811800 1.433900
169.947100 1.453300
170.082500 1.456200
170.217800 1.478800
170.353100 1.486500
170.488400 1.433500
170.623800 1.405000
170.759100 1.410000
170.894400 1.439300
171.029700 1.494800
171.165100 1.535900
171.300400 1.529900
171.435700 1.565800
171.571000 1.658700
171.706400 1.609600
171.841700 1.515900
171.977000 1.479600
172.112300 1.493800
172.247700 1.543400
172.383000 1.576700
172.518300 1.535000
172.653600 1.500000
172.789000 1.458400
172.924300 1.469500
173.059600 1.478700
173.194900 1.499000
173.330300 1.493200
173.465600 1.493100
173.600900 1.429400
173.736200 1.379700
173.871600 1.312300
174.006900 1.284500
174.142200 1.341100
174.277500 1.363300
174.412900 1.387100
174.548200 1.399800
174.683500 1.426300
174.818800 1.429300
174.954200 1.432500
175.089500 1.415400
175.224800 1.409800
175.360100 1.410800
175.495500 1.430800
175.630800 1.489800
175.766100 1.491800
175.901400 1.468800
176.036800 1.439800
176.172100 1.402700
176.307400 1.385300
176.442700 1.400500
176.578100 1.474500
176.713400 1.426300
176.848700 1.454700
176.984000 1.487600
177.119400 1.545800
177.254700 1.562800
177.390000 1.527600
177.525300 1.511800
177.660700 1.527700
177.796000 1.547000
177.931300 1.542600
178.066600 1.544900
178.202000 1.560700
178.337300 1.580700
178.472600 1.556800
178.607900 1.525400
178.743300 1.531700
178.878600 1.578900
179.013900 1.656600
179.149200 1.637700
179.284600 1.588900
179.419900 1.591100
179.555200 1.633800
179.690500 1.640600
179.825900 1.631800
179.961200 1.592900
180.096500 1.541900
180.231800 1.516300
180.367200 1.472300
180.502500 1.447100
180.637800 1.445200
180.773100 1.432600
180.908500 1.402500
181.043800 1.378700
181.179100 1.379300
181.314400 1.392300
181.449800 1.411100
181.585100 1.402700
181.720400 1.391900
181.855700 1.413500
181.991100 1.462700
182.126400 1.414800
182.261700 1.382900
182.397000 1.388900
182.532400 1.436400
182.667700 1.510800
182.803000 1.534100
182.938300 1.522500
183.073700 1.497900
183.209000 1.488600
183.344300 1.466400
183.479600 1.478200
183.615000 1.440900
183.750300 1.428100
183.885600 1.460800
184.020900 1.523600
184.156300 1.578000
184.291600 1.655000
184.426900 1.667800
184.562200 1.630000
184.697600 1.615000
184.832900 1.596100
184.968200 1.599200
185.103500 1.575100
185.238900 1.593800
185.374200 1.632700
185.509500 1.582300
185.644800 1.598800
185.780200 1.537900
185.915500 1.511400
186.050800 1.495400
186.186100 1.487600
186.321500 1.449200
186.456800 1.425500
186.592100 1.441600
186.727500 1.466300
186.862800 1.504100
186.998100 1.465000
187.133400 1.435000
187.268800 1.434500
187.404100 1.423200
187.539400 1.427700
187.674700 1.406600
187.810100 1.379800
187.945400 1.371000
188.080700 1.399800
188.216000 1.424100
188.351400 1.429800
188.486700 1.488100
188.622000 1.516700
188.757300 1.508400
188.892700 1.547600
189.028000 1.565500
189.163300 1.557500
189.298600 1.578700
189.434000 1.591500
189.569300 1.603100
189.704600 1.578500
189.839900 1.598700
189.975300 1.608800
190.110600 1.612500
190.245900 1.590700
190.381200 1.633000
190.516600 1.663100
190.651900 1.670400
190.787200 1.709800
190.922500 1.727500
191.057900 1.724100
191.193200 1.695000
191.328500 1.679700
191.463800 1.659300
191.599200 1.610700
191.734500 1.576000
191.869800 1.587800
192.005100 1.633700
192.140500 1.623500
192.275800 1.628400
192.411100 1.566500
192.546400 1.503300
192.681800 1.453300
192.817100 1.405600
192.952400 1.402600
193.087700 1.407500
193.223100 1.381300
193.358400 1.379600
193.493700 1.388800
193.629000 1.392200
193.764400 1.382300
193.899700 1.400200
194.035000 1.404400
194.170300 1.428900
194.305700 1.459600
194.441000 1.517200
194.576300 1.531900
194.711600 1.530500
194.847000 1.538300
194.982300 1.527400
195.117600 1.527700
195.252900 1.480600
195.388300 1.460300
195.523600 1.496900
195.658900 1.551800
195.794200 1.536700
195.929600 1.534700
196.064900 1.547600
196.200200 1.574700
196.335500 1.540700
196.470900 1.539200
196.606200 1.535400
196.741500 1.575100
196.876800 1.594100
197.012200 1.671400
197.147500 1.739000
197.282800 1.729900
197.418100 1.700400
197.553500 1.718500
197.688800 1.721300
197.824100 1.687400
197.959400 1.664900
198.094800 1.602100
198.230100 1.646800
198.365400 1.589300
198.500700 1.532800
198.636100 1.474100
198.771400 1.443500
198.906700 1.500100
199.042000 1.483700
199.177400 1.498300
199.312700 1.553000
199.448000 1.532600
199.583300 1.513900
199.718700 1.527000
199.854000 1.573100
199.989300 1.611800
200.124600 1.605400
200.260000 1.600600
200.395300 1.578400
200.530600 1.547600
200.665900 1.518900
200.801300 1.487900
200.936600 1.482800
201.071900 1.454600
201.207200 1.429800
201.342600 1.443100
201.477900 1.456700
201.613200 1.496700
201.748500 1.520800
201.883900 1.533900
202.019200 1.569100
202.154500 1.587300
202.289800 1.568100
202.425200 1.525600
202.560500 1.521800
202.695800 1.633800
202.831100 1.619200
202.966500 1.602500
203.101800 1.590200
203.237100 1.629200
203.372400 1.644500
203.507800 1.660100
203.643100 1.730400
203.778400 1.757700
203.913700 1.764400
204.049100 1.783100
204.184400 1.799200
204.319700 1.792500
204.455000 1.724100
204.590400 1.707600
204.725700 1.710000
204.861000 1.669300
204.996300 1.597400
205.131700 1.530700
205.267000 1.519800
205.402300 1.547700
205.537600 1.528800
205.673000 1.552100
205.808300 1.529600
205.943600 1.501400
206.079000 1.476900
206.214300 1.526700
206.349600 1.528200
206.484900 1.521700
206.620300 1.522800
206.755600 1.505600
206.890900 1.495600
207.026200 1.506900
207.161600 1.526900
207.296900 1.501300
207.432200 1.492100
207.567500 1.516300
207.702900 1.515000
207.838200 1.520100
207.973500 1.525600
208.108800 1.554400
208.244200 1.554700
208.379500 1.517200
208.514800 1.568700
208.650100 1.630500
208.785500 1.666700
208.920800 1.677500
209.056100 1.675400
209.191400 1.697400
209.326800 1.632900
209.462100 1.602100
209.597400 1.604300
209.732700 1.595800
209.868100 1.623700
210.003400 1.686500
210.138700 1.706400
210.274000 1.729100
210.409400 1.701600
210.544700 1.651600
210.680000 1.625900
210.815300 1.596300
210.950700 1.601000
211.086000 1.641900
211.221300 1.707600
211.356600 1.786300
211.492000 1.797900
211.627300 1.833100
211.762600 1.816400
211.897900 1.813000
212.033300 1.789700
212.168600 1.645600
212.303900 1.576300
212.439200 1.512200
212.574600 1.487500
212.709900 1.467200
212.845200 1.457100
212.980500 1.468900
213.115900 1.454800
213.251200 1.459600
213.386500 1.457200
213.521800 1.466300
213.657200 1.513700
213.792500 1.481600
213.927800 1.492000
214.063100 1.498400
214.198500 1.509000
214.333800 1.500700
214.469100 1.512600
214.604400 1.550800
214.739800 1.574800
214.875100 1.581300
215.010400 1.619600
215.145700 1.682300
215.281100 1.663500
215.416400 1.606000
215.551700 1.535600
215.687000 1.508000
215.822400 1.519300
215.957700 1.537100
216.093000 1.563200
216.228300 1.601800
216.363700 1.582800
216.499000 1.584800
216.634300 1.574400
216.769600 1.575300
216.905000 1.586400
217.040300 1.630600
217.175600 1.696200
217.310900 1.755300
217.446300 1.812600
217.581600 1.841300
217.716900 1.827100
217.852200 1.769700
217.987600 1.738000
218.122900 1.764400
218.258200 1.710500
218.393500 1.666700
218.528900 1.582900
218.664200 1.542600
218.799500 1.557600
218.934800 1.486600
219.070200 1.439700
219.205500 1.439800
219.340800 1.434700
219.476100 1.435600
219.611500 1.435000
219.746800 1.423600
219.882100 1.394800
220.017400 1.363000
220.152800 1.312000
220.288100 1.263300
220.423400 1.247400
220.558700 1.218400
220.694100 1.230900
220.829400 1.152700
220.964700 1.078900
221.100000 1.028400
221.235400 0.996100
221.370700 0.977500
221.506000 0.958100
221.641300 0.943100
221.776700 0.931500
221.912000 0.941000
222.047300 0.959100
222.182600 0.908500
222.318000 0.844100
222.453300 0.847100
222.588600 0.797700
222.723900 0.718500
222.859300 0.654100
222.994600 0.604500
223.129900 0.568100
223.265200 0.535200
223.400600 0.512100
223.535900 0.483900
223.671200 0.452700
223.806500 0.431000
223.941900 0.404900
224.077200 0.353500
224.212500 0.333600
224.347800 0.324100
224.483200 0.295800
224.618500 0.264500
224.753800 0.245000
224.889100 0.220700
225.024500 0.187800
225.159800 0.171700
225.295100 0.155000
225.430400 0.138800
225.565800 0.122400
225.701100 0.113700
225.836400 0.107900
225.971800 0.099400
226.107100 0.092600
226.242400 0.086500
226.377700 0.080100
226.513100 0.080900
226.648400 0.068900
226.783700 0.065500
226.919000 0.062800
227.054400 0.060400
227.189700 0.058300
227.325000 0.056600
227.460300 0.055000
227.595700 0.053500
227.731000 0.052800
227.866300 0.052000
228.001600 0.051200
228.137000 0.050300
228.272300 0.049400
228.407600 0.048400
228.542900 0.046400
228.678300 0.045000
228.813600 0.043500
228.948900 0.042200
229.084200 0.041000
229.219600 0.040100
229.354900 0.039300
229.490200 0.039300
229.625500 0.040000
229.760900 0.038200
229.896200 0.037600
230.031500 0.036200
230.166800 0.036100
230.302200 0.036200
230.437500 0.034500
230.572800 0.038400
230.708100 0.034100
230.843500 0.034200
230.978800 0.033300
231.114100 0.032500
231.249400 0.031800
231.384800 0.031100
231.520100 0.030400
231.655400 0.029800
231.790700 0.029200
231.926100 0.028800
232.061400 0.029500
232.196700 0.029400
232.332000 0.029100
232.467400 0.028900
232.602700 0.028000
232.738000 0.027100
232.873300 0.026100
233.008700 0.024600
233.144000 0.022100
233.279300 0.015100
233.414600 0.013200
233.550000 0.012300
233.685300 0.011600
233.820600 0.010900
233.955900 0.010200
234.091300 0.009000
234.226600 0.008300
234.361900 0.007700
234.497200 0.007200
234.632600 0.006600
234.767900 0.006100
234.903200 0.005700
235.038500 0.005200
235.173900 0.004800
235.309200 0.004500
235.444500 0.004100
235.579800 0.003800
235.715200 0.003600
235.850500 0.003100
235.985800 0.002600
236.121100 0.002200
236.256500 0.001700
236.391800 0.001300
236.527100 0.000900
236.662400 0.000400
236.797800 0.000000
236.933100 0.000000
237.068400 0.000000
237.203700 0.000000
237.339100 0.000000
237.474400 0.000000
237.609700 0.000000
237.745000 0.000000
237.880400 0.000000
238.015700 0.000000
238.151000 0.000000
238.286300 0.000000
238.421700 0.000000
238.557000 0.000000
238.692300 0.000000
238.827600 0.000000
238.963000 0.000000
239.098300 0.000000
239.233600 0.000000
239.368900 0.000000
239.504300 0.000000
239.639600 0.000000
239.774900 0.000000
239.910200 0.000000
240.045600 0.000000
240.180900 0.000000
240.316200 0.000000
240.451500 0.000000
240.586900 0.000000
240.722200 0.000000
240.857500 0.000000
240.992800 0.000000
241.128200 0.000000
241.263500 0.000000
241.398800 0.000000
241.534100 0.000000
241.669500 0.000000
241.804800 0.000000
241.940100 0.000000
242.075400 0.000000
242.210800 0.000000
242.346100 0.000000
242.481400 0.000000
242.616700 0.000000
242.752100 0.000000
242.887400 0.000000
243.022700 0.000000
243.158000 0.000000
243.293400 0.000000
243.428700 0.000000
243.564000 0.000000
243.699300 0.000000
243.834700 0.000000
243.970000 0.000000
244.105300 0.000000
244.240600 0.000000
244.376000 0.000000
244.511300 0.000000
244.646600 0.000000
244.781900 0.000000
244.917300 0.000000
245.052600 0.000000
245.187900 0.000000
245.323300 0.000000
245.458600 0.000000
245.593900 0.000000
245.729200 0.000000
245.864600 0.000000
245.999900 0.000000
246.135200 0.000000
246.270500 0.000000
246.405900 0.000000
246.541200 0.000000
246.676500 0.000000
246.811800 0.000000
246.947200 0.000000
247.082500 0.000000
247.217800 0.000000
247.353100 0.000000
247.488500 0.000000
247.623800 0.000000
247.759100 0.000000
247.894400 0.000000
248.029800 0.000000
248.165100 0.000000
248.300400 0.000000
248.435700 0.000000
248.571100 0.000000
248.706400 0.000000
248.841700 0.000000
248.977000 0.000000
249.112400 0.000000
e
