set title 'mp-1066100 - Density of States'
set xlabel 'Energy (eV)'
set ylabel 'DOS (states/eV)'
set grid
set xrange [-10:10]
set yrange [0:9.231]
set xzeroaxis lt -1
set terminal png size 800,600
set output 'mp-1066100_dos_gnuplot.png'
plot '-' using 1:2 with lines title 'DOS'
-31.922100 0.000000
-31.863600 0.000000
-31.805100 0.000000
-31.746600 0.000000
-31.688100 0.000000
-31.629600 0.000000
-31.571100 0.000000
-31.512600 0.000000
-31.454100 0.000000
-31.395600 0.000000
-31.337100 0.000000
-31.278600 0.000000
-31.220100 0.000000
-31.161600 0.000000
-31.103100 0.000000
-31.044600 0.000000
-30.986100 0.000000
-30.927600 0.000000
-30.869100 0.000000
-30.810600 0.000000
-30.752100 0.000000
-30.693600 0.000000
-30.635100 0.000000
-30.576600 0.000000
-30.518200 0.000000
-30.459700 0.000000
-30.401200 0.000000
-30.342700 0.000000
-30.284200 0.000000
-30.225700 0.000000
-30.167200 0.000000
-30.108700 0.000000
-30.050200 0.000000
-29.991700 0.000000
-29.933200 0.000000
-29.874700 0.000000
-29.816200 0.000000
-29.757700 0.000000
-29.699200 0.000000
-29.640700 0.000000
-29.582200 0.000000
-29.523700 0.000000
-29.465200 0.000000
-29.406700 0.000000
-29.348200 0.000000
-29.289700 0.000000
-29.231200 0.000000
-29.172700 0.000000
-29.114200 0.000000
-29.055700 0.000000
-28.997200 0.000000
-28.938700 0.000000
-28.880200 0.000000
-28.821700 0.000000
-28.763200 0.000000
-28.704700 0.000000
-28.646200 0.000000
-28.587700 0.000000
-28.529200 0.000000
-28.470700 0.000000
-28.412200 0.000000
-28.353700 0.000000
-28.295200 0.000000
-28.236700 0.000000
-28.178200 0.000000
-28.119700 0.000000
-28.061200 0.000000
-28.002700 0.000000
-27.944200 0.000000
-27.885700 0.000000
-27.827200 0.000000
-27.768700 0.000000
-27.710200 0.000000
-27.651700 0.000000
-27.593200 0.000000
-27.534700 0.000000
-27.476200 0.000000
-27.417700 0.000000
-27.359200 0.000000
-27.300700 0.000000
-27.242200 0.000000
-27.183700 0.000000
-27.125200 0.000000
-27.066700 0.000000
-27.008200 0.000000
-26.949700 0.000000
-26.891200 0.000000
-26.832700 0.000000
-26.774200 0.000000
-26.715700 0.000000
-26.657200 0.000000
-26.598700 0.125000
-26.540200 1.768700
-26.481700 1.809400
-26.423200 1.878200
-26.364700 2.015200
-26.306200 2.069000
-26.247700 2.198400
-26.189200 2.312000
-26.130700 2.454100
-26.072200 2.650000
-26.013700 2.844300
-25.955200 3.142900
-25.896700 3.477900
-25.838200 3.969000
-25.779700 4.684700
-25.721200 6.013400
-25.662700 9.006400
-25.604200 8.296100
-25.545700 5.885400
-25.487200 0.000000
-25.428700 0.000000
-25.370200 0.000000
-25.311700 0.000000
-25.253200 0.000000
-25.194700 0.000000
-25.136200 0.000000
-25.077700 0.000000
-25.019200 0.000000
-24.960700 0.000000
-24.902200 0.000000
-24.843700 0.000000
-24.785200 0.000000
-24.726700 0.000000
-24.668200 0.000000
-24.609700 0.000000
-24.551200 0.000000
-24.492700 0.000000
-24.434200 0.000000
-24.375700 0.000000
-24.317200 0.000000
-24.258700 0.000000
-24.200200 0.000000
-24.141700 0.000000
-24.083200 0.000000
-24.024700 0.000000
-23.966200 0.000000
-23.907700 0.000000
-23.849200 0.000000
-23.790700 0.000000
-23.732200 0.000000
-23.673700 0.000000
-23.615200 0.000000
-23.556700 0.000000
-23.498200 0.000000
-23.439700 0.000000
-23.381200 0.000000
-23.322700 0.000000
-23.264200 0.000000
-23.205700 0.000000
-23.147200 0.000000
-23.088700 0.000000
-23.030200 0.000000
-22.971700 0.000000
-22.913200 0.000000
-22.854700 0.000000
-22.796300 0.000000
-22.737800 0.000000
-22.679300 0.000000
-22.620800 0.000000
-22.562300 0.000000
-22.503800 0.000000
-22.445300 0.000000
-22.386800 0.000000
-22.328300 0.000000
-22.269800 0.000000
-22.211300 0.000000
-22.152800 0.000000
-22.094300 0.000000
-22.035800 0.000000
-21.977300 0.000000
-21.918800 0.000000
-21.860300 0.000000
-21.801800 0.000000
-21.743300 0.000000
-21.684800 0.000000
-21.626300 0.000000
-21.567800 0.000000
-21.509300 0.000000
-21.450800 0.000000
-21.392300 0.000000
-21.333800 0.000000
-21.275300 0.000000
-21.216800 0.000000
-21.158300 0.000000
-21.099800 0.000000
-21.041300 0.000000
-20.982800 0.000000
-20.924300 0.000000
-20.865800 0.000000
-20.807300 0.000000
-20.748800 0.000000
-20.690300 0.000000
-20.631800 0.000000
-20.573300 0.000000
-20.514800 0.000000
-20.456300 0.000000
-20.397800 0.000000
-20.339300 0.000000
-20.280800 0.000000
-20.222300 0.000000
-20.163800 0.000000
-20.105300 0.000000
-20.046800 0.000000
-19.988300 0.000000
-19.929800 0.000000
-19.871300 0.000000
-19.812800 0.000000
-19.754300 0.000000
-19.695800 0.000000
-19.637300 0.000000
-19.578800 0.000000
-19.520300 0.000000
-19.461800 0.000000
-19.403300 0.000000
-19.344800 0.000000
-19.286300 0.000000
-19.227800 0.000000
-19.169300 0.000000
-19.110800 0.000000
-19.052300 0.000000
-18.993800 0.000000
-18.935300 0.000000
-18.876800 0.000000
-18.818300 0.000000
-18.759800 0.000000
-18.701300 0.000000
-18.642800 0.000000
-18.584300 0.000000
-18.525800 0.000000
-18.467300 0.000000
-18.408800 0.000000
-18.350300 0.000000
-18.291800 0.000000
-18.233300 0.000000
-18.174800 0.000000
-18.116300 0.000000
-18.057800 0.000000
-17.999300 0.000000
-17.940800 0.000000
-17.882300 0.000000
-17.823800 0.000000
-17.765300 0.000000
-17.706800 0.000000
-17.648300 0.000000
-17.589800 0.000000
-17.531300 0.000000
-17.472800 0.000000
-17.414300 0.000000
-17.355800 0.000000
-17.297300 0.000000
-17.238800 0.000000
-17.180300 0.000000
-17.121800 0.000000
-17.063300 0.000000
-17.004800 0.000000
-16.946300 0.000000
-16.887800 0.000000
-16.829300 0.000000
-16.770800 0.000000
-16.712300 0.000000
-16.653800 0.000000
-16.595300 0.000000
-16.536800 0.000000
-16.478300 0.000000
-16.419800 0.000000
-16.361300 0.000000
-16.302800 0.000000
-16.244300 0.000000
-16.185800 0.000000
-16.127300 0.000000
-16.068800 0.000000
-16.010300 0.000000
-15.951800 0.000000
-15.893300 0.000000
-15.834800 0.000000
-15.776300 0.000000
-15.717800 0.000000
-15.659300 0.000000
-15.600800 0.000000
-15.542300 0.000000
-15.483800 0.000000
-15.425300 0.000000
-15.366800 0.000000
-15.308300 0.000000
-15.249800 0.000000
-15.191300 0.000000
-15.132800 0.000000
-15.074300 0.000000
-15.015900 0.000000
-14.957400 0.000000
-14.898900 0.000000
-14.840400 0.000000
-14.781900 0.000000
-14.723400 0.207100
-14.664900 0.354700
-14.606400 0.463500
-14.547900 0.586500
-14.489400 0.691500
-14.430900 0.809000
-14.372400 0.946900
-14.313900 1.102100
-14.255400 1.386900
-14.196900 1.421400
-14.138400 1.462000
-14.079900 1.498300
-14.021400 1.552000
-13.962900 1.601900
-13.904400 1.662900
-13.845900 1.729900
-13.787400 1.802400
-13.728900 1.893200
-13.670400 1.992600
-13.611900 2.104000
-13.553400 2.246500
-13.494900 2.424400
-13.436400 2.634700
-13.377900 2.901600
-13.319400 3.329200
-13.260900 3.923800
-13.202400 5.951200
-13.143900 5.951400
-13.085400 6.365200
-13.026900 4.606900
-12.968400 3.750300
-12.909900 0.000000
-12.851400 0.000000
-12.792900 0.000000
-12.734400 0.000000
-12.675900 0.000000
-12.617400 0.000000
-12.558900 0.000000
-12.500400 0.000000
-12.441900 0.000000
-12.383400 0.000000
-12.324900 0.000000
-12.266400 0.000000
-12.207900 0.000000
-12.149400 0.000000
-12.090900 0.000000
-12.032400 0.000000
-11.973900 0.000000
-11.915400 0.000000
-11.856900 0.000000
-11.798400 0.000000
-11.739900 0.000000
-11.681400 0.000000
-11.622900 0.000000
-11.564400 0.000000
-11.505900 0.000000
-11.447400 0.000000
-11.388900 0.000000
-11.330400 0.000000
-11.271900 0.000000
-11.213400 0.000000
-11.154900 0.000000
-11.096400 0.000000
-11.037900 0.000000
-10.979400 0.000000
-10.920900 0.000000
-10.862400 0.000000
-10.803900 0.000000
-10.745400 0.000000
-10.686900 0.000000
-10.628400 0.000000
-10.569900 0.000000
-10.511400 0.000000
-10.452900 0.000000
-10.394400 0.000000
-10.335900 0.000000
-10.277400 0.000000
-10.218900 0.000000
-10.160400 0.000000
-10.101900 0.000000
-10.043400 0.000000
-9.984900 0.000000
-9.926400 0.000000
-9.867900 0.000000
-9.809400 0.000000
-9.750900 0.000000
-9.692400 0.000000
-9.633900 0.000000
-9.575400 0.000000
-9.516900 0.000000
-9.458400 0.000000
-9.399900 0.000000
-9.341400 0.000000
-9.282900 0.000000
-9.224400 0.000000
-9.165900 0.000000
-9.107400 0.000000
-9.048900 0.000000
-8.990400 0.000000
-8.931900 0.000000
-8.873400 0.000000
-8.814900 0.000000
-8.756400 0.000000
-8.697900 0.000000
-8.639400 0.000000
-8.580900 0.000000
-8.522400 0.000000
-8.463900 0.000000
-8.405400 0.000000
-8.346900 1.296100
-8.288400 2.388000
-8.229900 2.410200
-8.171400 2.585500
-8.112900 2.701400
-8.054400 2.906800
-7.995900 3.331400
-7.937400 4.230200
-7.878900 5.755100
-7.820400 7.200200
-7.761900 5.472300
-7.703400 4.966400
-7.644900 3.660100
-7.586400 2.959300
-7.527900 2.520200
-7.469400 2.246400
-7.410900 2.022700
-7.352400 1.476100
-7.293900 1.339700
-7.235500 1.246400
-7.177000 1.217800
-7.118500 1.161400
-7.060000 1.037000
-7.001500 1.018600
-6.943000 1.346400
-6.884500 0.335200
-6.826000 0.370300
-6.767500 0.407700
-6.709000 0.462300
-6.650500 0.521500
-6.592000 0.692400
-6.533500 0.849100
-6.475000 0.972000
-6.416500 6.429300
-6.358000 5.839900
-6.299500 5.943000
-6.241000 6.576900
-6.182500 8.391900
-6.124000 7.856600
-6.065500 4.946600
-6.007000 3.699400
-5.948500 2.985500
-5.890000 2.620700
-5.831500 2.420100
-5.773000 2.312600
-5.714500 2.314400
-5.656000 2.355300
-5.597500 2.380700
-5.539000 2.357300
-5.480500 2.408100
-5.422000 2.460800
-5.363500 2.695800
-5.305000 2.988700
-5.246500 3.149400
-5.188000 3.338200
-5.129500 4.943800
-5.071000 4.522100
-5.012500 3.543600
-4.954000 3.171100
-4.895500 2.912800
-4.837000 2.802100
-4.778500 2.619600
-4.720000 2.391500
-4.661500 2.498000
-4.603000 2.288500
-4.544500 2.331500
-4.486000 2.179500
-4.427500 2.183100
-4.369000 2.082900
-4.310500 1.750500
-4.252000 0.000000
-4.193500 0.000000
-4.135000 0.000000
-4.076500 0.000000
-4.018000 0.000000
-3.959500 0.000000
-3.901000 0.000000
-3.842500 0.000000
-3.784000 0.000000
-3.725500 0.000000
-3.667000 0.000000
-3.608500 0.000000
-3.550000 0.000000
-3.491500 0.000000
-3.433000 0.000000
-3.374500 0.000000
-3.316000 0.000000
-3.257500 0.000000
-3.199000 0.000000
-3.140500 0.000000
-3.082000 0.000000
-3.023500 0.000000
-2.965000 0.000000
-2.906500 0.000000
-2.848000 0.000000
-2.789500 0.000000
-2.731000 0.000000
-2.672500 0.000000
-2.614000 0.000000
-2.555500 0.000000
-2.497000 0.000000
-2.438500 0.000000
-2.380000 0.000000
-2.321500 0.000000
-2.263000 0.000000
-2.204500 0.000000
-2.146000 0.000000
-2.087500 0.000000
-2.029000 0.000000
-1.970500 0.000000
-1.912000 0.000000
-1.853500 0.000000
-1.795000 0.000000
-1.736500 0.000000
-1.678000 0.000000
-1.619500 0.000000
-1.561000 0.000000
-1.502500 0.000000
-1.444000 0.011000
-1.385500 0.601900
-1.327000 0.906700
-1.268500 1.340700
-1.210000 1.974400
-1.151500 2.260800
-1.093000 2.394400
-1.034500 2.468200
-0.976000 2.582300
-0.917500 2.760300
-0.859000 2.996300
-0.800500 3.649600
-0.742000 3.623200
-0.683500 3.802200
-0.625000 2.885600
-0.566500 2.258900
-0.508000 1.869500
-0.449500 1.633800
-0.391000 1.325500
-0.332500 1.206300
-0.274000 1.156900
-0.215500 1.242600
-0.157000 1.296500
-0.098500 1.329100
-0.040000 1.366500
0.018500 1.385200
0.077000 1.425000
0.135500 1.478300
0.194000 1.520000
0.252500 1.539700
0.311000 1.567500
0.369500 1.619900
0.428000 1.682600
0.486500 1.740500
0.544900 1.802000
0.603400 1.888000
0.661900 1.961500
0.720400 2.026400
0.778900 2.099200
0.837400 2.238200
0.895900 2.418100
0.954400 2.565600
1.012900 2.676100
1.071400 2.949500
1.129900 3.320000
1.188400 3.718800
1.246900 4.877400
1.305400 5.195800
1.363900 5.038900
1.422400 3.989000
1.480900 3.640300
1.539400 3.399300
1.597900 3.165700
1.656400 3.114900
1.714900 2.945000
1.773400 2.857100
1.831900 2.703200
1.890400 2.662400
1.948900 0.439600
2.007400 0.000000
2.065900 0.000000
2.124400 0.000000
2.182900 0.000000
2.241400 0.000000
2.299900 0.000000
2.358400 0.000000
2.416900 0.000000
2.475400 0.000000
2.533900 0.000000
2.592400 0.000000
2.650900 0.000000
2.709400 0.000000
2.767900 0.000000
2.826400 0.000000
2.884900 0.000000
2.943400 0.000000
3.001900 0.000000
3.060400 0.000000
3.118900 0.000000
3.177400 0.000000
3.235900 0.000000
3.294400 0.000000
3.352900 0.000000
3.411400 0.000000
3.469900 0.000000
3.528400 0.000000
3.586900 0.000000
3.645400 0.000000
3.703900 0.000000
3.762400 0.000000
3.820900 0.000000
3.879400 0.000000
3.937900 0.000000
3.996400 0.000000
4.054900 0.000000
4.113400 0.000000
4.171900 0.000000
4.230400 0.000000
4.288900 0.000000
4.347400 0.000000
4.405900 0.000000
4.464400 0.000000
4.522900 0.000000
4.581400 0.000000
4.639900 0.000000
4.698400 0.000000
4.756900 0.000000
4.815400 0.000000
4.873900 0.000000
4.932400 0.000000
4.990900 0.000000
5.049400 0.000000
5.107900 0.000000
5.166400 0.000000
5.224900 0.000000
5.283400 0.000000
5.341900 0.000000
5.400400 0.000000
5.458900 0.000000
5.517400 0.000000
5.575900 0.000000
5.634400 0.000000
5.692900 0.000000
5.751400 0.000000
5.809900 0.000000
5.868400 0.000000
5.926900 0.000000
5.985400 0.000000
6.043900 0.000000
6.102400 0.000000
6.160900 0.000000
6.219400 0.000000
6.277900 0.000000
6.336400 0.000000
6.394900 0.000000
6.453400 0.000000
6.511900 0.000000
6.570400 0.000000
6.628900 0.000000
6.687400 0.000700
6.745900 0.036400
6.804400 0.073200
6.862900 0.112500
6.921400 0.127600
6.979900 0.143400
7.038400 0.159400
7.096900 0.179100
7.155400 0.196100
7.213900 0.211900
7.272400 0.231200
7.330900 0.251300
7.389400 0.265200
7.447900 0.278200
7.506400 0.292100
7.564900 0.308000
7.623400 0.324500
7.681900 0.341100
7.740400 0.356600
7.798900 0.372300
7.857400 0.390100
7.915900 0.408700
7.974400 0.427400
8.032900 0.446100
8.091400 0.462500
8.149900 0.480600
8.208400 0.499700
8.266900 0.518900
8.325300 0.538500
8.383800 0.558400
8.442300 0.578800
8.500800 0.602600
8.559300 0.627000
8.617800 0.651700
8.676300 0.677000
8.734800 0.702900
8.793300 0.729300
8.851800 0.760900
8.910300 0.795800
8.968800 0.830600
9.027300 0.865900
9.085800 0.902300
9.144300 0.940900
9.202800 0.986000
9.261300 1.041900
9.319800 1.099800
9.378300 1.161900
9.436800 1.229000
9.495300 1.309400
9.553800 1.406800
9.612300 1.537900
9.670800 1.716200
9.729300 2.143400
9.787800 2.130600
9.846300 2.197000
9.904800 2.207700
9.963300 2.231000
10.021800 2.225200
10.080300 2.266200
10.138800 2.372500
10.197300 2.389000
10.255800 2.187800
10.314300 2.273300
10.372800 2.401500
10.431300 2.950900
10.489800 3.095000
10.548300 2.303500
10.606800 1.654200
10.665300 1.050100
10.723800 0.185100
10.782300 0.000000
10.840800 0.005700
10.899300 0.015100
10.957800 0.024900
11.016300 0.035600
11.074800 0.046200
11.133300 0.057600
11.191800 0.069700
11.250300 0.082400
11.308800 0.095600
11.367300 0.109500
11.425800 0.125900
11.484300 0.145700
11.542800 0.165200
11.601300 0.185000
11.659800 0.203700
11.718300 0.222700
11.776800 0.243100
11.835300 0.274200
11.893800 0.307700
11.952300 0.403900
12.010800 0.500800
12.069300 0.463100
12.127800 0.484700
12.186300 0.507300
12.244800 0.528500
12.303300 0.546100
12.361800 0.552600
12.420300 0.558000
12.478800 0.573100
12.537300 0.591000
12.595800 0.607500
12.654300 0.620800
12.712800 0.633300
12.771300 0.647900
12.829800 0.665400
12.888300 0.680600
12.946800 0.695300
13.005300 0.723100
13.063800 0.784000
13.122300 0.805500
13.180800 0.834200
13.239300 0.873400
13.297800 0.916000
13.356300 0.952800
13.414800 0.984600
13.473300 1.013000
13.531800 1.043400
13.590300 1.082600
13.648800 1.129600
13.707300 1.182600
13.765800 1.229000
13.824300 1.283200
13.882800 1.334600
13.941300 1.406400
13.999800 1.495400
14.058300 1.593800
14.116800 1.860700
14.175300 1.912700
14.233800 1.886300
14.292300 1.908500
14.350800 1.913700
14.409300 1.903700
14.467800 1.855600
14.526300 1.819500
14.584800 1.825100
14.643300 1.837500
14.701800 1.867700
14.760300 1.883300
14.818800 1.907200
14.877300 1.942700
14.935800 2.095400
14.994300 2.246900
15.052800 2.124400
15.111300 2.087700
15.169800 2.056700
15.228300 2.046100
15.286800 1.883500
15.345300 1.766400
15.403800 1.701200
15.462300 1.809800
15.520800 1.989500
15.579300 2.184200
15.637800 2.623300
15.696300 2.636400
15.754800 2.673200
15.813300 2.908800
15.871800 2.824700
15.930300 2.717500
15.988800 2.596200
16.047200 2.329900
16.105700 2.081200
16.164200 1.942600
16.222700 1.793400
16.281200 1.736300
16.339700 1.635200
16.398200 1.484100
16.456700 1.400300
16.515200 1.369700
16.573700 1.331800
16.632200 1.300600
16.690700 1.295700
16.749200 1.305800
16.807700 1.337800
16.866200 1.268200
16.924700 1.177300
16.983200 1.142700
17.041700 1.166000
17.100200 1.320000
17.158700 1.265200
17.217200 1.295700
17.275700 1.216500
17.334200 1.370100
17.392700 0.814400
17.451200 0.771300
17.509700 0.677200
17.568200 0.611000
17.626700 0.709300
17.685200 0.818600
17.743700 0.943400
17.802200 1.216500
17.860700 2.145000
17.919200 1.802400
17.977700 1.875600
18.036200 1.976100
18.094700 1.904300
18.153200 1.917000
18.211700 1.975900
18.270200 2.015700
18.328700 2.007500
18.387200 1.962600
18.445700 2.163000
18.504200 2.276200
18.562700 1.926400
18.621200 1.800500
18.679700 1.717600
18.738200 1.640500
18.796700 1.585100
18.855200 1.419400
18.913700 1.375000
18.972200 1.352200
19.030700 1.257400
19.089200 1.167700
19.147700 1.106600
19.206200 1.031100
19.264700 0.893200
19.323200 0.862900
19.381700 0.894300
19.440200 0.856800
19.498700 0.877400
19.557200 0.927500
19.615700 0.995800
19.674200 1.111800
19.732700 1.093100
19.791200 1.111600
19.849700 1.163800
19.908200 1.228400
19.966700 1.309800
20.025200 1.506900
20.083700 1.678500
20.142200 1.898500
20.200700 2.271800
20.259200 2.262100
20.317700 2.308000
20.376200 2.212700
20.434700 2.112000
20.493200 2.156600
20.551700 2.310400
20.610200 2.433900
20.668700 2.638900
20.727200 2.887800
20.785700 3.305600
20.844200 3.558100
20.902700 3.235400
20.961200 3.092300
21.019700 3.030500
21.078200 2.864700
21.136700 2.436600
21.195200 2.150600
21.253700 2.010400
21.312200 1.921100
21.370700 1.733400
21.429200 1.632400
21.487700 1.571900
21.546200 1.533700
21.604700 1.499500
21.663200 1.490200
21.721700 1.468900
21.780200 1.457000
21.838700 1.450000
21.897200 1.457700
21.955700 1.481400
22.014200 1.523900
22.072700 1.634500
22.131200 1.674400
22.189700 1.699700
22.248200 1.705900
22.306700 1.653800
22.365200 1.574000
22.423700 1.492300
22.482200 1.429400
22.540700 1.405400
22.599200 1.380900
22.657700 1.355700
22.716200 1.327200
22.774700 1.290600
22.833200 1.261300
22.891700 1.246300
22.950200 1.226100
23.008700 1.204000
23.067200 1.176300
23.125700 1.155900
23.184200 1.139200
23.242700 1.122400
23.301200 1.106300
23.359700 1.089800
23.418200 1.071500
23.476700 1.054700
23.535200 1.039200
23.593700 1.023500
23.652200 1.008300
23.710700 0.993800
23.769200 0.993500
23.827600 0.988900
23.886100 0.977200
23.944600 0.963700
24.003100 0.964700
24.061600 1.040100
24.120100 1.087200
24.178600 0.985300
24.237100 0.862100
24.295600 0.797300
24.354100 0.855700
24.412600 1.223800
24.471100 1.461900
24.529600 1.613800
24.588100 1.296300
24.646600 1.105500
24.705100 1.078500
24.763600 1.062100
24.822100 1.053600
24.880600 1.049200
24.939100 1.044600
24.997600 0.979500
25.056100 0.956900
25.114600 0.938700
25.173100 0.922700
25.231600 0.909900
25.290100 0.899200
25.348600 0.890200
25.407100 0.882800
25.465600 0.878500
25.524100 0.869000
25.582600 0.934300
25.641100 1.065200
25.699600 1.059600
25.758100 1.128100
25.816600 1.180800
25.875100 1.268900
25.933600 1.200200
25.992100 1.233100
26.050600 1.270500
26.109100 1.316900
26.167600 1.363500
26.226100 1.418700
26.284600 1.473200
26.343100 1.390400
26.401600 1.404200
26.460100 1.415200
26.518600 1.465700
26.577100 1.546200
26.635600 1.733100
26.694100 1.957100
26.752600 2.142800
26.811100 2.196200
26.869600 1.725300
26.928100 1.703400
26.986600 1.406000
27.045100 1.364300
27.103600 1.384600
27.162100 1.481700
27.220600 1.532700
27.279100 1.535300
27.337600 1.566800
27.396100 1.575600
27.454600 1.531300
27.513100 1.457200
27.571600 1.443800
27.630100 1.429000
27.688600 1.483300
27.747100 1.562200
27.805600 1.656300
27.864100 1.719200
27.922600 1.716400
27.981100 1.509500
28.039600 1.313400
28.098100 1.116400
28.156600 0.901300
28.215100 0.713100
28.273600 0.547500
28.332100 0.536300
28.390600 0.575300
28.449100 0.662500
28.507600 0.734400
28.566100 0.817000
28.624600 0.920800
28.683100 1.035800
28.741600 1.214400
28.800100 1.428800
28.858600 1.683000
28.917100 1.993000
28.975600 2.447800
29.034100 2.936000
29.092600 3.342900
29.151100 3.779900
29.209600 4.175600
29.268100 4.041600
29.326600 3.826600
29.385100 3.782100
29.443600 3.387600
29.502100 2.920900
29.560600 2.736000
29.619100 2.292600
29.677600 2.071400
29.736100 1.999100
29.794600 1.823300
29.853100 1.857900
29.911600 1.660300
29.970100 1.304400
30.028600 1.055300
30.087100 0.788000
30.145600 0.572800
30.204100 0.702800
30.262600 1.006300
30.321100 1.206200
30.379600 1.243500
30.438100 1.270600
30.496600 1.390700
30.555100 1.514400
30.613600 1.660300
30.672100 1.852700
30.730600 1.865200
30.789100 1.725400
30.847600 1.559800
30.906100 1.487200
30.964600 1.465800
31.023100 1.574100
31.081600 1.803400
31.140100 1.791800
31.198600 1.806700
31.257100 1.895700
31.315600 1.977100
31.374100 2.054200
31.432600 2.073300
31.491100 2.114700
31.549600 2.277500
31.608000 2.448300
31.666500 2.375000
31.725000 2.137100
31.783500 2.064100
31.842000 1.943500
31.900500 1.848300
31.959000 1.726900
32.017500 1.623900
32.076000 1.560800
32.134500 1.590300
32.193000 1.721600
32.251500 1.772900
32.310000 1.788100
32.368500 1.866500
32.427000 2.027900
32.485500 2.193100
32.544000 2.402400
32.602500 2.426600
32.661000 2.487600
32.719500 2.641200
32.778000 2.593700
32.836500 2.698200
32.895000 2.704800
32.953500 2.697800
33.012000 2.719300
33.070500 2.693500
33.129000 2.646500
33.187500 2.685700
33.246000 2.780200
33.304500 2.860500
33.363000 2.773200
33.421500 2.758200
33.480000 3.154600
33.538500 3.224900
33.597000 3.168700
33.655500 2.864700
33.714000 2.810700
33.772500 2.710100
33.831000 2.358100
33.889500 2.106600
33.948000 1.983600
34.006500 1.852300
34.065000 1.750900
34.123500 1.660200
34.182000 1.611600
34.240500 1.584600
34.299000 1.588400
34.357500 1.604100
34.416000 1.675600
34.474500 1.712100
34.533000 1.676000
34.591500 1.977900
34.650000 1.258100
34.708500 1.079300
34.767000 0.977000
34.825500 0.921800
34.884000 0.942600
34.942500 0.956400
35.001000 0.967300
35.059500 1.073800
35.118000 1.246900
35.176500 1.332800
35.235000 1.407500
35.293500 1.463600
35.352000 1.484900
35.410500 1.510200
35.469000 1.566200
35.527500 1.600800
35.586000 1.616500
35.644500 1.678000
35.703000 1.896100
35.761500 1.872200
35.820000 1.763000
35.878500 1.665200
35.937000 1.583700
35.995500 1.520700
36.054000 1.474600
36.112500 1.470900
36.171000 1.434600
36.229500 1.429800
36.288000 1.327100
36.346500 1.280900
36.405000 1.443000
36.463500 1.341400
36.522000 1.291600
36.580500 1.244600
36.639000 1.178000
36.697500 1.058000
36.756000 0.979600
36.814500 0.943000
36.873000 1.071600
36.931500 1.141900
36.990000 1.192400
37.048500 1.331000
37.107000 1.527400
37.165500 1.731300
37.224000 1.590800
37.282500 1.677100
37.341000 1.757200
37.399500 1.823800
37.458000 1.633100
37.516500 1.478400
37.575000 1.515600
37.633500 1.551500
37.692000 1.589800
37.750500 1.639400
37.809000 1.666200
37.867500 1.711100
37.926000 1.757900
37.984500 1.776700
38.043000 1.791200
38.101500 1.880200
38.160000 1.975000
38.218500 2.069900
38.277000 2.114500
38.335500 2.125200
38.394000 2.046000
38.452500 2.031700
38.511000 2.016300
38.569500 2.033500
38.628000 2.062700
38.686500 1.868200
38.745000 1.814100
38.803500 1.799200
38.862000 1.744300
38.920500 1.692800
38.979000 1.642900
39.037500 1.614300
39.096000 1.645000
39.154500 1.695500
39.213000 1.541100
39.271500 1.472100
39.330000 1.431800
39.388400 1.426800
39.446900 1.565100
39.505400 1.512600
39.563900 1.518900
39.622400 1.473900
39.680900 1.469500
39.739400 1.488500
39.797900 1.520000
39.856400 1.481600
39.914900 1.467600
39.973400 1.710100
40.031900 2.110300
40.090400 2.314800
40.148900 2.416400
40.207400 2.316300
40.265900 2.291900
40.324400 2.325800
40.382900 2.274300
40.441400 2.272000
40.499900 2.271300
40.558400 2.385500
40.616900 2.504800
40.675400 2.548400
40.733900 2.503500
40.792400 2.505300
40.850900 2.350100
40.909400 2.113100
40.967900 2.035000
41.026400 1.976200
41.084900 1.936300
41.143400 1.922300
41.201900 1.909600
41.260400 1.947500
41.318900 1.987800
41.377400 2.043100
41.435900 2.013100
41.494400 1.957100
41.552900 1.994000
41.611400 1.978900
41.669900 1.940600
41.728400 1.941800
41.786900 2.000400
41.845400 2.139600
41.903900 2.421300
41.962400 2.539500
42.020900 2.660500
42.079400 2.663800
42.137900 2.935900
42.196400 3.033400
42.254900 3.067400
42.313400 2.969600
42.371900 2.921500
42.430400 3.358500
42.488900 3.769500
42.547400 4.248200
42.605900 3.939800
42.664400 3.757000
42.722900 3.651400
42.781400 3.421500
42.839900 3.395500
42.898400 3.813500
42.956900 3.667400
43.015400 3.736900
43.073900 3.665500
43.132400 3.581400
43.190900 3.420700
43.249400 3.499000
43.307900 3.402600
43.366400 3.047400
43.424900 2.928200
43.483400 3.154500
43.541900 3.312300
43.600400 3.360000
43.658900 3.446800
43.717400 3.565800
43.775900 3.207800
43.834400 3.109500
43.892900 2.874300
43.951400 2.425900
44.009900 2.239900
44.068400 2.102200
44.126900 2.107700
44.185400 2.212100
44.243900 2.450600
44.302400 2.886000
44.360900 2.322200
44.419400 2.308600
44.477900 2.140200
44.536400 1.999000
44.594900 1.903200
44.653400 1.771000
44.711900 1.808500
44.770400 2.045900
44.828900 2.388400
44.887400 2.532000
44.945900 2.884500
45.004400 3.195900
45.062900 3.269100
45.121400 3.322200
45.179900 3.245200
45.238400 3.012600
45.296900 2.521700
45.355400 2.223600
45.413900 2.012700
45.472400 1.888700
45.530900 1.669600
45.589400 1.700900
45.647900 1.744000
45.706400 1.894300
45.764900 1.897200
45.823400 1.883500
45.881900 1.873800
45.940400 1.939200
45.998900 2.012400
46.057400 2.051700
46.115900 2.156200
46.174400 2.002500
46.232900 1.914100
46.291400 1.909100
46.349900 1.931700
46.408400 1.953500
46.466900 2.025000
46.525400 2.110700
46.583900 2.119800
46.642400 2.136000
46.700900 2.160600
46.759400 2.255400
46.817900 2.390400
46.876400 2.383800
46.934900 2.418700
46.993400 2.967600
47.051900 2.553500
47.110400 2.338600
47.168800 2.322900
47.227300 2.373300
47.285800 2.512100
47.344300 2.696700
47.402800 2.464900
47.461300 2.385700
47.519800 2.483100
47.578300 2.265200
47.636800 2.082900
47.695300 1.943100
47.753800 1.902900
47.812300 1.897700
47.870800 1.973400
47.929300 2.147200
47.987800 2.364100
48.046300 2.375500
48.104800 2.161500
48.163300 2.041000
48.221800 1.916600
48.280300 1.898200
48.338800 1.909800
48.397300 1.909200
48.455800 1.895300
48.514300 1.880900
48.572800 1.871700
48.631300 1.867800
48.689800 1.892900
48.748300 1.953300
48.806800 2.101600
48.865300 2.304100
48.923800 2.243100
48.982300 2.142700
49.040800 2.022500
49.099300 2.005000
49.157800 2.074900
49.216300 1.757300
49.274800 1.697700
49.333300 1.674500
49.391800 1.701700
49.450300 1.763800
49.508800 1.863200
49.567300 1.973100
49.625800 2.140700
49.684300 2.262100
49.742800 2.304000
49.801300 2.328300
49.859800 2.308300
49.918300 2.490900
49.976800 2.220100
50.035300 1.992700
50.093800 2.051900
50.152300 2.020300
50.210800 1.917900
50.269300 1.854600
50.327800 1.851200
50.386300 1.838500
50.444800 1.881200
50.503300 2.000900
50.561800 2.060000
50.620300 2.165000
50.678800 2.298500
50.737300 2.526200
50.795800 2.868600
50.854300 3.219700
50.912800 3.118600
50.971300 2.786500
51.029800 2.553800
51.088300 2.358000
51.146800 2.222000
51.205300 2.168900
51.263800 1.726100
51.322300 1.650800
51.380800 1.730600
51.439300 1.773700
51.497800 1.827500
51.556300 1.945300
51.614800 2.243200
51.673300 2.159000
51.731800 2.172000
51.790300 2.200400
51.848800 2.225200
51.907300 2.218200
51.965800 2.035700
52.024300 1.960500
52.082800 2.086000
52.141300 2.182300
52.199800 2.243100
52.258300 2.334700
52.316800 2.477600
52.375300 2.593600
52.433800 2.637900
52.492300 2.545700
52.550800 2.484800
52.609300 2.449500
52.667800 2.369400
52.726300 2.289300
52.784800 2.152800
52.843300 1.992600
52.901800 1.961800
52.960300 1.810800
53.018800 1.707600
53.077300 1.734700
53.135800 1.821800
53.194300 1.848400
53.252800 1.861100
53.311300 1.899100
53.369800 1.915200
53.428300 1.931200
53.486800 1.944400
53.545300 1.925600
53.603800 1.955300
53.662300 1.998900
53.720800 2.089600
53.779300 2.197500
53.837800 2.272100
53.896300 2.357800
53.954800 2.386300
54.013300 2.371100
54.071800 2.374800
54.130300 2.376400
54.188800 2.341600
54.247300 2.259800
54.305800 2.271600
54.364300 2.273300
54.422800 2.398700
54.481300 2.528000
54.539800 2.566800
54.598300 2.584100
54.656800 2.421000
54.715300 2.290400
54.773800 2.028200
54.832300 1.949800
54.890700 1.927500
54.949200 2.085300
55.007700 2.354700
55.066200 2.470500
55.124700 2.532600
55.183200 2.591100
55.241700 2.647700
55.300200 2.838200
55.358700 2.995000
55.417200 3.147900
55.475700 3.206000
55.534200 3.118100
55.592700 2.920300
55.651200 2.722100
55.709700 2.608300
55.768200 2.478700
55.826700 2.459200
55.885200 2.517900
55.943700 2.549400
56.002200 2.670000
56.060700 2.746800
56.119200 2.666800
56.177700 2.589600
56.236200 2.551000
56.294700 2.539700
56.353200 2.529900
56.411700 2.514700
56.470200 2.519700
56.528700 2.479500
56.587200 2.389100
56.645700 2.442200
56.704200 2.431600
56.762700 2.391900
56.821200 2.299200
56.879700 2.199600
56.938200 2.165600
56.996700 2.136200
57.055200 2.144100
57.113700 2.234400
57.172200 2.434000
57.230700 2.401600
57.289200 2.371900
57.347700 2.260600
57.406200 2.053300
57.464700 2.008400
57.523200 1.955000
57.581700 2.100200
57.640200 2.308300
57.698700 2.379200
57.757200 2.339700
57.815700 2.386400
57.874200 2.617000
57.932700 2.840400
57.991200 2.811500
58.049700 2.735400
58.108200 2.633000
58.166700 2.503200
58.225200 2.381500
58.283700 2.286800
58.342200 2.246200
58.400700 2.136600
58.459200 2.018300
58.517700 1.913100
58.576200 1.912700
58.634700 1.949500
58.693200 1.967800
58.751700 1.961300
58.810200 1.942500
58.868700 1.898600
58.927200 1.913800
58.985700 2.071500
59.044200 2.225200
59.102700 2.282700
59.161200 2.311500
59.219700 2.373700
59.278200 2.385300
59.336700 2.403800
59.395200 2.462300
59.453700 2.533000
59.512200 2.403700
59.570700 2.208100
59.629200 2.298700
59.687700 2.298900
59.746200 2.368400
59.804700 2.377500
59.863200 2.401100
59.921700 2.399000
59.980200 2.308100
60.038700 2.297500
60.097200 2.406200
60.155700 2.547500
60.214200 2.628800
60.272700 2.643900
60.331200 2.610400
60.389700 2.547800
60.448200 2.423300
60.506700 2.196600
60.565200 2.102100
60.623700 2.058400
60.682200 2.122600
60.740700 2.062600
60.799200 1.934500
60.857700 1.887800
60.916200 1.884800
60.974700 1.876500
61.033200 1.756800
61.091700 1.772100
61.150200 1.816000
61.208700 1.867300
61.267200 1.924600
61.325700 1.970400
61.384200 1.992700
61.442700 2.013000
61.501200 2.171700
61.559700 2.431400
61.618200 2.770200
61.676700 3.062600
61.735200 3.320900
61.793700 3.637600
61.852200 3.549900
61.910700 3.196300
61.969200 2.996500
62.027700 2.834900
62.086200 2.802300
62.144700 2.844300
62.203200 2.692100
62.261700 2.622000
62.320200 2.696500
62.378700 2.844000
62.437200 2.922700
62.495700 2.895400
62.554200 2.800100
62.612700 2.993200
62.671100 2.759100
62.729600 2.623700
62.788100 2.569200
62.846600 2.453800
62.905100 2.403300
62.963600 2.336500
63.022100 2.256400
63.080600 2.303600
63.139100 2.358800
63.197600 2.504100
63.256100 2.614700
63.314600 2.694200
63.373100 2.706500
63.431600 2.710300
63.490100 2.735000
63.548600 2.636700
63.607100 2.597600
63.665600 2.586000
63.724100 2.452300
63.782600 2.533700
63.841100 2.864300
63.899600 2.938700
63.958100 2.840700
64.016600 2.705700
64.075100 2.613400
64.133600 2.558900
64.192100 2.668300
64.250600 2.756500
64.309100 2.703100
64.367600 2.665300
64.426100 2.736000
64.484600 2.868100
64.543100 3.069600
64.601600 3.384600
64.660100 3.286100
64.718600 3.139000
64.777100 2.827000
64.835600 2.672600
64.894100 2.420000
64.952600 2.344400
65.011100 2.420500
65.069600 2.508000
65.128100 2.581400
65.186600 2.648900
65.245100 2.684900
65.303600 2.720400
65.362100 2.905300
65.420600 3.223600
65.479100 3.295500
65.537600 3.396600
65.596100 3.166400
65.654600 3.050300
65.713100 2.974000
65.771600 3.153100
65.830100 3.230100
65.888600 3.131100
65.947100 3.003800
66.005600 2.857300
66.064100 2.621300
66.122600 2.449200
66.181100 2.428200
66.239600 2.570000
66.298100 2.351200
66.356600 2.331000
66.415100 2.441500
66.473600 2.528600
66.532100 2.659600
66.590600 2.756900
66.649100 2.859200
66.707600 2.857600
66.766100 2.818300
66.824600 2.651700
66.883100 2.438700
66.941600 2.436300
67.000100 2.596500
67.058600 2.525400
67.117100 2.468400
67.175600 2.293800
67.234100 2.235400
67.292600 2.206700
67.351100 2.241400
67.409600 2.360400
67.468100 2.724300
67.526600 3.286400
67.585100 3.437300
67.643600 3.484500
67.702100 3.149200
67.760600 2.932700
67.819100 2.964400
67.877600 2.883900
67.936100 2.973400
67.994600 3.017000
68.053100 3.059900
68.111600 3.102300
68.170100 3.125900
68.228600 3.054600
68.287100 2.954800
68.345600 2.764400
68.404100 2.568500
68.462600 2.501100
68.521100 2.536200
68.579600 2.622400
68.638100 2.687700
68.696600 2.709900
68.755100 2.800600
68.813600 2.799300
68.872100 2.836800
68.930600 2.807600
68.989100 2.824100
69.047600 2.507600
69.106100 2.392300
69.164600 2.326000
69.223100 2.298200
69.281600 2.408300
69.340100 2.482900
69.398600 2.455700
69.457100 2.445100
69.515600 2.487600
69.574100 2.611500
69.632600 2.806900
69.691100 2.815100
69.749600 2.810800
69.808100 2.790500
69.866600 2.757700
69.925100 2.659700
69.983600 2.534000
70.042100 2.446100
70.100600 2.390800
70.159100 2.325000
70.217600 2.177100
70.276100 2.075000
70.334600 1.991000
70.393100 2.131100
70.451500 2.314600
70.510000 2.314500
70.568500 2.178900
70.627000 2.085600
70.685500 2.077200
70.744000 2.099600
70.802500 2.123400
70.861000 2.136400
70.919500 2.192200
70.978000 2.331900
71.036500 2.438500
71.095000 2.528000
71.153500 2.522400
71.212000 2.602800
71.270500 2.712300
71.329000 2.887100
71.387500 3.085200
71.446000 3.354300
71.504500 3.378600
71.563000 3.275600
71.621500 3.100600
71.680000 2.978600
71.738500 2.748200
71.797000 2.711800
71.855500 2.744200
71.914000 2.852300
71.972500 2.897800
72.031000 2.700100
72.089500 2.541900
72.148000 2.362500
72.206500 2.242700
72.265000 2.225100
72.323500 2.200600
72.382000 2.219100
72.440500 2.266400
72.499000 2.383500
72.557500 2.530300
72.616000 2.627600
72.674500 2.435900
72.733000 2.132600
72.791500 1.894300
72.850000 1.729800
72.908500 1.645200
72.967000 1.583700
73.025500 1.571200
73.084000 1.687300
73.142500 1.468600
73.201000 1.326200
73.259500 1.231900
73.318000 1.115800
73.376500 1.017000
73.435000 0.972600
73.493500 0.955300
73.552000 0.920000
73.610500 0.867100
73.669000 0.847500
73.727500 0.839200
73.786000 0.829200
73.844500 0.817900
73.903000 0.810100
73.961500 0.817400
74.020000 0.841600
74.078500 0.869600
74.137000 0.889600
74.195500 0.842000
74.254000 0.794400
74.312500 0.738500
74.371000 0.701400
74.429500 0.644800
74.488000 0.603900
74.546500 0.580700
74.605000 0.560600
74.663500 0.547400
74.722000 0.543600
74.780500 0.555900
74.839000 0.558500
74.897500 0.571300
74.956000 0.598700
75.014500 0.632100
75.073000 0.610700
75.131500 0.656700
75.190000 0.587500
75.248500 0.482600
75.307000 0.407200
75.365500 0.355800
75.424000 0.315200
75.482500 0.280600
75.541000 0.251400
75.599500 0.226500
75.658000 0.205600
75.716500 0.188800
75.775000 0.176200
75.833500 0.165600
75.892000 0.155700
75.950500 0.146400
76.009000 0.137400
76.067500 0.128600
76.126000 0.120200
76.184500 0.111500
76.243000 0.104100
76.301500 0.098700
76.360000 0.093800
76.418500 0.089200
76.477000 0.085000
76.535500 0.081100
76.594000 0.077500
76.652500 0.074100
76.711000 0.071000
76.769500 0.068400
76.828000 0.066200
76.886500 0.063900
76.945000 0.061600
77.003500 0.059400
77.062000 0.057200
77.120500 0.055000
77.179000 0.052900
77.237500 0.050800
77.296000 0.048700
77.354500 0.046700
77.413000 0.044700
77.471500 0.042800
77.530000 0.041000
77.588500 0.039300
77.647000 0.037900
77.705500 0.036800
77.764000 0.035900
77.822500 0.035300
77.881000 0.035000
77.939500 0.034600
77.998000 0.032400
78.056500 0.030300
78.115000 0.028100
78.173500 0.025900
78.231900 0.023800
78.290400 0.021700
78.348900 0.019600
78.407400 0.017400
78.465900 0.015600
78.524400 0.014200
78.582900 0.012800
78.641400 0.011600
78.699900 0.010400
78.758400 0.009400
78.816900 0.008300
78.875400 0.007400
78.933900 0.006500
78.992400 0.005600
79.050900 0.004800
79.109400 0.004000
79.167900 0.003300
79.226400 0.002700
79.284900 0.002100
79.343400 0.001600
79.401900 0.001200
79.460400 0.000800
79.518900 0.000500
79.577400 0.000300
79.635900 0.000100
79.694400 0.000000
79.752900 0.000000
79.811400 0.000000
79.869900 0.000000
79.928400 0.000000
79.986900 0.000000
80.045400 0.000000
80.103900 0.000000
80.162400 0.000000
80.220900 0.000000
80.279400 0.000000
80.337900 0.000000
80.396400 0.000000
80.454900 0.000000
80.513400 0.000000
80.571900 0.000000
80.630400 0.000000
80.688900 0.000000
80.747400 0.000000
80.805900 0.000000
80.864400 0.000000
80.922900 0.000000
80.981400 0.000000
81.039900 0.000000
81.098400 0.000000
81.156900 0.000000
81.215400 0.000000
81.273900 0.000000
81.332400 0.000000
81.390900 0.000000
81.449400 0.000000
81.507900 0.000000
81.566400 0.000000
81.624900 0.000000
81.683400 0.000000
81.741900 0.000000
81.800400 0.000000
81.858900 0.000000
81.917400 0.000000
81.975900 0.000000
82.034400 0.000000
82.092900 0.000000
82.151400 0.000000
82.209900 0.000000
82.268400 0.000000
82.326900 0.000000
82.385400 0.000000
82.443900 0.000000
82.502400 0.000000
82.560900 0.000000
82.619400 0.000000
82.677900 0.000000
82.736400 0.000000
82.794900 0.000000
82.853400 0.000000
82.911900 0.000000
82.970400 0.000000
83.028900 0.000000
83.087400 0.000000
83.145900 0.000000
83.204400 0.000000
83.262900 0.000000
83.321400 0.000000
83.379900 0.000000
83.438400 0.000000
83.496900 0.000000
83.555400 0.000000
83.613900 0.000000
83.672400 0.000000
83.730900 0.000000
83.789400 0.000000
83.847900 0.000000
83.906400 0.000000
83.964900 0.000000
84.023400 0.000000
84.081900 0.000000
84.140400 0.000000
84.198900 0.000000
84.257400 0.000000
84.315900 0.000000
84.374400 0.000000
84.432900 0.000000
84.491400 0.000000
84.549900 0.000000
84.608400 0.000000
84.666900 0.000000
84.725400 0.000000
84.783900 0.000000
84.842400 0.000000
84.900900 0.000000
84.959400 0.000000
85.017900 0.000000
85.076400 0.000000
e
