set title 'mp-1216391 - Density of States'
set xlabel 'Energy (eV)'
set ylabel 'DOS (states/eV)'
set grid
set xrange [-10:10]
set yrange [0:6.556]
set xzeroaxis lt -1
set terminal png size 800,600
set output 'mp-1216391_dos_gnuplot.png'
plot '-' using 1:2 with lines title 'DOS'
-36.988000 0.000000
-36.938200 0.000000
-36.888500 0.000000
-36.838700 0.000000
-36.788900 0.000000
-36.739100 0.000000
-36.689300 0.000000
-36.639600 0.000000
-36.589800 0.000000
-36.540000 0.000000
-36.490200 0.000000
-36.440400 0.000000
-36.390700 0.000000
-36.340900 0.000000
-36.291100 0.000000
-36.241300 0.000000
-36.191500 0.000000
-36.141800 0.000000
-36.092000 0.000000
-36.042200 0.000000
-35.992400 0.000000
-35.942600 0.000000
-35.892800 0.000000
-35.843100 0.000000
-35.793300 0.000000
-35.743500 0.000000
-35.693700 0.000000
-35.643900 0.000000
-35.594200 0.000000
-35.544400 0.000000
-35.494600 0.000000
-35.444800 0.000000
-35.395000 0.000000
-35.345300 0.000000
-35.295500 0.000000
-35.245700 0.000000
-35.195900 0.000000
-35.146100 0.000000
-35.096400 0.000000
-35.046600 0.000000
-34.996800 0.000000
-34.947000 0.000000
-34.897200 0.000000
-34.847400 0.000000
-34.797700 0.000000
-34.747900 0.000000
-34.698100 0.000000
-34.648300 0.000000
-34.598500 0.000000
-34.548800 0.000000
-34.499000 0.000000
-34.449200 0.000000
-34.399400 0.000000
-34.349600 0.000000
-34.299900 0.000000
-34.250100 0.000000
-34.200300 0.000000
-34.150500 0.000000
-34.100700 0.000000
-34.051000 0.000000
-34.001200 0.000000
-33.951400 0.000000
-33.901600 0.000000
-33.851800 0.000000
-33.802000 0.000000
-33.752300 0.000000
-33.702500 0.000000
-33.652700 0.000000
-33.602900 0.000000
-33.553100 0.000000
-33.503400 0.000000
-33.453600 0.000000
-33.403800 0.000000
-33.354000 0.000000
-33.304200 0.000000
-33.254500 0.000000
-33.204700 0.000000
-33.154900 0.000000
-33.105100 0.000000
-33.055300 0.000000
-33.005600 0.000000
-32.955800 0.000000
-32.906000 0.000000
-32.856200 0.000000
-32.806400 0.000000
-32.756600 0.000000
-32.706900 0.000000
-32.657100 0.000000
-32.607300 0.000000
-32.557500 0.000000
-32.507700 0.000000
-32.458000 7.322100
-32.408200 39.687500
-32.358400 10.664300
-32.308600 8.681700
-32.258800 5.187500
-32.209100 6.554000
-32.159300 8.598500
-32.109500 14.058700
-32.059700 12.371000
-32.009900 9.595800
-31.960200 0.000000
-31.910400 0.000000
-31.860600 0.000000
-31.810800 0.000000
-31.761000 0.000000
-31.711200 0.000000
-31.661500 0.000000
-31.611700 0.000000
-31.561900 0.000000
-31.512100 0.000000
-31.462300 0.000000
-31.412600 0.000000
-31.362800 0.000000
-31.313000 0.000000
-31.263200 0.000000
-31.213400 0.000000
-31.163700 0.000000
-31.113900 0.000000
-31.064100 0.000000
-31.014300 0.000000
-30.964500 0.000000
-30.914800 0.000000
-30.865000 0.000000
-30.815200 0.000000
-30.765400 0.000000
-30.715600 0.000000
-30.665800 0.000000
-30.616100 0.000000
-30.566300 0.000000
-30.516500 0.000000
-30.466700 0.000000
-30.416900 0.000000
-30.367200 0.000000
-30.317400 0.000000
-30.267600 0.000000
-30.217800 0.000000
-30.168000 0.000000
-30.118300 0.000000
-30.068500 0.000000
-30.018700 0.000000
-29.968900 0.000000
-29.919100 0.000000
-29.869400 0.000000
-29.819600 0.000000
-29.769800 0.000000
-29.720000 0.000000
-29.670200 0.000000
-29.620400 0.000000
-29.570700 0.000000
-29.520900 0.000000
-29.471100 0.000000
-29.421300 0.000000
-29.371500 0.000000
-29.321800 0.000000
-29.272000 0.000000
-29.222200 0.000000
-29.172400 0.000000
-29.122600 0.000000
-29.072900 0.000000
-29.023100 0.000000
-28.973300 0.000000
-28.923500 0.000000
-28.873700 0.000000
-28.824000 0.000000
-28.774200 0.000000
-28.724400 0.000000
-28.674600 0.000000
-28.624800 0.000000
-28.575100 0.000000
-28.525300 0.000000
-28.475500 0.000000
-28.425700 0.000000
-28.375900 0.000000
-28.326100 0.000000
-28.276400 0.000000
-28.226600 0.000000
-28.176800 0.000000
-28.127000 0.000000
-28.077200 0.000000
-28.027500 0.000000
-27.977700 0.000000
-27.927900 0.000000
-27.878100 0.000000
-27.828300 0.000000
-27.778600 0.000000
-27.728800 0.000000
-27.679000 0.000000
-27.629200 0.000000
-27.579400 0.000000
-27.529700 0.000000
-27.479900 0.000000
-27.430100 0.000000
-27.380300 0.000000
-27.330500 0.000000
-27.280700 0.000000
-27.231000 0.000000
-27.181200 0.000000
-27.131400 0.000000
-27.081600 0.000000
-27.031800 0.000000
-26.982100 0.000000
-26.932300 0.000000
-26.882500 0.000000
-26.832700 0.000000
-26.782900 0.000000
-26.733200 0.000000
-26.683400 0.000000
-26.633600 0.000000
-26.583800 0.000000
-26.534000 0.000000
-26.484300 0.000000
-26.434500 0.000000
-26.384700 0.000000
-26.334900 0.000000
-26.285100 0.000000
-26.235300 0.000000
-26.185600 0.000000
-26.135800 0.000000
-26.086000 0.000000
-26.036200 0.000000
-25.986400 0.000000
-25.936700 0.000000
-25.886900 0.000000
-25.837100 0.000000
-25.787300 0.000000
-25.737500 0.000000
-25.687800 0.000000
-25.638000 0.000000
-25.588200 0.000000
-25.538400 0.000000
-25.488600 0.000000
-25.438900 0.000000
-25.389100 0.000000
-25.339300 0.000000
-25.289500 0.000000
-25.239700 0.000000
-25.189900 0.000000
-25.140200 0.000000
-25.090400 0.000000
-25.040600 0.000000
-24.990800 0.000000
-24.941000 0.000000
-24.891300 0.000000
-24.841500 0.000000
-24.791700 0.000000
-24.741900 0.000000
-24.692100 0.000000
-24.642400 0.000000
-24.592600 0.000000
-24.542800 0.000000
-24.493000 0.000000
-24.443200 0.000000
-24.393500 0.000000
-24.343700 0.000000
-24.293900 0.000000
-24.244100 0.000000
-24.194300 0.000000
-24.144500 0.000000
-24.094800 0.000000
-24.045000 0.000000
-23.995200 0.000000
-23.945400 0.000000
-23.895600 0.000000
-23.845900 0.000000
-23.796100 0.000000
-23.746300 0.000000
-23.696500 0.000000
-23.646700 0.000000
-23.597000 0.000000
-23.547200 0.000000
-23.497400 0.000000
-23.447600 0.000000
-23.397800 0.000000
-23.348100 0.000000
-23.298300 0.000000
-23.248500 0.000000
-23.198700 0.000000
-23.148900 0.000000
-23.099100 0.000000
-23.049400 0.000000
-22.999600 0.000000
-22.949800 0.000000
-22.900000 0.000000
-22.850200 0.000000
-22.800500 0.000000
-22.750700 0.000000
-22.700900 0.000000
-22.651100 0.000000
-22.601300 0.000000
-22.551600 0.000000
-22.501800 0.000000
-22.452000 0.000000
-22.402200 0.000000
-22.352400 0.000000
-22.302700 0.000000
-22.252900 0.000000
-22.203100 0.000000
-22.153300 0.000000
-22.103500 0.000000
-22.053700 0.000000
-22.004000 0.000000
-21.954200 0.000000
-21.904400 0.000000
-21.854600 0.000000
-21.804800 0.000000
-21.755100 0.000000
-21.705300 0.000000
-21.655500 0.000000
-21.605700 0.000000
-21.555900 0.000000
-21.506200 0.000000
-21.456400 0.000000
-21.406600 0.000000
-21.356800 0.000000
-21.307000 0.000000
-21.257300 0.000000
-21.207500 0.000000
-21.157700 0.000000
-21.107900 0.000000
-21.058100 0.000000
-21.008300 0.000000
-20.958600 0.000000
-20.908800 0.000000
-20.859000 0.000000
-20.809200 0.000000
-20.759400 0.000000
-20.709700 0.000000
-20.659900 0.000000
-20.610100 0.000000
-20.560300 0.000000
-20.510500 0.000000
-20.460800 0.000000
-20.411000 0.000000
-20.361200 0.000000
-20.311400 0.000000
-20.261600 0.000000
-20.211900 0.000000
-20.162100 0.000000
-20.112300 0.000000
-20.062500 0.000000
-20.012700 0.000000
-19.963000 0.000000
-19.913200 0.000000
-19.863400 0.000000
-19.813600 0.000000
-19.763800 0.000000
-19.714000 0.000000
-19.664300 0.000000
-19.614500 0.000000
-19.564700 0.000000
-19.514900 0.000000
-19.465100 0.000000
-19.415400 0.000000
-19.365600 0.000000
-19.315800 0.000000
-19.266000 0.000000
-19.216200 0.000000
-19.166500 0.000000
-19.116700 0.000000
-19.066900 0.000000
-19.017100 0.000000
-18.967300 0.000000
-18.917600 0.000000
-18.867800 0.000000
-18.818000 0.000000
-18.768200 0.000000
-18.718400 0.000000
-18.668600 0.000000
-18.618900 0.000000
-18.569100 0.000000
-18.519300 0.000000
-18.469500 0.000000
-18.419700 0.000000
-18.370000 0.000000
-18.320200 0.000000
-18.270400 0.000000
-18.220600 0.000000
-18.170800 0.000000
-18.121100 0.000000
-18.071300 0.000000
-18.021500 0.000000
-17.971700 0.000000
-17.921900 0.000000
-17.872200 0.000000
-17.822400 0.000000
-17.772600 0.000000
-17.722800 0.000000
-17.673000 0.000000
-17.623200 0.000000
-17.573500 0.000000
-17.523700 0.000000
-17.473900 0.000000
-17.424100 0.000000
-17.374300 0.000000
-17.324600 0.000000
-17.274800 0.000000
-17.225000 0.000000
-17.175200 0.000000
-17.125400 0.000000
-17.075700 0.000000
-17.025900 0.000000
-16.976100 0.000000
-16.926300 0.000000
-16.876500 0.000000
-16.826800 0.000000
-16.777000 0.000000
-16.727200 0.000000
-16.677400 0.000000
-16.627600 0.000000
-16.577800 0.000000
-16.528100 0.000000
-16.478300 0.000000
-16.428500 0.000000
-16.378700 0.000000
-16.328900 0.000000
-16.279200 0.000000
-16.229400 0.000000
-16.179600 0.000000
-16.129800 0.000000
-16.080000 0.000000
-16.030300 0.000000
-15.980500 0.000000
-15.930700 0.000000
-15.880900 0.000000
-15.831100 0.000000
-15.781400 0.000000
-15.731600 0.000000
-15.681800 0.000000
-15.632000 0.000000
-15.582200 0.000000
-15.532400 0.000000
-15.482700 0.000000
-15.432900 0.000000
-15.383100 0.000000
-15.333300 0.000000
-15.283500 0.000000
-15.233800 0.000000
-15.184000 0.000000
-15.134200 0.000000
-15.084400 0.000000
-15.034600 0.000000
-14.984900 0.000000
-14.935100 0.000000
-14.885300 0.000000
-14.835500 0.000000
-14.785700 0.000000
-14.736000 0.000000
-14.686200 0.000000
-14.636400 0.000000
-14.586600 0.000000
-14.536800 0.000000
-14.487000 0.000000
-14.437300 0.000000
-14.387500 0.000000
-14.337700 0.000000
-14.287900 0.000000
-14.238100 0.000000
-14.188400 0.000000
-14.138600 0.000000
-14.088800 0.000000
-14.039000 0.000000
-13.989200 0.000000
-13.939500 0.000000
-13.889700 0.000000
-13.839900 0.000000
-13.790100 0.000000
-13.740300 0.000000
-13.690600 0.000000
-13.640800 0.000000
-13.591000 0.000000
-13.541200 0.000000
-13.491400 0.000000
-13.441600 0.000000
-13.391900 0.000000
-13.342100 0.000000
-13.292300 0.000000
-13.242500 0.000000
-13.192700 0.000000
-13.143000 0.000000
-13.093200 0.000000
-13.043400 0.000000
-12.993600 0.000000
-12.943800 0.000000
-12.894100 0.000000
-12.844300 0.000000
-12.794500 0.000000
-12.744700 0.000000
-12.694900 0.000000
-12.645200 0.000000
-12.595400 0.000000
-12.545600 0.000000
-12.495800 0.000000
-12.446000 0.000000
-12.396200 0.000000
-12.346500 0.000000
-12.296700 0.000000
-12.246900 0.000000
-12.197100 0.000000
-12.147300 0.000000
-12.097600 0.000000
-12.047800 0.000000
-11.998000 0.000000
-11.948200 0.000000
-11.898400 0.000000
-11.848700 0.000000
-11.798900 0.000000
-11.749100 0.000000
-11.699300 0.000000
-11.649500 0.000000
-11.599800 0.000000
-11.550000 0.000000
-11.500200 0.000000
-11.450400 0.000000
-11.400600 0.000000
-11.350900 0.000000
-11.301100 0.000000
-11.251300 0.000000
-11.201500 0.000000
-11.151700 0.000000
-11.101900 0.000000
-11.052200 0.000000
-11.002400 0.000000
-10.952600 0.000000
-10.902800 0.000000
-10.853000 0.000000
-10.803300 0.000000
-10.753500 0.000000
-10.703700 0.000000
-10.653900 0.000000
-10.604100 0.000000
-10.554400 0.000000
-10.504600 0.000000
-10.454800 0.000000
-10.405000 0.000000
-10.355200 0.000000
-10.305500 0.000000
-10.255700 0.000000
-10.205900 0.000000
-10.156100 0.000000
-10.106300 0.000000
-10.056500 0.000000
-10.006800 0.000000
-9.957000 0.000000
-9.907200 0.000000
-9.857400 0.000000
-9.807600 0.000000
-9.757900 0.000000
-9.708100 0.000000
-9.658300 0.000000
-9.608500 0.000000
-9.558700 0.000000
-9.509000 0.000000
-9.459200 0.000000
-9.409400 0.000000
-9.359600 0.000000
-9.309800 0.000000
-9.260100 0.000000
-9.210300 0.000000
-9.160500 0.000000
-9.110700 0.000000
-9.060900 0.000000
-9.011100 0.000000
-8.961400 0.000000
-8.911600 0.000000
-8.861800 0.000000
-8.812000 0.000000
-8.762200 0.000000
-8.712500 0.000000
-8.662700 0.000000
-8.612900 0.000000
-8.563100 0.000000
-8.513300 0.000000
-8.463600 0.000000
-8.413800 0.000000
-8.364000 0.000000
-8.314200 0.000000
-8.264400 0.000000
-8.214700 0.000000
-8.164900 0.000000
-8.115100 0.000000
-8.065300 0.000000
-8.015500 0.000000
-7.965700 0.000000
-7.916000 0.000000
-7.866200 0.000000
-7.816400 0.000000
-7.766600 0.000000
-7.716800 0.000000
-7.667100 0.000000
-7.617300 0.000000
-7.567500 0.000000
-7.517700 0.000000
-7.467900 0.000000
-7.418200 0.000000
-7.368400 0.000000
-7.318600 0.000000
-7.268800 0.000000
-7.219000 0.000000
-7.169300 0.000000
-7.119500 0.000000
-7.069700 0.000000
-7.019900 0.000000
-6.970100 0.000000
-6.920300 0.000000
-6.870600 0.000000
-6.820800 0.000000
-6.771000 0.000000
-6.721200 0.000000
-6.671400 0.000000
-6.621700 0.000000
-6.571900 0.000000
-6.522100 0.000000
-6.472300 0.000000
-6.422500 0.000000
-6.372800 0.000000
-6.323000 0.000000
-6.273200 0.000000
-6.223400 0.000000
-6.173600 0.000000
-6.123900 0.000000
-6.074100 0.000000
-6.024300 0.000000
-5.974500 0.000000
-5.924700 0.000000
-5.874900 0.000000
-5.825200 0.000000
-5.775400 0.000000
-5.725600 0.000000
-5.675800 0.000000
-5.626000 0.000000
-5.576300 0.000000
-5.526500 0.000000
-5.476700 0.000000
-5.426900 0.000000
-5.377100 0.000000
-5.327400 0.000000
-5.277600 0.000000
-5.227800 0.000000
-5.178000 0.000000
-5.128200 0.000000
-5.078500 0.000000
-5.028700 0.000000
-4.978900 0.000000
-4.929100 0.000000
-4.879300 0.000000
-4.829500 0.000000
-4.779800 0.000000
-4.730000 0.000000
-4.680200 0.000000
-4.630400 0.000000
-4.580600 0.000000
-4.530900 0.000000
-4.481100 0.000000
-4.431300 0.000000
-4.381500 0.000000
-4.331700 0.000000
-4.282000 0.000000
-4.232200 0.000000
-4.182400 0.000000
-4.132600 0.000000
-4.082800 0.000000
-4.033100 0.000000
-3.983300 0.000000
-3.933500 0.000000
-3.883700 0.000000
-3.833900 0.000000
-3.784100 0.000000
-3.734400 0.000000
-3.684600 0.000000
-3.634800 0.000000
-3.585000 0.000000
-3.535200 0.000000
-3.485500 0.000000
-3.435700 0.000000
-3.385900 0.000000
-3.336100 0.005400
-3.286300 0.027000
-3.236600 0.057300
-3.186800 0.069600
-3.137000 0.077700
-3.087200 0.088700
-3.037400 0.099800
-2.987700 0.112200
-2.937900 0.124800
-2.888100 0.137400
-2.838300 0.148100
-2.788500 0.159100
-2.738800 0.171000
-2.689000 0.188500
-2.639200 0.213300
-2.589400 0.229900
-2.539600 0.229500
-2.489800 0.225700
-2.440100 0.231400
-2.390300 0.236900
-2.340500 0.240600
-2.290700 0.243500
-2.240900 0.245700
-2.191200 0.246400
-2.141400 0.248000
-2.091600 0.251400
-2.041800 0.256800
-1.992000 0.262600
-1.942300 0.268600
-1.892500 0.274800
-1.842700 0.281200
-1.792900 0.287800
-1.743100 0.294600
-1.693400 0.300600
-1.643600 0.309300
-1.593800 0.321800
-1.544000 0.337200
-1.494200 0.355800
-1.444400 0.380000
-1.394700 0.417900
-1.344900 0.789700
-1.295100 1.223900
-1.245300 1.691900
-1.195500 2.013900
-1.145800 1.970100
-1.096000 1.822000
-1.046200 1.696100
-0.996400 1.467500
-0.946600 1.257200
-0.896900 1.145300
-0.847100 1.092700
-0.797300 1.024800
-0.747500 0.950400
-0.697700 0.902000
-0.648000 1.118300
-0.598200 1.387600
-0.548400 1.589900
-0.498600 1.767500
-0.448800 1.944200
-0.399000 2.156700
-0.349300 2.429800
-0.299500 2.802500
-0.249700 3.036200
-0.199900 3.404300
-0.150100 3.410700
-0.100400 3.569400
-0.050600 3.926400
-0.000800 4.627300
0.049000 4.813200
0.098800 4.306100
0.148500 2.358000
0.198300 1.632000
0.248100 0.822400
0.297900 0.857500
0.347700 1.954800
0.397400 1.784400
0.447200 2.513700
0.497000 2.613300
0.546800 3.921500
0.596600 4.193900
0.646400 3.883700
0.696100 4.949300
0.745900 5.960400
0.795700 5.062600
0.845500 4.511500
0.895300 3.931800
0.945000 4.356300
0.994800 4.235900
1.044600 3.987300
1.094400 3.948700
1.144200 3.156400
1.193900 2.978200
1.243700 2.874700
1.293500 1.747900
1.343300 1.764200
1.393100 1.836900
1.442800 1.930800
1.492600 2.035900
1.542400 2.139700
1.592200 2.758300
1.642000 3.346600
1.691800 3.414600
1.741500 3.291700
1.791300 3.388900
1.841100 3.163300
1.890900 3.241000
1.940700 3.101100
1.990400 2.426700
2.040200 1.508200
2.090000 0.815100
2.139800 1.454900
2.189600 2.981400
2.239300 2.639100
2.289100 1.871900
2.338900 1.381300
2.388700 1.096400
2.438500 1.228200
2.488200 0.909700
2.538000 0.866900
2.587800 0.856300
2.637600 0.857100
2.687400 0.866300
2.737200 0.871700
2.786900 0.875000
2.836700 0.851500
2.886500 0.824300
2.936300 0.803700
2.986100 0.804000
3.035800 0.811700
3.085600 0.822300
3.135400 0.815200
3.185200 0.818000
3.235000 0.826300
3.284700 0.834100
3.334500 0.842500
3.384300 0.852900
3.434100 0.886400
3.483900 0.903500
3.533600 0.919100
3.583400 0.936600
3.633200 0.956200
3.683000 0.978000
3.732800 1.189200
3.782600 1.173500
3.832300 1.243000
3.882100 1.324000
3.931900 1.380100
3.981700 1.439500
4.031500 1.463600
4.081200 1.498600
4.131000 1.548400
4.180800 1.597200
4.230600 1.654200
4.280400 1.712100
4.330100 1.783000
4.379900 1.879200
4.429700 2.002600
4.479500 2.110100
4.529300 2.105800
4.579000 2.201400
4.628800 2.390200
4.678600 2.442100
4.728400 2.544100
4.778200 2.283500
4.828000 1.955100
4.877700 2.022100
4.927500 1.998100
4.977300 1.979000
5.027100 2.202400
5.076900 2.366800
5.126600 2.493700
5.176400 2.648300
5.226200 3.022900
5.276000 3.475600
5.325800 3.498600
5.375500 3.763500
5.425300 4.284200
5.475100 3.384400
5.524900 2.634200
5.574700 1.900200
5.624400 1.521900
5.674200 1.578900
5.724000 1.805200
5.773800 2.390400
5.823600 2.792000
5.873300 2.871500
5.923100 2.927300
5.972900 2.859300
6.022700 2.751300
6.072500 2.843000
6.122300 2.555300
6.172000 2.497600
6.221800 2.447400
6.271600 2.531400
6.321400 2.589200
6.371200 2.392700
6.420900 2.180800
6.470700 2.294000
6.520500 2.472300
6.570300 2.463100
6.620100 2.448900
6.669800 2.627400
6.719600 2.704300
6.769400 2.597500
6.819200 2.788900
6.869000 3.191900
6.918700 3.203700
6.968500 3.414500
7.018300 3.517600
7.068100 3.360900
7.117900 2.913100
7.167700 4.306100
7.217400 5.530300
7.267200 4.093600
7.317000 3.926100
7.366800 3.309800
7.416600 3.099800
7.466300 2.063400
7.516100 1.470500
7.565900 1.419600
7.615700 1.377800
7.665500 1.351900
7.715200 1.348900
7.765000 1.349500
7.814800 1.362600
7.864600 1.375400
7.914400 1.388600
7.964100 1.423500
8.013900 1.471300
8.063700 1.529200
8.113500 1.547400
8.163300 1.555600
8.213100 1.568400
8.262800 1.587100
8.312600 1.583400
8.362400 1.660400
8.412200 1.499100
8.462000 1.367200
8.511700 1.301000
8.561500 1.263300
8.611300 1.104400
8.661100 0.951800
8.710900 0.878300
8.760600 0.847000
8.810400 0.819800
8.860200 0.796200
8.910000 0.776900
8.959800 0.757900
9.009500 0.745700
9.059300 0.735400
9.109100 0.718800
9.158900 0.670700
9.208700 0.650900
9.258500 0.639100
9.308200 0.630100
9.358000 0.625900
9.407800 0.627300
9.457600 0.633200
9.507400 0.636400
9.557100 0.634700
9.606900 0.623300
9.656700 0.599900
9.706500 0.585000
9.756300 0.572600
9.806000 0.560800
9.855800 0.545100
9.905600 0.550000
9.955400 0.567400
10.005200 0.500500
10.054900 0.500000
10.104700 0.499800
10.154500 0.502700
10.204300 0.492300
10.254100 0.482700
10.303900 0.476900
10.353600 0.474600
10.403400 0.467100
10.453200 0.462300
10.503000 0.465100
10.552800 0.465900
10.602500 0.461500
10.652300 0.451600
10.702100 0.441500
10.751900 0.446400
10.801700 0.484400
10.851400 0.582100
10.901200 0.560700
10.951000 0.556200
11.000800 0.552500
11.050600 0.548000
11.100300 0.544400
11.150100 0.542500
11.199900 0.555000
11.249700 0.651500
11.299500 0.657100
11.349300 0.666900
11.399000 0.667200
11.448800 0.666600
11.498600 0.666600
11.548400 0.670000
11.598200 0.682100
11.647900 1.074200
11.697700 0.873700
11.747500 0.820600
11.797300 0.790300
11.847100 0.785400
11.896800 0.758400
11.946600 0.744000
11.996400 0.732900
12.046200 0.720600
12.096000 0.713000
12.145700 0.709900
12.195500 0.707100
12.245300 0.706900
12.295100 0.711400
12.344900 0.717300
12.394700 0.714400
12.444400 0.705900
12.494200 0.690200
12.544000 0.659700
12.593800 0.636300
12.643600 0.635000
12.693300 0.644200
12.743100 0.646400
12.792900 0.640300
12.842700 0.637600
12.892500 0.649600
12.942200 0.663100
12.992000 0.650000
13.041800 0.631800
13.091600 0.613200
13.141400 0.608700
13.191100 0.571700
13.240900 0.524900
13.290700 0.491500
13.340500 0.467700
13.390300 0.451500
13.440100 0.436500
13.489800 0.424000
13.539600 0.413900
13.589400 0.406700
13.639200 0.402600
13.689000 0.402800
13.738700 0.398600
13.788500 0.410800
13.838300 0.426200
13.888100 0.444000
13.937900 0.485500
13.987600 0.553600
14.037400 0.699500
14.087200 0.647100
14.137000 0.672500
14.186800 0.693900
14.236500 0.706000
14.286300 0.709400
14.336100 0.710200
14.385900 0.713200
14.435700 0.682300
14.485400 0.686300
14.535200 0.652600
14.585000 0.641000
14.634800 0.630600
14.684600 0.627300
14.734400 0.627000
14.784100 0.614100
14.833900 0.594500
14.883700 0.585500
14.933500 0.591500
14.983300 0.618800
15.033000 0.699400
15.082800 0.733000
15.132600 0.762900
15.182400 0.901300
15.232200 0.934000
15.281900 0.958400
15.331700 0.948300
15.381500 0.934500
15.431300 0.923800
15.481100 0.914700
15.530800 0.904500
15.580600 0.900700
15.630400 0.921900
15.680200 0.941100
15.730000 0.963400
15.779800 0.950800
15.829500 0.917300
15.879300 0.896500
15.929100 0.876300
15.978900 0.875800
16.028700 0.863400
16.078400 0.849100
16.128200 0.842700
16.178000 0.847400
16.227800 0.860000
16.277600 0.871800
16.327300 0.888100
16.377100 0.915300
16.426900 0.946000
16.476700 0.985500
16.526500 1.013900
16.576200 1.022800
16.626000 1.009000
16.675800 1.002200
16.725600 0.998400
16.775400 0.990900
16.825200 0.994200
16.874900 1.003800
16.924700 1.026000
16.974500 1.036100
17.024300 1.043700
17.074100 1.056300
17.123800 1.078800
17.173600 1.094400
17.223400 1.095100
17.273200 1.120700
17.323000 1.154300
17.372700 1.144300
17.422500 1.129200
17.472300 1.125700
17.522100 1.136600
17.571900 1.153500
17.621600 1.171500
17.671400 1.179500
17.721200 1.188000
17.771000 1.186300
17.820800 1.176800
17.870600 1.169800
17.920300 1.171500
17.970100 1.169100
18.019900 1.163900
18.069700 1.150600
18.119500 1.133900
18.169200 1.112500
18.219000 1.097500
18.268800 1.078600
18.318600 1.071000
18.368400 1.065400
18.418100 1.063000
18.467900 1.060700
18.517700 1.066500
18.567500 1.095600
18.617300 1.062200
18.667000 1.067100
18.716800 1.084600
18.766600 1.125500
18.816400 1.152100
18.866200 1.200000
18.916000 1.137900
18.965700 1.088900
19.015500 1.054700
19.065300 1.022500
19.115100 0.990600
19.164900 0.968800
19.214600 0.952200
19.264400 0.955400
19.314200 0.960900
19.364000 0.954700
19.413800 0.946100
19.463500 0.936200
19.513300 0.934900
19.563100 0.945400
19.612900 0.940700
19.662700 0.947800
19.712400 0.940300
19.762200 0.949300
19.812000 0.978700
19.861800 0.994000
19.911600 1.002800
19.961400 1.008300
20.011100 1.014500
20.060900 1.021900
20.110700 1.042500
20.160500 1.067900
20.210300 1.081000
20.260000 1.086600
20.309800 1.094300
20.359600 1.089000
20.409400 1.099700
20.459200 1.080300
20.508900 1.082900
20.558700 1.089100
20.608500 1.099700
20.658300 1.111200
20.708100 1.121700
20.757800 1.131800
20.807600 1.149400
20.857400 1.184600
20.907200 1.213700
20.957000 1.230600
21.006800 1.228700
21.056500 1.252300
21.106300 1.440800
21.156100 1.434200
21.205900 1.785300
21.255700 1.423800
21.305400 1.313600
21.355200 1.254400
21.405000 1.205400
21.454800 1.164300
21.504600 1.071000
21.554300 1.049400
21.604100 1.038200
21.653900 1.029300
21.703700 1.021000
21.753500 1.016700
21.803200 1.015800
21.853000 1.019800
21.902800 1.074900
21.952600 1.077600
22.002400 1.057000
22.052200 1.045800
22.101900 1.137200
22.151700 1.041900
22.201500 1.187100
22.251300 1.164000
22.301100 1.080100
22.350800 1.175600
22.400600 0.942800
22.450400 0.915200
22.500200 0.900000
22.550000 0.893600
22.599700 0.888100
22.649500 0.891000
22.699300 0.909300
22.749100 0.922800
22.798900 0.914300
22.848600 0.883900
22.898400 0.859900
22.948200 0.831400
22.998000 0.819500
23.047800 0.756400
23.097600 0.725000
23.147300 0.716700
23.197100 0.716000
23.246900 0.718000
23.296700 0.724000
23.346500 0.737300
23.396200 0.758000
23.446000 0.781100
23.495800 0.815400
23.545600 0.826000
23.595400 0.871300
23.645100 0.925500
23.694900 0.947200
23.744700 0.976800
23.794500 1.018600
23.844300 1.060800
23.894000 1.120100
23.943800 1.165800
23.993600 1.224100
24.043400 1.234400
24.093200 1.288000
24.142900 1.368600
24.192700 1.471300
24.242500 1.544300
24.292300 1.724900
24.342100 1.849600
24.391900 1.763900
24.441600 1.752500
24.491400 1.980700
24.541200 1.867600
24.591000 1.775100
24.640800 1.768600
24.690500 1.689200
24.740300 1.667700
24.790100 1.661700
24.839900 1.678200
24.889700 1.672400
24.939400 1.623400
24.989200 1.582000
25.039000 1.562100
25.088800 1.548800
25.138600 1.578300
25.188300 1.609300
25.238100 1.656700
25.287900 1.710000
25.337700 1.727600
25.387500 1.677900
25.437300 1.591700
25.487000 1.537500
25.536800 1.446800
25.586600 1.427100
25.636400 1.403100
25.686200 1.372000
25.735900 1.346400
25.785700 1.354800
25.835500 1.243900
25.885300 1.199200
25.935100 1.171800
25.984800 1.157300
26.034600 1.143200
26.084400 1.129000
26.134200 1.116200
26.184000 1.106700
26.233700 1.099800
26.283500 1.091100
26.333300 1.081000
26.383100 1.072000
26.432900 1.081900
26.482700 1.048700
26.532400 1.058600
26.582200 1.079600
26.632000 1.112000
26.681800 1.153500
26.731600 1.193100
26.781300 1.191800
26.831100 1.139500
26.880900 1.086200
26.930700 1.037700
26.980500 1.003000
27.030200 0.958500
27.080000 0.911200
27.129800 0.876500
27.179600 0.849700
27.229400 0.831200
27.279100 0.819000
27.328900 0.802100
27.378700 0.784100
27.428500 0.763200
27.478300 0.732100
27.528100 0.699000
27.577800 0.671200
27.627600 0.647400
27.677400 0.623700
27.727200 0.601400
27.777000 0.584100
27.826700 0.567800
27.876500 0.552300
27.926300 0.543000
27.976100 0.547700
28.025900 0.546600
28.075600 0.542800
28.125400 0.522800
28.175200 0.503200
28.225000 0.488000
28.274800 0.484700
28.324500 0.492200
28.374300 0.517000
28.424100 0.548400
28.473900 0.581900
28.523700 0.611000
28.573500 0.655400
28.623200 0.708800
28.673000 0.770000
28.722800 0.833800
28.772600 0.869800
28.822400 0.905200
28.872100 0.939200
28.921900 0.975300
28.971700 1.005100
29.021500 1.024500
29.071300 1.026200
29.121000 1.013700
29.170800 1.019500
29.220600 1.036700
29.270400 1.029100
29.320200 1.016700
29.369900 1.023700
29.419700 1.049400
29.469500 1.082600
29.519300 1.124500
29.569100 1.185600
29.618900 1.212000
29.668600 1.201800
29.718400 1.219300
29.768200 1.288000
29.818000 1.325600
29.867800 1.436200
29.917500 1.607000
29.967300 1.785700
30.017100 1.722600
30.066900 1.607600
30.116700 1.598900
30.166400 1.629300
30.216200 1.682100
30.266000 1.691300
30.315800 1.659600
30.365600 1.686100
30.415300 1.690800
30.465100 1.688100
30.514900 1.680500
30.564700 1.650200
30.614500 1.600200
30.664300 1.502700
30.714000 1.465800
30.763800 1.420400
30.813600 1.422800
30.863400 1.246800
30.913200 1.139000
30.962900 1.102100
31.012700 1.081400
31.062500 1.086700
31.112300 1.092700
31.162100 1.094300
31.211800 1.098100
31.261600 1.107200
31.311400 1.128000
31.361200 1.167800
31.411000 1.194500
31.460700 1.208300
31.510500 1.246700
31.560300 1.243300
31.610100 1.232600
31.659900 1.233600
31.709700 1.230200
31.759400 1.209300
31.809200 1.215200
31.859000 1.229700
31.908800 1.187200
31.958600 1.196100
32.008300 1.242800
32.058100 1.278100
32.107900 1.305400
32.157700 1.309600
32.207500 1.324300
32.257200 1.358800
32.307000 1.384100
32.356800 1.410800
32.406600 1.415800
32.456400 1.402600
32.506100 1.357800
32.555900 1.320600
32.605700 1.321600
32.655500 1.357700
32.705300 1.448900
32.755000 1.547600
32.804800 1.620700
32.854600 1.722700
32.904400 1.915200
32.954200 2.025000
33.004000 1.960100
33.053700 1.943200
33.103500 2.024700
33.153300 1.979400
33.203100 1.934400
33.252900 1.953200
33.302600 1.772000
33.352400 1.569700
33.402200 1.366000
33.452000 1.272900
33.501800 1.261600
33.551500 1.295400
33.601300 1.330000
33.651100 1.365100
33.700900 1.443900
33.750700 1.401300
33.800400 1.410400
33.850200 1.423700
33.900000 1.433200
33.949800 1.436600
33.999600 1.435200
34.049400 1.436200
34.099100 1.444300
34.148900 1.480000
34.198700 1.560300
34.248500 1.588400
34.298300 1.575500
34.348000 1.611400
34.397800 1.673900
34.447600 1.764300
34.497400 1.818600
34.547200 1.882000
34.596900 1.936100
34.646700 1.991200
34.696500 2.064800
34.746300 2.151100
34.796100 2.345400
34.845800 2.606100
34.895600 2.933000
34.945400 3.567100
34.995200 5.275200
35.045000 7.708100
35.094800 4.341400
35.144500 3.178900
35.194300 2.573700
35.244100 2.147300
35.293900 1.950400
35.343700 1.831900
35.393400 1.751200
35.443200 1.669600
35.493000 1.609600
35.542800 1.562700
35.592600 1.532200
35.642300 1.509700
35.692100 1.478500
35.741900 1.450800
35.791700 1.426700
35.841500 1.413300
35.891200 1.408500
35.941000 1.403400
35.990800 1.369400
36.040600 1.338000
36.090400 1.294400
36.140200 1.271900
36.189900 1.255000
36.239700 1.242800
36.289500 1.239500
36.339300 1.257300
36.389100 1.280300
36.438800 1.299700
36.488600 1.312800
36.538400 1.319100
36.588200 1.333200
36.638000 1.365600
36.687700 1.387300
36.737500 1.401200
36.787300 1.400300
36.837100 1.388300
36.886900 1.370200
36.936600 1.363400
36.986400 1.346300
37.036200 1.295600
37.086000 1.285700
37.135800 1.289300
37.185600 1.297400
37.235300 1.302400
37.285100 1.304300
37.334900 1.275300
37.384700 1.243200
37.434500 1.214800
37.484200 1.195700
37.534000 1.181900
37.583800 1.166200
37.633600 1.153700
37.683400 1.155900
37.733100 1.165400
37.782900 1.159400
37.832700 1.153200
37.882500 1.149600
37.932300 1.152100
37.982000 1.153700
38.031800 1.152400
38.081600 1.155900
38.131400 1.166400
38.181200 1.180800
38.231000 1.205900
38.280700 1.239100
38.330500 1.263300
38.380300 1.280200
38.430100 1.296300
38.479900 1.311800
38.529600 1.321700
38.579400 1.326100
38.629200 1.329900
38.679000 1.328400
38.728800 1.334700
38.778500 1.341200
38.828300 1.349200
38.878100 1.366700
38.927900 1.369900
38.977700 1.378100
39.027400 1.398100
39.077200 1.403200
39.127000 1.404100
39.176800 1.426100
39.226600 1.385900
39.276400 1.383100
39.326100 1.382300
39.375900 1.411200
39.425700 1.444800
39.475500 1.458000
39.525300 1.496500
39.575000 1.553200
39.624800 1.587600
39.674600 1.537800
39.724400 1.513100
39.774200 1.505000
39.823900 1.501700
39.873700 1.511900
39.923500 1.509900
39.973300 1.519200
40.023100 1.518200
40.072800 1.560500
40.122600 1.657800
40.172400 1.686000
40.222200 1.649100
40.272000 1.602800
40.321800 1.651200
40.371500 1.762800
40.421300 1.841900
40.471100 1.937600
40.520900 1.869000
40.570700 1.810700
40.620400 1.769700
40.670200 1.727500
40.720000 1.698400
40.769800 1.681400
40.819600 1.679900
40.869300 1.681000
40.919100 1.707600
40.968900 1.751900
41.018700 1.790800
41.068500 1.808500
41.118200 1.837400
41.168000 1.714800
41.217800 1.694800
41.267600 1.665700
41.317400 1.676900
41.367100 1.690700
41.416900 1.742000
41.466700 1.853300
41.516500 1.897600
41.566300 1.896600
41.616100 1.909200
41.665800 1.836700
41.715600 1.875100
41.765400 1.928000
41.815200 1.953500
41.865000 2.020000
41.914700 2.112700
41.964500 2.211200
42.014300 2.395800
42.064100 2.362000
42.113900 2.331000
42.163600 2.285900
42.213400 2.287500
42.263200 2.334400
42.313000 2.270000
42.362800 2.134600
42.412500 2.022100
42.462300 2.015200
42.512100 2.040000
42.561900 2.030900
42.611700 1.974300
42.661500 1.968000
42.711200 1.971700
42.761000 2.007900
42.810800 2.037200
42.860600 2.053700
42.910400 2.016000
42.960100 2.010900
43.009900 2.022400
43.059700 2.035400
43.109500 2.065000
43.159300 2.102400
43.209000 2.165900
43.258800 2.227200
43.308600 2.300500
43.358400 2.256300
43.408200 2.274100
43.457900 2.268100
43.507700 2.216400
43.557500 2.100100
43.607300 2.036500
43.657100 1.958900
43.706900 1.780500
43.756600 1.630800
43.806400 1.503500
43.856200 1.470000
43.906000 1.481500
43.955800 1.519100
44.005500 1.597100
44.055300 1.748500
44.105100 1.944900
44.154900 2.172300
44.204700 2.337700
44.254400 2.291300
44.304200 2.222700
44.354000 2.135200
44.403800 2.152100
44.453600 2.203200
44.503300 2.208700
44.553100 2.231700
44.602900 2.307300
44.652700 2.332200
44.702500 2.272500
44.752300 2.257500
44.802000 2.231400
44.851800 2.281300
44.901600 2.467600
44.951400 2.771000
45.001200 3.006000
45.050900 3.153500
45.100700 3.192400
45.150500 3.157000
45.200300 3.219300
45.250100 3.239300
45.299800 3.239000
45.349600 3.097600
45.399400 3.192200
45.449200 3.210700
45.499000 2.899100
45.548700 2.791400
45.598500 2.826100
45.648300 2.905700
45.698100 3.214900
45.747900 3.688400
45.797700 3.736800
45.847400 3.527000
45.897200 3.429000
45.947000 3.284200
45.996800 2.963400
46.046600 2.577300
46.096300 2.590500
46.146100 2.661100
46.195900 2.390000
46.245700 2.571000
46.295500 2.406000
46.345200 2.280300
46.395000 2.164700
46.444800 2.163100
46.494600 2.161400
46.544400 2.023200
46.594100 1.958700
46.643900 1.881400
46.693700 1.710700
46.743500 1.611700
46.793300 1.538800
46.843100 1.435300
46.892800 1.391200
46.942600 1.429400
46.992400 1.571200
47.042200 1.701800
47.092000 1.831300
47.141700 1.927600
47.191500 1.821300
47.241300 1.815400
47.291100 1.851500
47.340900 1.950400
47.390600 2.014100
47.440400 2.063100
47.490200 1.956000
47.540000 1.898400
47.589800 1.794600
47.639500 1.709800
47.689300 1.566500
47.739100 1.497200
47.788900 1.419100
47.838700 1.455200
47.888500 1.499400
47.938200 1.536100
47.988000 1.661400
48.037800 1.892500
48.087600 2.127400
48.137400 2.284400
48.187100 2.337300
48.236900 2.324100
48.286700 2.205700
48.336500 2.161400
48.386300 2.014100
48.436000 1.867600
48.485800 1.768100
48.535600 1.729000
48.585400 1.708600
48.635200 1.663600
48.684900 1.642800
48.734700 1.634500
48.784500 1.671500
48.834300 1.736300
48.884100 1.805400
48.933900 1.887900
48.983600 2.014600
49.033400 2.053700
49.083200 2.044700
49.133000 2.047000
49.182800 1.981800
49.232500 1.933800
49.282300 1.976200
49.332100 2.067500
49.381900 2.053500
49.431700 2.031700
49.481400 2.048400
49.531200 2.105000
49.581000 2.222900
49.630800 2.308200
49.680600 2.328100
49.730300 2.357500
49.780100 2.321800
49.829900 2.244900
49.879700 2.125500
49.929500 2.092600
49.979200 2.018600
50.029000 1.992400
50.078800 1.995800
50.128600 1.948000
50.178400 1.852700
50.228200 1.703700
50.277900 1.673500
50.327700 1.749900
50.377500 1.815300
50.427300 1.913000
50.477100 2.147300
50.526800 2.305100
50.576600 2.388000
50.626400 2.305500
50.676200 2.219200
50.726000 2.137400
50.775700 2.029600
50.825500 1.977200
50.875300 1.917500
50.925100 1.827000
50.974900 1.720000
51.024600 1.691700
51.074400 1.788400
51.124200 1.844000
51.174000 1.964800
51.223800 2.275100
51.273600 2.226000
51.323300 2.176800
51.373100 2.125900
51.422900 2.139000
51.472700 2.237600
51.522500 2.241200
51.572200 2.175400
51.622000 2.137200
51.671800 2.045700
51.721600 2.000600
51.771400 2.054300
51.821100 2.083500
51.870900 2.309300
51.920700 2.336000
51.970500 2.379100
52.020300 2.377100
52.070000 2.349700
52.119800 2.191600
52.169600 1.992000
52.219400 1.796500
52.269200 1.619300
52.319000 1.425900
52.368700 1.302300
52.418500 1.221700
52.468300 1.207700
52.518100 1.246600
52.567900 1.238400
52.617600 1.220500
52.667400 1.220400
52.717200 1.276700
52.767000 1.348500
52.816800 1.434800
52.866500 1.425300
52.916300 1.513200
52.966100 1.583600
53.015900 1.710800
53.065700 1.737600
53.115400 1.768700
53.165200 1.749400
53.215000 1.699500
53.264800 1.749300
53.314600 1.820500
53.364400 1.741900
53.414100 1.549300
53.463900 1.476700
53.513700 1.451300
53.563500 1.453400
53.613300 1.460700
53.663000 1.500600
53.712800 1.520100
53.762600 1.664500
53.812400 1.682700
53.862200 1.650300
53.911900 1.693300
53.961700 1.728700
54.011500 1.776200
54.061300 1.815200
54.111100 1.839800
54.160800 1.858500
54.210600 1.889000
54.260400 1.901400
54.310200 1.864400
54.360000 1.770800
54.409800 1.759400
54.459500 1.792400
54.509300 1.788700
54.559100 1.754500
54.608900 1.779600
54.658700 1.699400
54.708400 1.639500
54.758200 1.614300
54.808000 1.546200
54.857800 1.520700
54.907600 1.410700
54.957300 1.448800
55.007100 1.373800
55.056900 1.343400
55.106700 1.315400
55.156500 1.291000
55.206200 1.271400
55.256000 1.228400
55.305800 1.182200
55.355600 1.160900
55.405400 1.153300
55.455200 1.148900
55.504900 1.145900
55.554700 1.146300
55.604500 1.141800
55.654300 1.161000
55.704100 1.111000
55.753800 1.083500
55.803600 1.032400
55.853400 0.974500
55.903200 0.918900
55.953000 0.799900
56.002700 0.729100
56.052500 0.686900
56.102300 0.666100
56.152100 0.659900
56.201900 0.649800
56.251600 0.649300
56.301400 0.646600
56.351200 0.640200
56.401000 0.607000
56.450800 0.517300
56.500600 0.493700
56.550300 0.480500
56.600100 0.470700
56.649900 0.457400
56.699700 0.434800
56.749500 0.405000
56.799200 0.385300
56.849000 0.373400
56.898800 0.362000
56.948600 0.354100
56.998400 0.346000
57.048100 0.332700
57.097900 0.319500
57.147700 0.312100
57.197500 0.300900
57.247300 0.276800
57.297000 0.239800
57.346800 0.181700
57.396600 0.143800
57.446400 0.116800
57.496200 0.091400
57.546000 0.069300
57.595700 0.052600
57.645500 0.041100
57.695300 0.032000
57.745100 0.023200
57.794900 0.014800
57.844600 0.007600
57.894400 0.001800
57.944200 0.000800
57.994000 0.000400
58.043800 0.000000
58.093500 0.000000
58.143300 0.000000
58.193100 0.000000
58.242900 0.000000
58.292700 0.000000
58.342400 0.000000
58.392200 0.000000
58.442000 0.000000
58.491800 0.000000
58.541600 0.000000
58.591300 0.000000
58.641100 0.000000
58.690900 0.000000
58.740700 0.000000
58.790500 0.000000
58.840300 0.000000
58.890000 0.000000
58.939800 0.000000
58.989600 0.000000
59.039400 0.000000
59.089200 0.000000
59.138900 0.000000
59.188700 0.000000
59.238500 0.000000
59.288300 0.000000
59.338100 0.000000
59.387800 0.000000
59.437600 0.000000
59.487400 0.000000
59.537200 0.000000
59.587000 0.000000
59.636700 0.000000
59.686500 0.000000
59.736300 0.000000
59.786100 0.000000
59.835900 0.000000
59.885700 0.000000
59.935400 0.000000
59.985200 0.000000
60.035000 0.000000
60.084800 0.000000
60.134600 0.000000
60.184300 0.000000
60.234100 0.000000
60.283900 0.000000
60.333700 0.000000
60.383500 0.000000
60.433200 0.000000
60.483000 0.000000
60.532800 0.000000
60.582600 0.000000
60.632400 0.000000
60.682100 0.000000
60.731900 0.000000
60.781700 0.000000
60.831500 0.000000
60.881300 0.000000
60.931100 0.000000
60.980800 0.000000
61.030600 0.000000
61.080400 0.000000
61.130200 0.000000
61.180000 0.000000
61.229700 0.000000
61.279500 0.000000
61.329300 0.000000
61.379100 0.000000
61.428900 0.000000
61.478600 0.000000
61.528400 0.000000
61.578200 0.000000
61.628000 0.000000
61.677800 0.000000
61.727500 0.000000
61.777300 0.000000
61.827100 0.000000
61.876900 0.000000
61.926700 0.000000
61.976500 0.000000
62.026200 0.000000
62.076000 0.000000
62.125800 0.000000
62.175600 0.000000
62.225400 0.000000
62.275100 0.000000
62.324900 0.000000
62.374700 0.000000
62.424500 0.000000
62.474300 0.000000
62.524000 0.000000
62.573800 0.000000
e
