set title 'mp-1219711 - Density of States'
set xlabel 'Energy (eV)'
set ylabel 'DOS (states/eV)'
set grid
set xrange [-10:10]
set yrange [0:4.255]
set xzeroaxis lt -1
set terminal png size 800,600
set output 'mp-1219711_dos_gnuplot.png'
plot '-' using 1:2 with lines title 'DOS'
-35.626500 0.000000
-35.576800 0.000000
-35.527100 0.000000
-35.477400 0.000000
-35.427800 0.000000
-35.378100 0.000000
-35.328400 0.000000
-35.278700 0.000000
-35.229000 0.000000
-35.179300 0.000000
-35.129600 0.000000
-35.080000 0.000000
-35.030300 0.000000
-34.980600 0.000000
-34.930900 0.000000
-34.881200 0.000000
-34.831500 0.000000
-34.781800 0.000000
-34.732100 0.000000
-34.682500 0.000000
-34.632800 0.000000
-34.583100 0.000000
-34.533400 0.000000
-34.483700 0.000000
-34.434000 0.000000
-34.384300 0.000000
-34.334700 0.000000
-34.285000 0.000000
-34.235300 0.000000
-34.185600 0.000000
-34.135900 0.000000
-34.086200 0.000000
-34.036500 0.000000
-33.986900 0.000000
-33.937200 0.000000
-33.887500 0.000000
-33.837800 0.000000
-33.788100 0.000000
-33.738400 0.000000
-33.688700 0.000000
-33.639000 0.000000
-33.589400 0.000000
-33.539700 0.000000
-33.490000 0.000000
-33.440300 0.000000
-33.390600 0.000000
-33.340900 0.000000
-33.291200 0.000000
-33.241600 0.000000
-33.191900 0.000000
-33.142200 0.000000
-33.092500 0.000000
-33.042800 0.000000
-32.993100 0.000000
-32.943400 0.000000
-32.893800 0.000000
-32.844100 0.000000
-32.794400 0.000000
-32.744700 0.000000
-32.695000 0.000000
-32.645300 0.000000
-32.595600 0.000000
-32.545900 0.000000
-32.496300 0.000000
-32.446600 0.000000
-32.396900 0.000000
-32.347200 0.000000
-32.297500 0.000000
-32.247800 0.000000
-32.198100 0.000000
-32.148500 0.000000
-32.098800 0.000000
-32.049100 0.000000
-31.999400 0.000000
-31.949700 0.000000
-31.900000 0.000000
-31.850300 0.000000
-31.800700 0.000000
-31.751000 0.000000
-31.701300 0.000000
-31.651600 0.000000
-31.601900 0.000000
-31.552200 0.000000
-31.502500 0.000000
-31.452800 0.000000
-31.403200 0.000000
-31.353500 0.000000
-31.303800 0.000000
-31.254100 0.000000
-31.204400 0.000000
-31.154700 0.000000
-31.105000 5.770100
-31.055400 3.912800
-31.005700 4.608100
-30.956000 6.495400
-30.906300 6.534100
-30.856600 10.752300
-30.806900 0.289600
-30.757200 36.229300
-30.707600 3.347500
-30.657900 2.627800
-30.608200 2.802500
-30.558500 3.260400
-30.508800 3.540300
-30.459100 4.455000
-30.409400 5.381100
-30.359700 8.446000
-30.310100 5.712300
-30.260400 4.547200
-30.210700 3.988200
-30.161000 4.423700
-30.111300 0.000000
-30.061600 0.000000
-30.011900 0.000000
-29.962300 0.000000
-29.912600 0.000000
-29.862900 0.000000
-29.813200 0.000000
-29.763500 0.000000
-29.713800 0.000000
-29.664100 0.000000
-29.614500 0.000000
-29.564800 0.000000
-29.515100 0.000000
-29.465400 0.000000
-29.415700 0.000000
-29.366000 0.000000
-29.316300 0.000000
-29.266600 0.000000
-29.217000 0.000000
-29.167300 0.000000
-29.117600 0.000000
-29.067900 0.000000
-29.018200 0.000000
-28.968500 0.000000
-28.918800 0.000000
-28.869200 0.000000
-28.819500 0.000000
-28.769800 0.000000
-28.720100 0.000000
-28.670400 0.000000
-28.620700 0.000000
-28.571000 0.000000
-28.521400 0.000000
-28.471700 0.000000
-28.422000 0.000000
-28.372300 0.000000
-28.322600 0.000000
-28.272900 0.000000
-28.223200 0.000000
-28.173500 0.000000
-28.123900 0.000000
-28.074200 0.000000
-28.024500 0.000000
-27.974800 0.000000
-27.925100 0.000000
-27.875400 0.000000
-27.825700 0.000000
-27.776100 0.000000
-27.726400 0.000000
-27.676700 0.000000
-27.627000 0.000000
-27.577300 0.000000
-27.527600 0.000000
-27.477900 0.000000
-27.428300 0.000000
-27.378600 0.000000
-27.328900 0.000000
-27.279200 0.000000
-27.229500 0.000000
-27.179800 0.000000
-27.130100 0.000000
-27.080400 0.000000
-27.030800 0.000000
-26.981100 0.000000
-26.931400 0.000000
-26.881700 0.000000
-26.832000 0.000000
-26.782300 0.000000
-26.732600 0.000000
-26.683000 0.000000
-26.633300 0.000000
-26.583600 0.000000
-26.533900 0.000000
-26.484200 0.000000
-26.434500 0.000000
-26.384800 0.000000
-26.335200 0.000000
-26.285500 0.000000
-26.235800 0.000000
-26.186100 0.000000
-26.136400 0.000000
-26.086700 0.000000
-26.037000 0.000000
-25.987300 0.000000
-25.937700 0.000000
-25.888000 0.000000
-25.838300 0.000000
-25.788600 0.000000
-25.738900 0.000000
-25.689200 0.000000
-25.639500 0.000000
-25.589900 0.000000
-25.540200 0.000000
-25.490500 0.000000
-25.440800 0.000000
-25.391100 0.000000
-25.341400 0.000000
-25.291700 0.000000
-25.242100 0.000000
-25.192400 0.000000
-25.142700 0.000000
-25.093000 0.000000
-25.043300 0.000000
-24.993600 0.000000
-24.943900 0.000000
-24.894200 0.000000
-24.844600 0.000000
-24.794900 0.000000
-24.745200 0.000000
-24.695500 0.000000
-24.645800 0.000000
-24.596100 0.000000
-24.546400 0.000000
-24.496800 0.000000
-24.447100 0.000000
-24.397400 0.000000
-24.347700 0.000000
-24.298000 0.000000
-24.248300 0.000000
-24.198600 0.000000
-24.149000 0.000000
-24.099300 0.000000
-24.049600 0.000000
-23.999900 0.000000
-23.950200 0.000000
-23.900500 0.000000
-23.850800 0.000000
-23.801100 0.000000
-23.751500 0.000000
-23.701800 0.000000
-23.652100 0.000000
-23.602400 0.000000
-23.552700 0.000000
-23.503000 0.000000
-23.453300 0.000000
-23.403700 0.000000
-23.354000 0.000000
-23.304300 0.000000
-23.254600 0.000000
-23.204900 0.000000
-23.155200 0.000000
-23.105500 0.000000
-23.055900 0.000000
-23.006200 0.000000
-22.956500 0.000000
-22.906800 0.000000
-22.857100 0.000000
-22.807400 0.000000
-22.757700 0.000000
-22.708000 0.000000
-22.658400 0.000000
-22.608700 0.000000
-22.559000 0.000000
-22.509300 0.000000
-22.459600 0.000000
-22.409900 0.000000
-22.360200 0.000000
-22.310600 0.000000
-22.260900 0.000000
-22.211200 0.000000
-22.161500 0.000000
-22.111800 0.000000
-22.062100 0.000000
-22.012400 0.000000
-21.962800 0.000000
-21.913100 0.000000
-21.863400 0.000000
-21.813700 0.000000
-21.764000 0.000000
-21.714300 0.000000
-21.664600 0.000000
-21.614900 0.000000
-21.565300 0.000000
-21.515600 0.000000
-21.465900 0.000000
-21.416200 0.000000
-21.366500 0.000000
-21.316800 0.000000
-21.267100 0.000000
-21.217500 0.000000
-21.167800 0.000000
-21.118100 0.000000
-21.068400 0.000000
-21.018700 0.000000
-20.969000 0.000000
-20.919300 0.000000
-20.869700 0.000000
-20.820000 0.000000
-20.770300 0.000000
-20.720600 0.000000
-20.670900 0.000000
-20.621200 0.000000
-20.571500 0.000000
-20.521800 0.000000
-20.472200 0.000000
-20.422500 0.000000
-20.372800 0.000000
-20.323100 0.000000
-20.273400 0.000000
-20.223700 0.000000
-20.174000 0.000000
-20.124400 0.000000
-20.074700 0.000000
-20.025000 0.000000
-19.975300 0.000000
-19.925600 0.000000
-19.875900 0.000000
-19.826200 0.000000
-19.776600 0.000000
-19.726900 0.000000
-19.677200 0.000000
-19.627500 0.000000
-19.577800 0.000000
-19.528100 0.000000
-19.478400 0.000000
-19.428700 0.000000
-19.379100 0.000000
-19.329400 0.000000
-19.279700 0.000000
-19.230000 0.000000
-19.180300 0.000000
-19.130600 0.000000
-19.080900 0.000000
-19.031300 0.000000
-18.981600 0.000000
-18.931900 0.000000
-18.882200 0.000000
-18.832500 0.000000
-18.782800 0.000000
-18.733100 0.000000
-18.683500 0.000000
-18.633800 0.000000
-18.584100 0.000000
-18.534400 0.000000
-18.484700 0.000000
-18.435000 0.000000
-18.385300 0.000000
-18.335600 0.000000
-18.286000 0.000000
-18.236300 0.000000
-18.186600 0.000000
-18.136900 0.000000
-18.087200 0.000000
-18.037500 0.000000
-17.987800 0.000000
-17.938200 0.000000
-17.888500 0.000000
-17.838800 0.000000
-17.789100 0.000000
-17.739400 0.000000
-17.689700 0.000000
-17.640000 0.000000
-17.590400 0.000000
-17.540700 0.000000
-17.491000 0.000000
-17.441300 0.000000
-17.391600 0.000000
-17.341900 0.000000
-17.292200 0.000000
-17.242500 0.000000
-17.192900 0.000000
-17.143200 0.000000
-17.093500 0.000000
-17.043800 0.000000
-16.994100 0.000000
-16.944400 0.000000
-16.894700 0.000000
-16.845100 0.000000
-16.795400 0.000000
-16.745700 0.000000
-16.696000 0.000000
-16.646300 0.000000
-16.596600 0.000000
-16.546900 0.000000
-16.497200 0.000000
-16.447600 0.000000
-16.397900 0.000000
-16.348200 0.000000
-16.298500 0.000000
-16.248800 0.000000
-16.199100 0.000000
-16.149400 0.000000
-16.099800 0.000000
-16.050100 0.000000
-16.000400 0.000000
-15.950700 0.000000
-15.901000 0.000000
-15.851300 0.000000
-15.801600 0.000000
-15.752000 0.000000
-15.702300 0.000000
-15.652600 0.000000
-15.602900 0.000000
-15.553200 0.000000
-15.503500 0.000000
-15.453800 0.000000
-15.404100 0.000000
-15.354500 0.000000
-15.304800 0.000000
-15.255100 0.000000
-15.205400 0.000000
-15.155700 0.000000
-15.106000 0.000000
-15.056300 0.000000
-15.006700 0.000000
-14.957000 0.000000
-14.907300 0.000000
-14.857600 0.000000
-14.807900 0.000000
-14.758200 0.000000
-14.708500 0.000000
-14.658900 0.000000
-14.609200 0.000000
-14.559500 0.000000
-14.509800 0.000000
-14.460100 0.000000
-14.410400 0.000000
-14.360700 0.000000
-14.311000 0.000000
-14.261400 0.000000
-14.211700 0.000000
-14.162000 0.000000
-14.112300 0.000000
-14.062600 0.000000
-14.012900 0.000000
-13.963200 0.000000
-13.913600 0.000000
-13.863900 0.000000
-13.814200 0.000000
-13.764500 0.000000
-13.714800 0.000000
-13.665100 0.000000
-13.615400 0.000000
-13.565800 0.000000
-13.516100 0.000000
-13.466400 0.000000
-13.416700 0.000000
-13.367000 0.000000
-13.317300 0.000000
-13.267600 0.000000
-13.217900 0.000000
-13.168300 0.000000
-13.118600 0.000000
-13.068900 0.000000
-13.019200 0.000000
-12.969500 0.000000
-12.919800 0.000000
-12.870100 0.000000
-12.820500 0.000000
-12.770800 0.000000
-12.721100 0.000000
-12.671400 0.000000
-12.621700 0.000000
-12.572000 0.000000
-12.522300 0.000000
-12.472700 0.000000
-12.423000 0.000000
-12.373300 0.000000
-12.323600 0.000000
-12.273900 0.000000
-12.224200 0.000000
-12.174500 0.000000
-12.124800 0.000000
-12.075200 0.000000
-12.025500 0.000000
-11.975800 0.000000
-11.926100 0.000000
-11.876400 0.000000
-11.826700 0.000000
-11.777000 0.000000
-11.727400 0.000000
-11.677700 0.000000
-11.628000 0.000000
-11.578300 0.000000
-11.528600 0.000000
-11.478900 0.000000
-11.429200 0.000000
-11.379600 0.000000
-11.329900 0.000000
-11.280200 0.000000
-11.230500 0.000000
-11.180800 0.000000
-11.131100 0.000000
-11.081400 0.000000
-11.031700 0.000000
-10.982100 0.000000
-10.932400 0.000000
-10.882700 0.000000
-10.833000 0.000000
-10.783300 0.000000
-10.733600 0.000000
-10.683900 0.000000
-10.634300 0.000000
-10.584600 0.000000
-10.534900 0.000000
-10.485200 0.000000
-10.435500 0.000000
-10.385800 0.000000
-10.336100 0.000000
-10.286500 0.000000
-10.236800 0.000000
-10.187100 0.000000
-10.137400 0.000000
-10.087700 0.000000
-10.038000 0.000000
-9.988300 0.000000
-9.938600 0.000000
-9.889000 0.000000
-9.839300 0.000000
-9.789600 0.000000
-9.739900 0.000000
-9.690200 0.000000
-9.640500 0.000000
-9.590800 0.000000
-9.541200 0.000000
-9.491500 0.000000
-9.441800 0.000000
-9.392100 0.000000
-9.342400 0.000000
-9.292700 0.000000
-9.243000 0.000000
-9.193400 0.000000
-9.143700 0.000000
-9.094000 0.000000
-9.044300 0.000000
-8.994600 0.000000
-8.944900 0.000000
-8.895200 0.000000
-8.845500 0.000000
-8.795900 0.000000
-8.746200 0.000000
-8.696500 0.000000
-8.646800 0.000000
-8.597100 0.000000
-8.547400 0.000000
-8.497700 0.000000
-8.448100 0.000000
-8.398400 0.000000
-8.348700 0.000000
-8.299000 0.000000
-8.249300 0.000000
-8.199600 0.000000
-8.149900 0.000000
-8.100300 0.000000
-8.050600 0.000000
-8.000900 0.000000
-7.951200 0.000000
-7.901500 0.000000
-7.851800 0.000000
-7.802100 0.000000
-7.752400 0.000000
-7.702800 0.000000
-7.653100 0.000000
-7.603400 0.000000
-7.553700 0.000000
-7.504000 0.000000
-7.454300 0.000000
-7.404600 0.000000
-7.355000 0.000000
-7.305300 0.000000
-7.255600 0.000000
-7.205900 0.000000
-7.156200 0.000000
-7.106500 0.000000
-7.056800 0.000000
-7.007200 0.000000
-6.957500 0.000000
-6.907800 0.000000
-6.858100 0.000000
-6.808400 0.000000
-6.758700 0.000000
-6.709000 0.000000
-6.659300 0.000000
-6.609700 0.000000
-6.560000 0.000000
-6.510300 0.000000
-6.460600 0.000000
-6.410900 0.000000
-6.361200 0.000000
-6.311500 0.000000
-6.261900 0.000000
-6.212200 0.000000
-6.162500 0.000000
-6.112800 0.000000
-6.063100 0.000000
-6.013400 0.000000
-5.963700 0.000000
-5.914100 0.000000
-5.864400 0.000000
-5.814700 0.000000
-5.765000 0.000000
-5.715300 0.000000
-5.665600 0.000000
-5.615900 0.000000
-5.566200 0.000000
-5.516600 0.000000
-5.466900 0.000000
-5.417200 0.000000
-5.367500 0.000000
-5.317800 0.000000
-5.268100 0.000000
-5.218400 0.000000
-5.168800 0.000000
-5.119100 0.000000
-5.069400 0.000000
-5.019700 0.000000
-4.970000 0.000000
-4.920300 0.000000
-4.870600 0.000000
-4.821000 0.000000
-4.771300 0.000000
-4.721600 0.000000
-4.671900 0.000000
-4.622200 0.000000
-4.572500 0.000000
-4.522800 0.000000
-4.473100 0.000000
-4.423500 0.000000
-4.373800 0.000000
-4.324100 0.000000
-4.274400 0.000000
-4.224700 0.000000
-4.175000 0.000000
-4.125300 0.000000
-4.075700 0.000000
-4.026000 0.000000
-3.976300 0.000000
-3.926600 0.000000
-3.876900 0.000000
-3.827200 0.000000
-3.777500 0.000000
-3.727900 0.000000
-3.678200 0.000000
-3.628500 0.000000
-3.578800 0.000000
-3.529100 0.000000
-3.479400 0.000000
-3.429700 0.000000
-3.380000 0.000000
-3.330400 0.000000
-3.280700 0.000000
-3.231000 0.000000
-3.181300 0.000000
-3.131600 0.000000
-3.081900 0.000000
-3.032200 0.000000
-2.982600 0.000000
-2.932900 0.000000
-2.883200 0.000000
-2.833500 0.000000
-2.783800 0.000000
-2.734100 0.000000
-2.684400 0.000000
-2.634800 0.000000
-2.585100 0.000000
-2.535400 0.000000
-2.485700 0.000000
-2.436000 0.000000
-2.386300 0.000000
-2.336600 0.003700
-2.286900 0.018700
-2.237300 0.037500
-2.187600 0.048000
-2.137900 0.053700
-2.088200 0.058700
-2.038500 0.065800
-1.988800 0.073200
-1.939100 0.080200
-1.889500 0.086800
-1.839800 0.092900
-1.790100 0.097800
-1.740400 0.102100
-1.690700 0.106400
-1.641000 0.111000
-1.591300 0.116000
-1.541700 0.121100
-1.492000 0.126400
-1.442300 0.131900
-1.392600 0.137600
-1.342900 0.143300
-1.293200 0.149000
-1.243500 0.153400
-1.193800 0.158300
-1.144200 0.163500
-1.094500 0.168800
-1.044800 0.174100
-0.995100 0.179600
-0.945400 0.185700
-0.895700 0.192200
-0.846000 0.198900
-0.796400 0.205800
-0.746700 0.213000
-0.697000 0.220500
-0.647300 0.230800
-0.597600 0.245700
-0.547900 0.256000
-0.498200 0.259000
-0.448600 0.258400
-0.398900 0.264000
-0.349200 0.269700
-0.299500 0.275400
-0.249800 0.281100
-0.200100 0.286000
-0.150400 0.290500
-0.100700 0.296100
-0.051100 0.303200
-0.001400 0.311100
0.048300 0.319500
0.098000 0.328300
0.147700 0.337500
0.197400 0.347100
0.247100 0.357000
0.296700 0.383700
0.346400 0.418400
0.396100 0.457000
0.445800 0.498400
0.495500 0.547900
0.545200 0.664500
0.594900 0.897900
0.644500 1.029900
0.694200 1.019300
0.743900 1.096400
0.793600 1.172900
0.843300 1.252800
0.893000 1.407100
0.942700 1.534200
0.992400 1.670700
1.042000 1.795500
1.091700 1.842200
1.141400 1.891800
1.191100 1.982900
1.240800 2.183500
1.290500 2.167400
1.340200 2.133100
1.389800 2.215100
1.439500 2.249700
1.489200 2.404100
1.538900 2.294900
1.588600 2.394600
1.638300 2.427200
1.688000 2.476700
1.737600 2.501700
1.787300 2.504600
1.837000 2.510900
1.886700 2.523600
1.936400 2.528900
1.986100 2.546200
2.035800 2.626200
2.085500 2.682700
2.135100 2.739500
2.184800 2.798200
2.234500 2.785000
2.284200 2.849700
2.333900 2.702600
2.383600 2.222900
2.433300 2.069200
2.482900 2.072900
2.532600 2.111400
2.582300 2.008200
2.632000 2.301600
2.681700 2.348500
2.731400 2.280800
2.781100 2.204700
2.830700 1.811500
2.880400 1.755900
2.930100 1.776900
2.979800 1.473100
3.029500 1.942300
3.079200 2.182300
3.128900 2.199000
3.178600 2.329000
3.228200 2.455200
3.277900 2.772600
3.327600 3.076000
3.377300 3.491900
3.427000 3.236200
3.476700 2.840700
3.526400 2.569700
3.576000 2.453300
3.625700 2.293200
3.675400 2.261300
3.725100 2.082900
3.774800 2.145000
3.824500 2.336200
3.874200 2.326600
3.923800 2.406600
3.973500 2.544700
4.023200 2.540900
4.072900 2.543200
4.122600 2.571400
4.172300 2.669900
4.222000 3.125900
4.271700 3.085500
4.321300 2.759200
4.371000 2.507200
4.420700 2.725100
4.470400 3.072700
4.520100 3.442100
4.569800 3.868400
4.619500 2.950200
4.669100 2.698500
4.718800 2.824800
4.768500 2.922800
4.818200 3.093600
4.867900 2.783900
4.917600 2.677100
4.967300 2.616200
5.016900 2.260200
5.066600 2.181300
5.116300 2.259300
5.166000 2.508300
5.215700 2.309200
5.265400 2.207600
5.315100 1.963600
5.364800 1.735100
5.414400 1.732000
5.464100 1.629900
5.513800 1.459100
5.563500 1.405400
5.613200 1.372000
5.662900 1.348100
5.712600 1.331700
5.762200 1.439600
5.811900 1.600100
5.861600 1.750000
5.911300 1.930500
5.961000 2.058400
6.010700 2.147100
6.060400 2.281800
6.110000 2.483000
6.159700 2.710500
6.209400 2.821400
6.259100 2.771800
6.308800 2.886100
6.358500 2.998700
6.408200 2.686200
6.457900 2.274100
6.507500 1.958300
6.557200 1.782800
6.606900 1.675900
6.656600 1.936600
6.706300 1.456900
6.756000 1.229900
6.805700 1.219400
6.855300 1.486200
6.905000 1.574900
6.954700 1.563800
7.004400 1.544900
7.054100 1.539300
7.103800 1.515100
7.153500 1.519300
7.203100 1.696700
7.252800 1.728500
7.302500 1.781500
7.352200 1.891100
7.401900 1.856900
7.451600 1.858500
7.501300 1.861700
7.551000 1.855100
7.600600 1.830100
7.650300 1.833000
7.700000 1.846800
7.749700 1.826000
7.799400 1.797900
7.849100 1.826100
7.898800 1.766200
7.948400 1.564200
7.998100 1.373600
8.047800 1.427300
8.097500 1.567600
8.147200 1.793300
8.196900 1.904400
8.246600 1.857900
8.296200 1.676000
8.345900 1.539000
8.395600 1.469900
8.445300 1.445000
8.495000 1.352800
8.544700 1.277800
8.594400 1.256800
8.644100 1.276600
8.693700 1.346100
8.743400 1.331100
8.793100 1.318900
8.842800 1.341800
8.892500 1.376700
8.942200 1.527500
8.991900 1.575700
9.041500 1.529800
9.091200 1.562800
9.140900 1.606500
9.190600 1.686700
9.240300 1.808300
9.290000 1.979800
9.339700 1.909600
9.389300 1.879500
9.439000 1.891500
9.488700 2.076700
9.538400 1.500400
9.588100 1.330000
9.637800 1.212400
9.687500 1.168200
9.737200 1.343900
9.786800 1.450700
9.836500 1.547800
9.886200 1.801200
9.935900 2.072000
9.985600 1.938100
10.035300 1.752700
10.085000 1.633000
10.134600 1.645200
10.184300 1.648000
10.234000 1.630600
10.283700 1.636600
10.333400 1.682700
10.383100 1.606900
10.432800 1.545900
10.482400 1.454200
10.532100 1.398400
10.581800 1.329200
10.631500 1.029000
10.681200 0.931200
10.730900 0.847000
10.780600 0.778700
10.830300 0.771900
10.879900 0.780600
10.929600 0.762600
10.979300 0.764100
11.029000 0.763700
11.078700 0.758500
11.128400 0.752100
11.178100 0.752200
11.227700 0.760400
11.277400 0.769300
11.327100 0.781500
11.376800 0.795900
11.426500 0.809300
11.476200 0.821300
11.525900 0.828700
11.575500 0.836000
11.625200 0.842000
11.674900 0.850700
11.724600 0.861200
11.774300 0.872500
11.824000 0.879400
11.873700 0.891400
11.923400 0.904000
11.973000 0.918800
12.022700 0.927200
12.072400 0.937600
12.122100 0.950900
12.171800 0.966900
12.221500 0.985000
12.271200 1.022600
12.320800 1.133800
12.370500 1.167200
12.420200 1.161800
12.469900 1.175900
12.519600 1.175200
12.569300 1.209300
12.619000 0.990600
12.668600 1.006500
12.718300 0.981900
12.768000 0.937800
12.817700 0.915300
12.867400 0.909400
12.917100 0.801200
12.966800 0.720200
13.016500 0.674900
13.066100 0.556000
13.115800 0.506000
13.165500 0.485900
13.215200 0.475700
13.264900 0.474700
13.314600 0.478400
13.364300 0.480800
13.413900 0.481700
13.463600 0.487900
13.513300 0.513500
13.563000 0.527600
13.612700 0.531600
13.662400 0.554100
13.712100 0.580100
13.761700 0.597300
13.811400 0.610000
13.861100 0.634800
13.910800 0.685600
13.960500 0.791200
14.010200 0.807600
14.059900 0.817200
14.109600 0.729800
14.159200 0.641700
14.208900 0.583500
14.258600 0.523500
14.308300 0.482200
14.358000 0.448000
14.407700 0.415200
14.457400 0.388100
14.507000 0.364700
14.556700 0.350100
14.606400 0.332000
14.656100 0.318900
14.705800 0.402300
14.755500 0.433100
14.805200 0.472500
14.854800 0.515000
14.904500 0.578400
14.954200 0.660400
15.003900 0.706200
15.053600 0.771700
15.103300 0.819400
15.153000 0.908100
15.202700 1.026100
15.252300 1.111300
15.302000 1.066300
15.351700 0.983900
15.401400 0.935900
15.451100 0.904800
15.500800 0.879300
15.550500 0.823800
15.600100 0.790900
15.649800 0.770600
15.699500 0.749500
15.749200 0.717500
15.798900 0.700100
15.848600 0.709800
15.898300 0.711800
15.947900 0.721700
15.997600 0.746100
16.047300 0.786300
16.097000 0.823900
16.146700 0.775900
16.196400 0.753500
16.246100 0.749200
16.295800 0.747100
16.345400 0.750200
16.395100 0.740100
16.444800 0.708800
16.494500 0.671900
16.544200 0.647100
16.593900 0.624500
16.643600 0.603500
16.693200 0.588500
16.742900 0.582100
16.792600 0.567700
16.842300 0.552300
16.892000 0.541700
16.941700 0.534300
16.991400 0.526800
17.041000 0.518900
17.090700 0.510100
17.140400 0.501200
17.190100 0.493400
17.239800 0.493200
17.289500 0.500900
17.339200 0.501700
17.388900 0.501500
17.438500 0.507800
17.488200 0.534600
17.537900 0.556600
17.587600 0.577600
17.637300 0.629100
17.687000 0.760600
17.736700 0.841200
17.786300 0.876900
17.836000 0.866200
17.885700 0.845000
17.935400 0.828200
17.985100 0.796600
18.034800 0.774600
18.084500 0.838500
18.134100 0.724000
18.183800 0.680000
18.233500 0.649100
18.283200 0.626800
18.332900 0.608700
18.382600 0.592600
18.432300 0.589200
18.482000 0.598400
18.531600 0.617700
18.581300 0.652700
18.631000 0.700200
18.680700 0.741900
18.730400 0.791200
18.780100 0.829600
18.829800 0.853700
18.879400 0.876500
18.929100 0.879900
18.978800 0.867000
19.028500 0.886400
19.078200 0.941100
19.127900 0.975600
19.177600 0.974500
19.227300 0.962300
19.276900 0.944500
19.326600 0.924700
19.376300 0.928300
19.426000 0.922200
19.475700 0.915900
19.525400 0.898600
19.575100 0.888500
19.624700 0.877600
19.674400 0.865000
19.724100 0.849800
19.773800 0.834000
19.823500 0.821800
19.873200 0.813200
19.922900 0.807800
19.972500 0.803100
20.022200 0.799500
20.071900 0.801200
20.121600 0.807600
20.171300 0.815000
20.221000 0.824500
20.270700 0.834500
20.320400 0.841700
20.370000 0.850600
20.419700 0.862500
20.469400 0.877300
20.519100 0.887900
20.568800 0.896900
20.618500 0.907100
20.668200 0.912800
20.717800 0.970100
20.767500 1.097500
20.817200 1.153300
20.866900 1.083900
20.916600 1.075000
20.966300 1.083000
21.016000 1.090500
21.065600 1.093400
21.115300 1.097400
21.165000 1.098300
21.214700 1.117300
21.264400 1.121800
21.314100 1.109700
21.363800 1.118500
21.413500 1.106100
21.463100 1.112800
21.512800 1.122800
21.562500 1.137000
21.612200 1.172000
21.661900 1.202100
21.711600 1.222700
21.761300 1.244600
21.810900 1.276000
21.860600 1.303700
21.910300 1.338800
21.960000 1.358600
22.009700 1.423200
22.059400 1.453300
22.109100 1.470300
22.158700 1.483800
22.208400 1.514500
22.258100 1.550400
22.307800 1.571300
22.357500 1.580700
22.407200 1.586600
22.456900 1.599400
22.506600 1.624000
22.556200 1.656500
22.605900 1.680300
22.655600 1.677000
22.705300 1.617400
22.755000 1.599500
22.804700 1.627100
22.854400 1.630300
22.904000 1.579200
22.953700 1.549800
23.003400 1.545200
23.053100 1.519200
23.102800 1.506900
23.152500 1.417600
23.202200 1.336700
23.251800 1.277600
23.301500 1.215400
23.351200 1.201500
23.400900 1.214900
23.450600 1.244800
23.500300 1.261400
23.550000 1.247800
23.599700 1.206400
23.649300 1.178200
23.699000 1.175400
23.748700 1.142400
23.798400 1.108000
23.848100 1.088700
23.897800 1.082100
23.947500 1.111100
23.997100 1.198600
24.046800 1.284100
24.096500 1.357200
24.146200 1.428600
24.195900 1.473600
24.245600 1.522500
24.295300 1.603500
24.344900 1.717400
24.394600 1.783300
24.444300 1.773700
24.494000 1.847800
24.543700 1.826400
24.593400 1.757200
24.643100 1.699100
24.692800 1.630100
24.742400 1.580800
24.792100 1.523500
24.841800 1.449800
24.891500 1.379300
24.941200 1.321700
24.990900 1.275300
25.040600 1.176100
25.090200 1.094900
25.139900 1.036900
25.189600 1.000200
25.239300 0.978800
25.289000 0.947700
25.338700 0.915700
25.388400 0.952700
25.438000 0.788900
25.487700 0.762900
25.537400 0.713600
25.587100 0.661200
25.636800 0.609400
25.686500 0.591300
25.736200 0.584200
25.785900 0.590100
25.835500 0.612600
25.885200 0.653600
25.934900 0.700800
25.984600 0.736500
26.034300 0.817100
26.084000 0.818200
26.133700 0.825400
26.183300 0.822700
26.233000 0.846700
26.282700 0.855900
26.332400 0.862300
26.382100 0.877400
26.431800 0.916700
26.481500 0.964600
26.531100 1.005000
26.580800 1.078300
26.630500 1.104400
26.680200 1.112600
26.729900 1.126700
26.779600 1.128900
26.829300 1.183600
26.879000 1.228500
26.928600 1.264700
26.978300 1.274100
27.028000 1.239300
27.077700 1.208700
27.127400 1.191800
27.177100 1.201000
27.226800 1.220000
27.276400 1.239500
27.326100 1.258400
27.375800 1.289400
27.425500 1.402400
27.475200 1.391400
27.524900 1.524100
27.574600 1.480500
27.624200 1.435500
27.673900 1.439000
27.723600 1.446300
27.773300 1.422700
27.823000 1.436800
27.872700 1.515600
27.922400 1.548200
27.972100 1.515800
28.021700 1.483400
28.071400 1.489000
28.121100 1.505500
28.170800 1.548800
28.220500 1.573800
28.270200 1.579600
28.319900 1.576000
28.369500 1.594100
28.419200 1.619100
28.468900 1.580100
28.518600 1.563000
28.568300 1.550200
28.618000 1.529400
28.667700 1.514800
28.717300 1.518400
28.767000 1.486400
28.816700 1.482900
28.866400 1.469500
28.916100 1.402200
28.965800 1.310600
29.015500 1.222300
29.065200 1.148300
29.114800 1.095800
29.164500 1.055600
29.214200 1.019900
29.263900 0.989900
29.313600 0.962700
29.363300 0.948300
29.413000 0.967800
29.462600 0.925400
29.512300 0.887300
29.562000 0.846200
29.611700 0.784400
29.661400 0.724800
29.711100 0.687400
29.760800 0.662800
29.810400 0.649400
29.860100 0.632100
29.909800 0.599000
29.959500 0.586800
30.009200 0.571400
30.058900 0.545000
30.108600 0.540700
30.158300 0.540100
30.207900 0.539700
30.257600 0.539800
30.307300 0.566100
30.357000 0.624200
30.406700 0.576400
30.456400 0.550600
30.506100 0.568500
30.555700 0.573600
30.605400 0.567400
30.655100 0.560300
30.704800 0.550600
30.754500 0.539400
30.804200 0.548000
30.853900 0.570200
30.903500 0.608300
30.953200 0.645200
31.002900 0.676600
31.052600 0.720800
31.102300 0.782800
31.152000 0.835000
31.201700 0.857400
31.251400 0.890400
31.301000 0.963100
31.350700 1.023200
31.400400 1.092000
31.450100 1.168700
31.499800 1.245600
31.549500 1.313300
31.599200 1.386600
31.648800 1.470600
31.698500 1.540300
31.748200 1.561500
31.797900 1.343700
31.847600 1.252900
31.897300 1.165300
31.947000 1.087000
31.996600 1.027700
32.046300 0.987600
32.096000 0.969900
32.145700 0.975800
32.195400 1.039000
32.245100 1.105500
32.294800 1.163600
32.344500 1.216400
32.394100 1.280400
32.443800 1.373600
32.493500 1.551200
32.543200 1.546200
32.592900 1.509400
32.642600 1.475800
32.692300 1.414500
32.741900 1.365200
32.791600 1.286100
32.841300 1.223800
32.891000 1.156100
32.940700 1.085500
32.990400 1.059900
33.040100 1.051100
33.089700 1.046700
33.139400 1.056300
33.189100 1.041900
33.238800 1.009200
33.288500 0.997200
33.338200 0.991000
33.387900 0.994000
33.437600 1.007000
33.487200 1.019100
33.536900 1.025600
33.586600 1.014400
33.636300 1.023200
33.686000 1.029600
33.735700 1.038100
33.785400 1.059100
33.835000 1.095800
33.884700 1.138200
33.934400 1.174100
33.984100 1.191100
34.033800 1.253800
34.083500 1.263500
34.133200 1.272300
34.182800 1.273800
34.232500 1.269100
34.282200 1.257400
34.331900 1.242300
34.381600 1.262200
34.431300 1.289500
34.481000 1.334800
34.530700 1.389500
34.580300 1.388400
34.630000 1.409700
34.679700 1.436000
34.729400 1.471100
34.779100 1.503000
34.828800 1.520100
34.878500 1.511800
34.928100 1.523700
34.977800 1.548700
35.027500 1.571300
35.077200 1.593600
35.126900 1.644000
35.176600 1.697000
35.226300 1.736600
35.275900 1.728500
35.325600 1.744800
35.375300 1.812700
35.425000 1.848600
35.474700 1.933200
35.524400 2.019000
35.574100 2.106000
35.623800 2.097700
35.673400 2.098500
35.723100 2.165800
35.772800 2.115700
35.822500 2.058900
35.872200 2.064100
35.921900 2.203700
35.971600 2.270600
36.021200 2.310800
36.070900 2.513900
36.120600 2.430600
36.170300 2.243600
36.220000 2.088400
36.269700 2.112200
36.319400 2.228900
36.369000 2.437800
36.418700 2.552100
36.468400 2.568800
36.518100 2.447600
36.567800 2.294100
36.617500 2.186200
36.667200 2.100400
36.716900 2.037000
36.766500 1.876200
36.816200 1.757900
36.865900 1.675200
36.915600 1.602800
36.965300 1.540400
37.015000 1.504700
37.064700 1.424300
37.114300 1.372000
37.164000 1.349500
37.213700 1.340700
37.263400 1.359100
37.313100 1.389200
37.362800 1.453300
37.412500 1.527700
37.462100 1.492600
37.511800 1.505800
37.561500 1.509900
37.611200 1.506100
37.660900 1.568300
37.710600 1.728800
37.760300 1.826300
37.810000 1.905700
37.859600 2.088800
37.909300 2.354000
37.959000 2.590700
38.008700 2.976200
38.058400 3.025600
38.108100 3.620700
38.157800 3.064100
38.207400 2.889600
38.257100 2.410200
38.306800 2.208000
38.356500 2.351500
38.406200 2.765600
38.455900 3.802500
38.505600 3.693200
38.555200 2.761800
38.604900 2.466000
38.654600 2.311500
38.704300 2.193800
38.754000 2.135700
38.803700 2.069500
38.853400 2.121900
38.903100 1.941000
38.952700 1.892000
39.002400 1.857700
39.052100 1.881500
39.101800 1.937700
39.151500 2.058500
39.201200 2.705100
39.250900 2.556900
39.300500 2.630300
39.350200 3.099700
39.399900 3.939400
39.449600 5.699600
39.499300 9.336100
39.549000 11.381300
39.598700 12.195700
39.648300 18.719700
39.698000 17.794900
39.747700 8.999500
39.797400 6.586700
39.847100 5.720700
39.896800 5.452700
39.946500 4.522500
39.996200 4.059600
40.045800 3.580300
40.095500 3.087200
40.145200 2.720800
40.194900 2.466700
40.244600 2.244600
40.294300 2.123600
40.344000 2.105500
40.393600 2.069200
40.443300 1.943300
40.493000 1.848500
40.542700 1.769600
40.592400 1.700800
40.642100 1.610800
40.691800 1.530400
40.741400 1.513800
40.791100 1.437800
40.840800 1.399300
40.890500 1.322500
40.940200 1.281800
40.989900 1.263800
41.039600 1.255800
41.089300 1.370000
41.138900 1.308400
41.188600 1.331700
41.238300 1.386300
41.288000 1.446800
41.337700 1.446500
41.387400 1.438100
41.437100 1.385800
41.486700 1.363200
41.536400 1.279100
41.586100 1.228600
41.635800 1.224600
41.685500 1.278700
41.735200 1.347400
41.784900 1.447700
41.834500 1.472000
41.884200 1.454100
41.933900 1.432700
41.983600 1.422700
42.033300 1.337100
42.083000 1.300800
42.132700 1.286900
42.182400 1.280600
42.232000 1.282900
42.281700 1.303300
42.331400 1.279900
42.381100 1.275600
42.430800 1.265900
42.480500 1.259900
42.530200 1.255200
42.579800 1.256900
42.629500 1.286500
42.679200 1.291600
42.728900 1.311400
42.778600 1.351200
42.828300 1.395200
42.878000 1.425900
42.927600 1.452500
42.977300 1.441000
43.027000 1.482500
43.076700 1.518300
43.126400 1.534000
43.176100 1.544400
43.225800 1.559100
43.275500 1.580600
43.325100 1.612200
43.374800 1.607300
43.424500 1.624000
43.474200 1.664500
43.523900 1.651700
43.573600 1.672600
43.623300 1.679400
43.672900 1.687200
43.722600 1.757000
43.772300 1.811300
43.822000 1.830600
43.871700 1.843600
43.921400 1.863200
43.971100 1.897100
44.020700 1.882600
44.070400 1.867100
44.120100 1.894300
44.169800 1.906500
44.219500 1.892800
44.269200 1.871800
44.318900 1.846100
44.368600 1.807000
44.418200 1.731200
44.467900 1.707800
44.517600 1.779500
44.567300 1.885900
44.617000 1.885400
44.666700 1.784500
44.716400 1.753300
44.766000 1.800500
44.815700 1.863400
44.865400 1.886500
44.915100 1.744400
44.964800 1.697700
45.014500 1.656500
45.064200 1.605500
45.113800 1.659100
45.163500 1.785200
45.213200 1.791200
45.262900 1.744700
45.312600 1.744600
45.362300 1.768300
45.412000 1.890000
45.461700 1.818800
45.511300 1.788600
45.561000 1.760700
45.610700 1.767000
45.660400 1.794700
45.710100 1.815700
45.759800 1.843200
45.809500 1.875900
45.859100 1.871000
45.908800 1.883900
45.958500 1.888800
46.008200 1.876300
46.057900 1.871200
46.107600 1.793800
46.157300 1.775700
46.206900 1.762500
46.256600 1.721000
46.306300 1.708800
46.356000 1.694500
46.405700 1.690800
46.455400 1.696700
46.505100 1.696700
46.554800 1.700200
46.604400 1.744100
46.654100 1.782400
46.703800 1.724600
46.753500 1.661800
46.803200 1.548800
46.852900 1.461100
46.902600 1.390200
46.952200 1.299300
47.001900 1.241400
47.051600 1.143300
47.101300 1.114100
47.151000 1.194100
47.200700 1.213600
47.250400 1.248100
47.300000 1.303700
47.349700 1.442900
47.399400 1.387900
47.449100 1.392000
47.498800 1.393200
47.548500 1.430900
47.598200 1.421500
47.647900 1.395700
47.697500 1.415800
47.747200 1.427900
47.796900 1.445300
47.846600 1.501400
47.896300 1.537600
47.946000 1.534100
47.995700 1.475200
48.045300 1.500100
48.095000 1.544100
48.144700 1.529600
48.194400 1.520500
48.244100 1.539900
48.293800 1.581200
48.343500 1.619700
48.393100 1.652500
48.442800 1.652800
48.492500 1.633800
48.542200 1.679200
48.591900 1.648700
48.641600 1.595500
48.691300 1.556000
48.741000 1.529600
48.790600 1.481200
48.840300 1.423800
48.890000 1.392100
48.939700 1.383600
48.989400 1.354300
49.039100 1.290400
49.088800 1.251500
49.138400 1.226100
49.188100 1.203200
49.237800 1.193600
49.287500 1.178500
49.337200 1.193500
49.386900 1.200200
49.436600 1.194100
49.486200 1.227300
49.535900 1.268600
49.585600 1.280600
49.635300 1.282300
49.685000 1.306000
49.734700 1.341600
49.784400 1.435600
49.834100 1.454900
49.883700 1.454500
49.933400 1.484000
49.983100 1.487900
50.032800 1.507000
50.082500 1.554200
50.132200 1.602100
50.181900 1.634300
50.231500 1.650000
50.281200 1.642500
50.330900 1.679400
50.380600 1.694900
50.430300 1.714400
50.480000 1.718700
50.529700 1.754800
50.579300 1.817700
50.629000 1.870000
50.678700 1.880200
50.728400 1.881000
50.778100 1.877500
50.827800 1.872600
50.877500 1.877200
50.927200 1.875200
50.976800 1.856300
51.026500 1.846600
51.076200 1.858000
51.125900 1.856700
51.175600 1.807500
51.225300 1.768400
51.275000 1.721500
51.324600 1.695000
51.374300 1.702800
51.424000 1.702900
51.473700 1.712100
51.523400 1.709000
51.573100 1.688900
51.622800 1.680500
51.672400 1.673100
51.722100 1.684400
51.771800 1.678400
51.821500 1.692400
51.871200 1.705100
51.920900 1.718800
51.970600 1.706400
52.020300 1.728600
52.069900 1.762900
52.119600 1.770200
52.169300 1.774500
52.219000 1.757500
52.268700 1.740100
52.318400 1.699400
52.368100 1.655000
52.417700 1.604700
52.467400 1.538700
52.517100 1.499000
52.566800 1.483800
52.616500 1.471900
52.666200 1.465700
52.715900 1.486000
52.765500 1.524200
52.815200 1.582100
52.864900 1.598100
52.914600 1.600800
52.964300 1.619800
53.014000 1.638600
53.063700 1.644600
53.113400 1.648700
53.163000 1.654500
53.212700 1.617800
53.262400 1.611100
53.312100 1.637000
53.361800 1.576400
53.411500 1.541000
53.461200 1.551400
53.510800 1.608100
53.560500 1.715600
53.610200 1.679600
53.659900 1.667700
53.709600 1.695100
53.759300 1.712100
53.809000 1.750000
53.858600 1.766600
53.908300 1.824400
53.958000 1.877200
54.007700 1.984700
54.057400 2.027600
54.107100 2.023300
54.156800 2.002600
54.206500 1.911500
54.256100 1.927000
54.305800 1.940000
54.355500 1.928800
54.405200 1.933700
54.454900 1.898100
54.504600 1.797600
54.554300 1.754100
54.603900 1.667800
54.653600 1.649100
54.703300 1.627600
54.753000 1.608700
54.802700 1.624400
54.852400 1.676500
54.902100 1.719400
54.951700 1.772700
55.001400 1.850900
55.051100 1.900900
55.100800 1.923300
55.150500 1.925400
55.200200 1.912900
55.249900 1.841700
55.299600 1.728900
55.349200 1.662700
55.398900 1.629800
55.448600 1.634500
55.498300 1.646200
55.548000 1.619600
55.597700 1.586900
55.647400 1.567400
55.697000 1.578500
55.746700 1.601000
55.796400 1.661300
55.846100 1.717100
55.895800 1.786700
55.945500 1.856100
55.995200 1.713400
56.044900 1.670800
56.094500 1.633000
56.144200 1.603400
56.193900 1.574900
56.243600 1.535000
56.293300 1.487100
56.343000 1.428000
56.392700 1.409400
56.442300 1.394700
56.492000 1.378700
56.541700 1.377800
56.591400 1.373300
56.641100 1.362200
56.690800 1.351000
56.740500 1.351000
56.790100 1.349600
56.839800 1.327700
56.889500 1.338500
56.939200 1.365000
56.988900 1.416200
57.038600 1.507800
57.088300 1.621900
57.138000 1.711300
57.187600 1.784800
57.237300 1.830400
57.287000 1.818200
57.336700 1.784200
57.386400 1.696300
57.436100 1.663900
57.485800 1.557200
57.535400 1.443300
57.585100 1.358000
57.634800 1.286600
57.684500 1.232000
57.734200 1.165200
57.783900 1.127700
57.833600 1.114700
57.883200 1.129800
57.932900 1.203600
57.982600 1.059300
58.032300 1.056400
58.082000 1.066900
58.131700 0.976700
58.181400 0.922300
58.231100 0.891600
58.280700 0.853200
58.330400 0.817100
58.380100 0.828600
58.429800 0.897000
58.479500 0.956800
58.529200 0.987600
58.578900 1.010500
58.628500 0.940400
58.678200 0.841200
58.727900 0.768200
58.777600 0.705400
58.827300 0.502300
58.877000 0.275800
58.926700 0.106400
58.976300 0.062600
59.026000 0.035000
59.075700 0.012700
59.125400 0.004300
59.175100 0.001100
59.224800 0.000000
59.274500 0.000000
59.324200 0.000000
59.373800 0.000000
59.423500 0.000000
59.473200 0.000000
59.522900 0.000000
59.572600 0.000000
59.622300 0.000000
59.672000 0.000000
59.721600 0.000000
59.771300 0.000000
59.821000 0.000000
59.870700 0.000000
59.920400 0.000000
59.970100 0.000000
60.019800 0.000000
60.069400 0.000000
60.119100 0.000000
60.168800 0.000000
60.218500 0.000000
60.268200 0.000000
60.317900 0.000000
60.367600 0.000000
60.417300 0.000000
60.466900 0.000000
60.516600 0.000000
60.566300 0.000000
60.616000 0.000000
60.665700 0.000000
60.715400 0.000000
60.765100 0.000000
60.814700 0.000000
60.864400 0.000000
60.914100 0.000000
60.963800 0.000000
61.013500 0.000000
61.063200 0.000000
61.112900 0.000000
61.162500 0.000000
61.212200 0.000000
61.261900 0.000000
61.311600 0.000000
61.361300 0.000000
61.411000 0.000000
61.460700 0.000000
61.510400 0.000000
61.560000 0.000000
61.609700 0.000000
61.659400 0.000000
61.709100 0.000000
61.758800 0.000000
61.808500 0.000000
61.858200 0.000000
61.907800 0.000000
61.957500 0.000000
62.007200 0.000000
62.056900 0.000000
62.106600 0.000000
62.156300 0.000000
62.206000 0.000000
62.255600 0.000000
62.305300 0.000000
62.355000 0.000000
62.404700 0.000000
62.454400 0.000000
62.504100 0.000000
62.553800 0.000000
62.603500 0.000000
62.653100 0.000000
62.702800 0.000000
62.752500 0.000000
62.802200 0.000000
62.851900 0.000000
62.901600 0.000000
62.951300 0.000000
63.000900 0.000000
63.050600 0.000000
63.100300 0.000000
63.150000 0.000000
63.199700 0.000000
63.249400 0.000000
63.299100 0.000000
63.348700 0.000000
63.398400 0.000000
63.448100 0.000000
63.497800 0.000000
63.547500 0.000000
63.597200 0.000000
63.646900 0.000000
63.696600 0.000000
63.746200 0.000000
e
