set title 'mp-1067880 - Density of States'
set xlabel 'Energy (eV)'
set ylabel 'DOS (states/eV)'
set grid
set xrange [-10:10]
set yrange [0:2.875]
set xzeroaxis lt -1
set terminal png size 800,600
set output 'mp-1067880_dos_gnuplot.png'
plot '-' using 1:2 with lines title 'DOS'
-14.407300 0.000000
-14.387000 0.000000
-14.366600 0.000000
-14.346300 0.000000
-14.325900 0.000000
-14.305600 0.000000
-14.285200 0.000000
-14.264800 0.000000
-14.244500 0.000000
-14.224100 0.000000
-14.203800 0.000000
-14.183400 0.000000
-14.163100 0.000000
-14.142700 0.000000
-14.122400 0.000000
-14.102000 0.000000
-14.081700 0.000000
-14.061300 0.000000
-14.041000 0.000000
-14.020600 0.000000
-14.000300 0.000000
-13.979900 0.000000
-13.959600 0.000000
-13.939200 0.000000
-13.918900 0.000000
-13.898500 0.000000
-13.878200 0.000000
-13.857800 0.000000
-13.837500 0.000000
-13.817100 0.000000
-13.796800 0.000000
-13.776400 0.000000
-13.756100 0.000000
-13.735700 0.000000
-13.715300 0.000000
-13.695000 0.000000
-13.674600 0.000000
-13.654300 0.000000
-13.633900 0.000000
-13.613600 0.000000
-13.593200 0.000000
-13.572900 0.000000
-13.552500 0.000000
-13.532200 0.000000
-13.511800 0.000000
-13.491500 0.000000
-13.471100 0.000000
-13.450800 0.000000
-13.430400 0.000000
-13.410100 0.000000
-13.389700 0.000000
-13.369400 0.000000
-13.349000 0.000000
-13.328700 0.000000
-13.308300 0.000000
-13.288000 0.000000
-13.267600 0.000000
-13.247300 0.000000
-13.226900 0.000000
-13.206600 0.000000
-13.186200 0.000000
-13.165800 0.000000
-13.145500 0.000000
-13.125100 0.000000
-13.104800 0.000000
-13.084400 0.000000
-13.064100 0.000000
-13.043700 0.000000
-13.023400 0.000000
-13.003000 0.000000
-12.982700 0.000000
-12.962300 0.000000
-12.942000 0.000000
-12.921600 0.000000
-12.901300 0.000000
-12.880900 0.000000
-12.860600 0.000000
-12.840200 0.000000
-12.819900 0.000000
-12.799500 0.000000
-12.779200 0.000000
-12.758800 0.000000
-12.738500 0.000000
-12.718100 0.000000
-12.697800 0.000000
-12.677400 0.000000
-12.657100 0.000000
-12.636700 0.000000
-12.616300 0.000000
-12.596000 0.000000
-12.575600 0.000000
-12.555300 3.138800
-12.534900 27.170900
-12.514600 82.322900
-12.494200 78.081600
-12.473900 93.617800
-12.453500 102.043600
-12.433200 93.994400
-12.412800 78.832100
-12.392500 96.922600
-12.372100 95.470800
-12.351800 41.750900
-12.331400 56.337100
-12.311100 56.434000
-12.290700 69.003000
-12.270400 68.669600
-12.250000 40.618600
-12.229700 77.735200
-12.209300 67.390500
-12.189000 93.615500
-12.168600 78.382300
-12.148300 98.249200
-12.127900 92.709000
-12.107600 68.023900
-12.087200 74.382000
-12.066800 76.458300
-12.046500 62.561700
-12.026100 54.294000
-12.005800 0.000000
-11.985400 0.000000
-11.965100 0.000000
-11.944700 0.000000
-11.924400 0.000000
-11.904000 0.000000
-11.883700 0.000000
-11.863300 0.000000
-11.843000 0.000000
-11.822600 0.000000
-11.802300 0.000000
-11.781900 0.000000
-11.761600 0.000000
-11.741200 0.000000
-11.720900 0.000000
-11.700500 0.000000
-11.680200 0.000000
-11.659800 0.000000
-11.639500 0.000000
-11.619100 0.000000
-11.598800 0.000000
-11.578400 0.000000
-11.558100 0.000000
-11.537700 0.000000
-11.517300 0.000000
-11.497000 0.000000
-11.476600 0.000000
-11.456300 0.000000
-11.435900 0.000000
-11.415600 0.000000
-11.395200 0.000000
-11.374900 0.000000
-11.354500 0.000000
-11.334200 0.000000
-11.313800 0.000000
-11.293500 0.000000
-11.273100 0.000000
-11.252800 0.000000
-11.232400 0.000000
-11.212100 0.000000
-11.191700 0.000000
-11.171400 0.000000
-11.151000 0.000000
-11.130700 0.000000
-11.110300 0.000000
-11.090000 0.000000
-11.069600 0.000000
-11.049300 0.000000
-11.028900 0.000000
-11.008600 0.000000
-10.988200 0.000000
-10.967800 0.000000
-10.947500 0.000000
-10.927100 0.000000
-10.906800 0.000000
-10.886400 0.000000
-10.866100 0.000000
-10.845700 0.000000
-10.825400 0.000000
-10.805000 0.000000
-10.784700 0.000000
-10.764300 0.000000
-10.744000 0.000000
-10.723600 0.000000
-10.703300 0.000000
-10.682900 0.000000
-10.662600 0.000000
-10.642200 0.000000
-10.621900 0.000000
-10.601500 0.000000
-10.581200 0.000000
-10.560800 0.000000
-10.540500 0.000000
-10.520100 0.000000
-10.499800 0.000000
-10.479400 0.000000
-10.459100 0.000000
-10.438700 0.000000
-10.418300 0.000000
-10.398000 0.000000
-10.377600 0.000000
-10.357300 0.000000
-10.336900 0.000000
-10.316600 0.000000
-10.296200 0.000000
-10.275900 0.000000
-10.255500 0.000000
-10.235200 0.000000
-10.214800 0.000000
-10.194500 0.000000
-10.174100 0.000000
-10.153800 0.000000
-10.133400 0.000000
-10.113100 0.000000
-10.092700 0.000000
-10.072400 0.000000
-10.052000 0.000000
-10.031700 0.000000
-10.011300 0.000000
-9.991000 0.000000
-9.970600 0.000000
-9.950300 0.000000
-9.929900 0.000000
-9.909600 0.000000
-9.889200 0.000000
-9.868800 0.000000
-9.848500 0.000000
-9.828100 0.000000
-9.807800 0.000000
-9.787400 0.000000
-9.767100 0.000000
-9.746700 0.000000
-9.726400 0.000000
-9.706000 0.000000
-9.685700 0.000000
-9.665300 0.000000
-9.645000 0.000000
-9.624600 0.000000
-9.604300 0.000000
-9.583900 0.000000
-9.563600 0.000000
-9.543200 0.000000
-9.522900 0.000000
-9.502500 0.000000
-9.482200 0.000000
-9.461800 0.000000
-9.441500 0.000000
-9.421100 0.000000
-9.400800 0.000000
-9.380400 0.000000
-9.360000 0.000000
-9.339700 0.000000
-9.319300 0.000000
-9.299000 0.000000
-9.278600 0.000000
-9.258300 0.000000
-9.237900 0.000000
-9.217600 0.000000
-9.197200 0.000000
-9.176900 0.000000
-9.156500 0.000000
-9.136200 0.000000
-9.115800 0.000000
-9.095500 0.000000
-9.075100 0.000000
-9.054800 0.000000
-9.034400 0.000000
-9.014100 0.000000
-8.993700 0.000000
-8.973400 0.000000
-8.953000 0.000000
-8.932700 0.000000
-8.912300 0.000000
-8.892000 0.000000
-8.871600 0.000000
-8.851300 0.000000
-8.830900 0.000000
-8.810500 0.000000
-8.790200 0.000000
-8.769800 0.000000
-8.749500 0.000000
-8.729100 0.000000
-8.708800 0.000000
-8.688400 0.000000
-8.668100 0.000000
-8.647700 0.000000
-8.627400 0.000000
-8.607000 0.000000
-8.586700 0.000000
-8.566300 0.000000
-8.546000 0.000000
-8.525600 0.000000
-8.505300 0.000000
-8.484900 0.000000
-8.464600 0.000000
-8.444200 0.000000
-8.423900 0.000000
-8.403500 0.000000
-8.383200 0.000000
-8.362800 0.000000
-8.342500 0.000000
-8.322100 0.000000
-8.301800 0.000000
-8.281400 0.000000
-8.261000 0.000000
-8.240700 0.000000
-8.220300 0.000000
-8.200000 0.000000
-8.179600 0.000000
-8.159300 0.000000
-8.138900 0.000000
-8.118600 0.000000
-8.098200 0.000000
-8.077900 0.000000
-8.057500 0.000000
-8.037200 0.005700
-8.016800 0.033900
-7.996500 0.085500
-7.976100 0.151800
-7.955800 0.175000
-7.935400 0.184600
-7.915100 0.186300
-7.894700 0.206700
-7.874400 0.227700
-7.854000 0.249400
-7.833700 0.271800
-7.813300 0.293000
-7.793000 0.308700
-7.772600 0.317600
-7.752300 0.321300
-7.731900 0.326600
-7.711500 0.336400
-7.691200 0.348100
-7.670800 0.360000
-7.650500 0.372000
-7.630100 0.384000
-7.609800 0.395900
-7.589400 0.407800
-7.569100 0.420200
-7.548700 0.433100
-7.528400 0.443800
-7.508000 0.452600
-7.487700 0.459500
-7.467300 0.466600
-7.447000 0.472900
-7.426600 0.480800
-7.406300 0.488400
-7.385900 0.496000
-7.365600 0.503700
-7.345200 0.511700
-7.324900 0.519900
-7.304500 0.528100
-7.284200 0.536800
-7.263800 0.545800
-7.243500 0.555100
-7.223100 0.564700
-7.202800 0.574400
-7.182400 0.584200
-7.162000 0.593300
-7.141700 0.601500
-7.121300 0.609000
-7.101000 0.616300
-7.080600 0.623500
-7.060300 0.630500
-7.039900 0.637100
-7.019600 0.644000
-6.999200 0.651400
-6.978900 0.658900
-6.958500 0.666400
-6.938200 0.674100
-6.917800 0.681900
-6.897500 0.690000
-6.877100 0.698200
-6.856800 0.706800
-6.836400 0.715700
-6.816100 0.724800
-6.795700 0.734100
-6.775400 0.743400
-6.755000 0.752900
-6.734700 0.762500
-6.714300 0.772500
-6.694000 0.782800
-6.673600 0.793800
-6.653300 0.805800
-6.632900 0.819000
-6.612500 0.833200
-6.592200 0.848100
-6.571800 0.867300
-6.551500 0.928700
-6.531100 0.982300
-6.510800 1.026900
-6.490400 0.984100
-6.470100 0.986400
-6.449700 0.987100
-6.429400 0.987900
-6.409000 0.992800
-6.388700 1.002100
-6.368300 1.014100
-6.348000 1.024800
-6.327600 1.030000
-6.307300 1.035500
-6.286900 1.036600
-6.266600 1.036400
-6.246200 1.033800
-6.225900 1.029700
-6.205500 1.024000
-6.185200 1.016300
-6.164800 1.006800
-6.144500 1.010400
-6.124100 1.058300
-6.103800 1.058700
-6.083400 1.026100
-6.063000 0.965900
-6.042700 0.943300
-6.022300 0.928400
-6.002000 0.913300
-5.981600 0.898500
-5.961300 0.884100
-5.940900 0.870500
-5.920600 0.862600
-5.900200 0.879100
-5.879900 0.899900
-5.859500 0.927200
-5.839200 0.875800
-5.818800 0.869900
-5.798500 0.863200
-5.778100 0.856900
-5.757800 0.850800
-5.737400 0.844900
-5.717100 0.829800
-5.696700 0.807900
-5.676400 0.783200
-5.656000 0.766700
-5.635700 0.752800
-5.615300 0.741500
-5.595000 0.730000
-5.574600 0.721600
-5.554300 0.713800
-5.533900 0.706500
-5.513500 0.699500
-5.493200 0.693200
-5.472800 0.688800
-5.452500 0.684500
-5.432100 0.680300
-5.411800 0.669900
-5.391400 0.663800
-5.371100 0.662400
-5.350700 0.670700
-5.330400 0.682100
-5.310000 0.696400
-5.289700 0.717700
-5.269300 0.749800
-5.249000 0.789400
-5.228600 0.833600
-5.208300 0.879900
-5.187900 0.933500
-5.167600 0.985400
-5.147200 1.007500
-5.126900 1.005400
-5.106500 0.993500
-5.086200 0.992300
-5.065800 1.007300
-5.045500 0.996900
-5.025100 0.989100
-5.004800 0.981900
-4.984400 0.975300
-4.964000 0.967500
-4.943700 0.960300
-4.923300 0.961700
-4.903000 0.991500
-4.882600 0.986600
-4.862300 0.983300
-4.841900 0.957600
-4.821600 0.955200
-4.801200 0.953700
-4.780900 0.952900
-4.760500 0.951600
-4.740200 0.950500
-4.719800 1.029800
-4.699500 0.988400
-4.679100 0.941100
-4.658800 0.945200
-4.638400 0.950800
-4.618100 0.956700
-4.597700 0.964500
-4.577400 0.974300
-4.557000 0.985300
-4.536700 0.998200
-4.516300 1.014600
-4.496000 1.038600
-4.475600 1.068900
-4.455300 1.148900
-4.434900 1.208000
-4.414500 1.293400
-4.394200 1.402600
-4.373800 1.419700
-4.353500 1.425000
-4.333100 1.409500
-4.312800 1.372300
-4.292400 1.347200
-4.272100 1.346600
-4.251700 1.369200
-4.231400 1.366500
-4.211000 1.355000
-4.190700 1.318700
-4.170300 1.295900
-4.150000 1.279300
-4.129600 1.254700
-4.109300 1.231000
-4.088900 1.191000
-4.068600 1.146900
-4.048200 1.106700
-4.027900 1.070800
-4.007500 1.039200
-3.987200 1.005000
-3.966800 0.982700
-3.946500 0.963400
-3.926100 0.920600
-3.905800 0.904300
-3.885400 0.887900
-3.865000 0.865300
-3.844700 0.840200
-3.824300 0.823300
-3.804000 0.809600
-3.783600 0.791100
-3.763300 0.773200
-3.742900 0.759400
-3.722600 0.745900
-3.702200 0.730400
-3.681900 0.712900
-3.661500 0.692700
-3.641200 0.675300
-3.620800 0.809800
-3.600500 0.709600
-3.580100 0.705600
-3.559800 0.719700
-3.539400 0.698000
-3.519100 0.727800
-3.498700 0.742100
-3.478400 0.771300
-3.458000 0.818200
-3.437700 0.878300
-3.417300 0.865000
-3.397000 0.896400
-3.376600 0.919800
-3.356300 0.940800
-3.335900 0.959300
-3.315500 0.999600
-3.295200 1.019600
-3.274800 1.040000
-3.254500 1.055200
-3.234100 1.065900
-3.213800 1.070600
-3.193400 1.068800
-3.173100 1.057500
-3.152700 1.089500
-3.132400 1.031700
-3.112000 1.037500
-3.091700 1.047000
-3.071300 1.057200
-3.051000 1.092400
-3.030600 1.129800
-3.010300 1.170000
-2.989900 1.213500
-2.969600 1.137900
-2.949200 1.152000
-2.928900 1.166700
-2.908500 1.185200
-2.888200 1.166500
-2.867800 1.185600
-2.847500 1.209300
-2.827100 1.246000
-2.806800 1.289400
-2.786400 1.345500
-2.766000 1.416900
-2.745700 1.503500
-2.725300 1.576800
-2.705000 1.587400
-2.684600 1.535200
-2.664300 1.494200
-2.643900 1.467100
-2.623600 1.455400
-2.603200 1.453200
-2.582900 1.436800
-2.562500 1.427200
-2.542200 1.425800
-2.521800 1.422100
-2.501500 1.422400
-2.481100 1.402800
-2.460800 1.397500
-2.440400 1.393600
-2.420100 1.391800
-2.399700 1.394400
-2.379400 1.401300
-2.359000 1.405100
-2.338700 1.403700
-2.318300 1.399600
-2.298000 1.400000
-2.277600 1.402400
-2.257300 1.409800
-2.236900 1.400600
-2.216500 1.381400
-2.196200 1.369300
-2.175800 1.359900
-2.155500 1.348100
-2.135100 1.333800
-2.114800 1.325400
-2.094400 1.319700
-2.074100 1.315100
-2.053700 1.313700
-2.033400 1.315100
-2.013000 1.316500
-1.992700 1.310500
-1.972300 1.303500
-1.952000 1.298000
-1.931600 1.294200
-1.911300 1.293000
-1.890900 1.295500
-1.870600 1.295500
-1.850200 1.292500
-1.829900 1.285300
-1.809500 1.272800
-1.789200 1.262200
-1.768800 1.253200
-1.748500 1.239500
-1.728100 1.227200
-1.707800 1.215000
-1.687400 1.195100
-1.667000 1.170600
-1.646700 1.128600
-1.626300 1.103900
-1.606000 1.086000
-1.585600 1.067000
-1.565300 1.054000
-1.544900 1.051100
-1.524600 1.048000
-1.504200 1.042700
-1.483900 1.035200
-1.463500 1.025000
-1.443200 1.006700
-1.422800 0.992000
-1.402500 0.984800
-1.382100 0.978600
-1.361800 0.972900
-1.341400 0.966600
-1.321100 0.988200
-1.300700 0.982400
-1.280400 0.962100
-1.260000 0.952600
-1.239700 0.945100
-1.219300 0.937000
-1.199000 0.928700
-1.178600 0.920000
-1.158200 0.910900
-1.137900 0.898400
-1.117500 0.886200
-1.097200 0.873900
-1.076800 0.860900
-1.056500 0.846700
-1.036100 0.831300
-1.015800 0.814700
-0.995400 0.800800
-0.975100 0.794300
-0.954700 0.790200
-0.934400 0.787400
-0.914000 0.786300
-0.893700 0.786200
-0.873300 0.787200
-0.853000 0.789300
-0.832600 0.792500
-0.812300 0.807900
-0.791900 0.850700
-0.771600 0.898700
-0.751200 0.936400
-0.730900 0.963800
-0.710500 0.983500
-0.690200 0.995300
-0.669800 1.011500
-0.649500 1.032600
-0.629100 1.074300
-0.608700 1.121000
-0.588400 1.166600
-0.568000 1.158300
-0.547700 1.175100
-0.527300 1.187900
-0.507000 1.201100
-0.486600 1.214200
-0.466300 1.228200
-0.445900 1.239000
-0.425600 1.242600
-0.405200 1.249200
-0.384900 1.260700
-0.364500 1.275500
-0.344200 1.291800
-0.323800 1.309000
-0.303500 1.325700
-0.283100 1.348300
-0.262800 1.370700
-0.242400 1.379800
-0.222100 1.379500
-0.201700 1.393700
-0.181400 1.414600
-0.161000 1.424700
-0.140700 1.423000
-0.120300 1.428400
-0.100000 1.427800
-0.079600 1.428500
-0.059200 1.435000
-0.038900 1.446500
-0.018500 1.461900
0.001800 1.478000
0.022200 1.493300
0.042500 1.510700
0.062900 1.524700
0.083200 1.559000
0.103600 1.571200
0.123900 1.573300
0.144300 1.573300
0.164600 1.568300
0.185000 1.559500
0.205300 1.551100
0.225700 1.552600
0.246000 1.560800
0.266400 1.572700
0.286700 1.587600
0.307100 1.597400
0.327400 1.613400
0.347800 1.633700
0.368100 1.656500
0.388500 1.677100
0.408800 1.705500
0.429200 1.722300
0.449500 1.722200
0.469900 1.736400
0.490300 1.742400
0.510600 1.742900
0.531000 1.742600
0.551300 1.752100
0.571700 1.765600
0.592000 1.779300
0.612400 1.791900
0.632700 1.801200
0.653100 1.818800
0.673400 1.848300
0.693800 1.874500
0.714100 1.898800
0.734500 1.912000
0.754800 1.916800
0.775200 1.907400
0.795500 1.913200
0.815900 1.915900
0.836200 1.915700
0.856600 1.913900
0.876900 1.925800
0.897300 1.926900
0.917600 1.905600
0.938000 1.890500
0.958300 1.881600
0.978700 1.881200
0.999000 1.889500
1.019400 1.902700
1.039800 1.913600
1.060100 1.907100
1.080500 1.918900
1.100800 1.925600
1.121200 1.931500
1.141500 1.939600
1.161900 1.952100
1.182200 1.971200
1.202600 1.998500
1.222900 2.028700
1.243300 2.057100
1.263600 2.079200
1.284000 2.093700
1.304300 2.082500
1.324700 2.111100
1.345000 2.133400
1.365400 2.109900
1.385700 2.078400
1.406100 2.039600
1.426400 1.993700
1.446800 1.949000
1.467100 1.906300
1.487500 1.870200
1.507800 1.847500
1.528200 1.807500
1.548500 1.767800
1.568900 1.736100
1.589300 1.713300
1.609600 1.729900
1.630000 1.765000
1.650300 1.710100
1.670700 1.655100
1.691000 1.631800
1.711400 1.623800
1.731700 1.628700
1.752100 1.613800
1.772400 1.598300
1.792800 1.585100
1.813100 1.601100
1.833500 1.608600
1.853800 1.576200
1.874200 1.561100
1.894500 1.563500
1.914900 1.590600
1.935200 1.628600
1.955600 1.642000
1.975900 1.646100
1.996300 1.656600
2.016600 1.678700
2.037000 1.683000
2.057300 1.669000
2.077700 1.641100
2.098000 1.623200
2.118400 1.606900
2.138800 1.592100
2.159100 1.569700
2.179500 1.556000
2.199800 1.538700
2.220200 1.493100
2.240500 1.467000
2.260900 1.414000
2.281200 1.354100
2.301600 1.303700
2.321900 1.260100
2.342300 1.242900
2.362600 1.234100
2.383000 1.203700
2.403300 1.071600
2.423700 0.883300
2.444000 0.715900
2.464400 0.614500
2.484700 0.538400
2.505100 0.493900
2.525400 0.462200
2.545800 0.440200
2.566100 0.424500
2.586500 0.408800
2.606800 0.393700
2.627200 0.381700
2.647500 0.372600
2.667900 0.366400
2.688300 0.363700
2.708600 0.365000
2.729000 0.369000
2.749300 0.376600
2.769700 0.399200
2.790000 0.424100
2.810400 0.477800
2.830700 0.535700
2.851100 0.575500
2.871400 0.616600
2.891800 0.663500
2.912100 0.735700
2.932500 0.810500
2.952800 0.907200
2.973200 0.984400
2.993500 1.042700
3.013900 1.093600
3.034200 1.128500
3.054600 1.186700
3.074900 1.241000
3.095300 1.282500
3.115600 1.336800
3.136000 1.394700
3.156300 1.450600
3.176700 1.508400
3.197000 1.566900
3.217400 1.627400
3.237800 1.698900
3.258100 1.756100
3.278500 1.760700
3.298800 1.752700
3.319200 1.728900
3.339500 1.727000
3.359900 1.697200
3.380200 1.650900
3.400600 1.641600
3.420900 1.661300
3.441300 1.698900
3.461600 1.732800
3.482000 1.758200
3.502300 1.776700
3.522700 1.831200
3.543000 1.863200
3.563400 1.903500
3.583700 1.913900
3.604100 1.961700
3.624400 1.956700
3.644800 1.989300
3.665100 1.983100
3.685500 2.003300
3.705800 2.041500
3.726200 2.133800
3.746500 2.141300
3.766900 2.189400
3.787300 2.282900
3.807600 2.395800
3.828000 2.276900
3.848300 2.177100
3.868700 2.108300
3.889000 2.067800
3.909400 2.056700
3.929700 2.045200
3.950100 2.044200
3.970400 2.056000
3.990800 2.071700
4.011100 2.087500
4.031500 2.092800
4.051800 2.097000
4.072200 2.107200
4.092500 2.207400
4.112900 2.147100
4.133200 2.116100
4.153600 2.094800
4.173900 2.080900
4.194300 2.054900
4.214600 2.035500
4.235000 2.029700
4.255300 2.016500
4.275700 1.993900
4.296000 1.955300
4.316400 1.915800
4.336800 1.881200
4.357100 1.850000
4.377500 1.811700
4.397800 1.750800
4.418200 1.687800
4.438500 1.630000
4.458900 1.580000
4.479200 1.552900
4.499600 1.573800
4.519900 1.612800
4.540300 1.628000
4.560600 1.621100
4.581000 1.597900
4.601300 1.570100
4.621700 1.552500
4.642000 1.549700
4.662400 1.558900
4.682700 1.573400
4.703100 1.600200
4.723400 1.647000
4.743800 1.683200
4.764100 1.718000
4.784500 1.749600
4.804800 1.754900
4.825200 1.740100
4.845500 1.738300
4.865900 1.746600
4.886300 1.756600
4.906600 1.776200
4.927000 1.794000
4.947300 1.805900
4.967700 1.812800
4.988000 1.815200
5.008400 1.818100
5.028700 1.831500
5.049100 1.846300
5.069400 1.863400
5.089800 1.882400
5.110100 1.885100
5.130500 1.899200
5.150800 1.918700
5.171200 1.940900
5.191500 1.961500
5.211900 1.992600
5.232200 2.031900
5.252600 2.064000
5.272900 2.096500
5.293300 2.128600
5.313600 2.161300
5.334000 2.196600
5.354300 2.344700
5.374700 2.282000
5.395000 2.195900
5.415400 2.152600
5.435800 2.135300
5.456100 2.100300
5.476500 2.065400
5.496800 2.029400
5.517200 1.969600
5.537500 1.905000
5.557900 1.822500
5.578200 1.772100
5.598600 1.733500
5.618900 1.726000
5.639300 1.736600
5.659600 1.710200
5.680000 1.725400
5.700300 1.726500
5.720700 1.733800
5.741000 1.747100
5.761400 1.759700
5.781700 1.767700
5.802100 1.774000
5.822400 1.784300
5.842800 1.796800
5.863100 1.816200
5.883500 1.852800
5.903800 1.924700
5.924200 1.908200
5.944500 1.945700
5.964900 1.977500
5.985300 2.006000
6.005600 2.042200
6.026000 2.086200
6.046300 2.126200
6.066700 2.169800
6.087000 2.206400
6.107400 2.240600
6.127700 2.260400
6.148100 2.268400
6.168400 2.272300
6.188800 2.304800
6.209100 2.303800
6.229500 2.299700
6.249800 2.265300
6.270200 2.276700
6.290500 2.271800
6.310900 2.253900
6.331200 2.267200
6.351600 2.279000
6.371900 2.372600
6.392300 2.285300
6.412600 2.298200
6.433000 2.311200
6.453300 2.245000
6.473700 2.161100
6.494000 2.081600
6.514400 2.003000
6.534800 1.957200
6.555100 1.957300
6.575500 1.956900
6.595800 1.952700
6.616200 1.950400
6.636500 1.955400
6.656900 1.960500
6.677200 1.979800
6.697600 1.999300
6.717900 2.016700
6.738300 2.029000
6.758600 2.042000
6.779000 2.194400
6.799300 2.060700
6.819700 2.089000
6.840000 2.126800
6.860400 2.150300
6.880700 2.155100
6.901100 2.152900
6.921400 2.154700
6.941800 2.159800
6.962100 2.168300
6.982500 2.179500
7.002800 2.196000
7.023200 2.217200
7.043500 2.232800
7.063900 2.234200
7.084300 2.220600
7.104600 2.188300
7.125000 2.173700
7.145300 2.175900
7.165700 2.176100
7.186000 2.176800
7.206400 2.171500
7.226700 2.186200
7.247100 2.206600
7.267400 2.234300
7.287800 2.257100
7.308100 2.240200
7.328500 2.227100
7.348800 2.219900
7.369200 2.219300
7.389500 2.225100
7.409900 2.222500
7.430200 2.261200
7.450600 2.271200
7.470900 2.274900
7.491300 2.284800
7.511600 2.304700
7.532000 2.335600
7.552300 2.268000
7.572700 2.220000
7.593100 2.212100
7.613400 2.173300
7.633800 2.165400
7.654100 2.208200
7.674500 2.081400
7.694800 2.030500
7.715200 1.996900
7.735500 1.952500
7.755900 1.922400
7.776200 1.898100
7.796600 1.887600
7.816900 1.873000
7.837300 1.853100
7.857600 1.833700
7.878000 1.814500
7.898300 1.820200
7.918700 1.815800
7.939000 1.797600
7.959400 1.775200
7.979700 1.775400
8.000100 1.780700
8.020400 1.786500
8.040800 1.788100
8.061100 1.799600
8.081500 1.815000
8.101800 1.850600
8.122200 1.914200
8.142600 1.942300
8.162900 1.988000
8.183300 1.996100
8.203600 2.019400
8.224000 2.028600
8.244300 2.063900
8.264700 2.134800
8.285000 2.206000
8.305400 2.211200
8.325700 2.249000
8.346100 2.304500
8.366400 2.349000
8.386800 2.343000
8.407100 2.367000
8.427500 2.393700
8.447800 2.399600
8.468200 2.398000
8.488500 2.386600
8.508900 2.363600
8.529200 2.347200
8.549600 2.341700
8.569900 2.354200
8.590300 2.416700
8.610600 2.613900
8.631000 2.346200
8.651300 2.314000
8.671700 2.319300
8.692100 2.230100
8.712400 2.191200
8.732800 2.157000
8.753100 2.124400
8.773500 2.095200
8.793800 2.076900
8.814200 2.060000
8.834500 2.051500
8.854900 2.036800
8.875200 2.034800
8.895600 2.053300
8.915900 2.255900
8.936300 2.020100
8.956600 2.008000
8.977000 1.997300
8.997300 1.967400
9.017700 1.985800
9.038000 2.010700
9.058400 2.012700
9.078700 1.993000
9.099100 1.970700
9.119400 1.946800
9.139800 1.922600
9.160100 1.880500
9.180500 1.848100
9.200800 1.834600
9.221200 1.822900
9.241600 1.812700
9.261900 1.828000
9.282300 1.852200
9.302600 1.879600
9.323000 1.910300
9.343300 1.935800
9.363700 1.949800
9.384000 1.973200
9.404400 1.989800
9.424700 2.003800
9.445100 2.013200
9.465400 2.017900
9.485800 2.028400
9.506100 2.046200
9.526500 2.050300
9.546800 2.066100
9.567200 2.076300
9.587500 2.083600
9.607900 2.083600
9.628200 2.038100
9.648600 2.053600
9.668900 2.081300
9.689300 2.147400
9.709600 2.277900
9.730000 2.337500
9.750300 2.330400
9.770700 2.325300
9.791100 2.321800
9.811400 2.313100
9.831800 2.267500
9.852100 2.237500
9.872500 2.226700
9.892800 2.208100
9.913200 2.225700
9.933500 2.213300
9.953900 2.211200
9.974200 2.226800
9.994600 2.229100
10.014900 2.230700
10.035300 2.227800
10.055600 2.247900
10.076000 2.239100
10.096300 2.233900
10.116700 2.225500
10.137000 2.198300
10.157400 2.144900
10.177700 2.132500
10.198100 2.121400
10.218400 2.103100
10.238800 2.094500
10.259100 2.090000
10.279500 2.085800
10.299800 2.083300
10.320200 2.108700
10.340600 2.142100
10.360900 2.215100
10.381300 2.221900
10.401600 2.205600
10.422000 2.219000
10.442300 2.228900
10.462700 2.236800
10.483000 2.270000
10.503400 2.286200
10.523700 2.274600
10.544100 2.241800
10.564400 2.249300
10.584800 2.269600
10.605100 2.287400
10.625500 2.286700
10.645800 2.261600
10.666200 2.218800
10.686500 2.229500
10.706900 2.202000
10.727200 2.174100
10.747600 2.144200
10.767900 2.112600
10.788300 2.085100
10.808600 2.074500
10.829000 2.085400
10.849300 2.096900
10.869700 2.137700
10.890100 2.159400
10.910400 2.163800
10.930800 2.174900
10.951100 2.186500
10.971500 2.192800
10.991800 2.193000
11.012200 2.183800
11.032500 2.159300
11.052900 2.130100
11.073200 2.134200
11.093600 2.812800
11.113900 2.253100
11.134300 2.291400
11.154600 2.357200
11.175000 2.388700
11.195300 2.449100
11.215700 2.528700
11.236000 2.512700
11.256400 2.564900
11.276700 2.671500
11.297100 2.645200
11.317400 2.607100
11.337800 2.586800
11.358100 2.591000
11.378500 2.582000
11.398800 2.585800
11.419200 2.566800
11.439600 2.540400
11.459900 2.571900
11.480300 2.594400
11.500600 2.609800
11.521000 2.623200
11.541300 2.670000
11.561700 2.651900
11.582000 2.624300
11.602400 2.627700
11.622700 2.621100
11.643100 2.585300
11.663400 2.584700
11.683800 2.574100
11.704100 2.539900
11.724500 2.504300
11.744800 2.472500
11.765200 2.459300
11.785500 2.458200
11.805900 2.456200
11.826200 2.448200
11.846600 2.508000
11.866900 2.620100
11.887300 3.041400
11.907600 2.589300
11.928000 2.594300
11.948300 2.588600
11.968700 2.589000
11.989100 2.592600
12.009400 2.591500
12.029800 2.558600
12.050100 2.760200
12.070500 2.580800
12.090800 2.646600
12.111200 2.549000
12.131500 2.587600
12.151900 2.600000
12.172200 2.651700
12.192600 2.695400
12.212900 2.679300
12.233300 2.659800
12.253600 2.654100
12.274000 2.655300
12.294300 2.690400
12.314700 2.694000
12.335000 2.569400
12.355400 2.534200
12.375700 2.509900
12.396100 2.503400
12.416400 2.505300
12.436800 2.526400
12.457100 2.488400
12.477500 2.456500
12.497800 2.426500
12.518200 2.400300
12.538600 2.443100
12.558900 2.357200
12.579300 2.333000
12.599600 2.308300
12.620000 2.321800
12.640300 2.359300
12.660700 2.443000
12.681000 2.549300
12.701400 2.660900
12.721700 2.690100
12.742100 2.724300
12.762400 2.738600
12.782800 2.745000
12.803100 2.744100
12.823500 2.724300
12.843800 2.705300
12.864200 2.676600
12.884500 2.601800
12.904900 2.555300
12.925200 2.543200
12.945600 2.539500
12.965900 2.543000
12.986300 2.553300
13.006600 2.558500
13.027000 2.588000
13.047300 2.629300
13.067700 2.647700
13.088100 2.615100
13.108400 2.525400
13.128800 2.453200
13.149100 2.408800
13.169500 2.395500
13.189800 2.378800
13.210200 2.374000
13.230500 2.369100
13.250900 2.368000
13.271200 2.376800
13.291600 2.357000
13.311900 2.303900
13.332300 2.270000
13.352600 2.263700
13.373000 2.271800
13.393300 2.269300
13.413700 2.286200
13.434000 2.309700
13.454400 2.343700
13.474700 2.385300
13.495100 2.415100
13.515400 2.482700
13.535800 2.517800
13.556100 2.535100
13.576500 2.604600
13.596800 2.622900
13.617200 2.681600
13.637600 2.720700
13.657900 2.740800
13.678300 2.761500
13.698600 2.793600
13.719000 2.786600
13.739300 2.665600
13.759700 2.528100
13.780000 2.395300
13.800400 2.259100
13.820700 2.148700
13.841100 2.083100
13.861400 2.029300
13.881800 1.962100
13.902100 1.884400
13.922500 1.825200
13.942800 1.794800
13.963200 1.780500
13.983500 1.767500
14.003900 1.757600
14.024200 1.754400
14.044600 1.754700
14.064900 1.763900
14.085300 1.786600
14.105600 1.826000
14.126000 1.876200
14.146300 1.927200
14.166700 1.972700
14.187100 2.010900
14.207400 2.043700
14.227800 2.071900
14.248100 2.104100
14.268500 2.146500
14.288800 2.184700
14.309200 2.195200
14.329500 2.174400
14.349900 2.186500
14.370200 2.205900
14.390600 2.229700
14.410900 2.295800
14.431300 2.378200
14.451600 2.456300
14.472000 2.509700
14.492300 2.560100
14.512700 2.601900
14.533000 2.628300
14.553400 2.658700
14.573700 2.676600
14.594100 2.687700
14.614400 2.671500
14.634800 2.732300
14.655100 2.779600
14.675500 2.772000
14.695800 2.754700
14.716200 2.698300
14.736600 2.699800
14.756900 2.705300
14.777300 2.694000
14.797600 2.531700
14.818000 2.456100
14.838300 2.366300
14.858700 2.262700
14.879000 2.166700
14.899400 2.108800
14.919700 2.062100
14.940100 2.028000
14.960400 1.999700
14.980800 1.991800
15.001100 1.988000
15.021500 1.990900
15.041800 2.002300
15.062200 2.024600
15.082500 2.049300
15.102900 2.068400
15.123200 2.084700
15.143600 2.122100
15.163900 2.167600
15.184300 2.378900
15.204600 2.240200
15.225000 2.262500
15.245300 2.298300
15.265700 2.344400
15.286100 2.395500
15.306400 2.442000
15.326800 2.493400
15.347100 2.573600
15.367500 2.669400
15.387800 2.741800
15.408200 2.813000
15.428500 2.780600
15.448900 2.774800
15.469200 2.751300
15.489600 2.724000
15.509900 2.695800
15.530300 2.672600
15.550600 2.648600
15.571000 2.626600
15.591300 2.612900
15.611700 2.600800
15.632000 2.598100
15.652400 2.606400
15.672700 2.599500
15.693100 2.483000
15.713400 2.415600
15.733800 2.342900
15.754100 2.285500
15.774500 2.247400
15.794900 2.229100
15.815200 2.201900
15.835600 2.157700
15.855900 2.118800
15.876300 2.109000
15.896600 2.098800
15.917000 2.075000
15.937300 2.049600
15.957700 2.040800
15.978000 2.009800
15.998400 2.039700
16.018700 2.139000
16.039100 2.122100
16.059400 2.145100
16.079800 2.181600
16.100100 2.232800
16.120500 2.387900
16.140800 2.351500
16.161200 2.369400
16.181500 2.372900
16.201900 2.372600
16.222200 2.373400
16.242600 2.379500
16.262900 2.389300
16.283300 2.409000
16.303600 2.421800
16.324000 2.458700
16.344400 2.467500
16.364700 2.478500
16.385100 2.487600
16.405400 2.507400
16.425800 2.532000
16.446100 2.539300
16.466500 2.541300
16.486800 2.546400
16.507200 2.559400
16.527500 2.583700
16.547900 2.778800
16.568200 2.753000
16.588600 2.778300
16.608900 2.738300
16.629300 2.749800
16.649600 2.766200
16.670000 2.782800
16.690300 2.806600
16.710700 2.848100
16.731000 2.869000
16.751400 2.883100
16.771700 2.897700
16.792100 2.896900
16.812400 2.896400
16.832800 2.926100
16.853100 2.915800
16.873500 2.886000
16.893900 2.872900
16.914200 3.069900
16.934600 2.912000
16.954900 2.818200
16.975300 2.769300
16.995600 2.714700
17.016000 2.701900
17.036300 2.700700
17.056700 2.703900
17.077000 2.709200
17.097400 2.698800
17.117700 2.670700
17.138100 2.622500
17.158400 2.585900
17.178800 2.579900
17.199100 2.589900
17.219500 2.643500
17.239800 2.715700
17.260200 2.633500
17.280500 2.615400
17.300900 2.642900
17.321200 2.587100
17.341600 2.564600
17.361900 2.554500
17.382300 2.592900
17.402600 2.645100
17.423000 2.706400
17.443400 2.772200
17.463700 2.835400
17.484100 2.916800
17.504400 2.960200
17.524800 2.997500
17.545100 2.979100
17.565500 2.938500
17.585800 2.902500
17.606200 2.842200
17.626500 2.768000
17.646900 2.713600
17.667200 2.664200
17.687600 2.631700
17.707900 2.609300
17.728300 2.585700
17.748600 2.563100
17.769000 2.540600
17.789300 2.518600
17.809700 2.512700
17.830000 2.501200
17.850400 2.536900
17.870700 2.572400
17.891100 2.546300
17.911400 2.552100
17.931800 2.489400
17.952100 2.414400
17.972500 2.339100
17.992900 2.284800
18.013200 2.238300
18.033600 2.192200
18.053900 2.250900
18.074300 2.207700
18.094600 2.170200
18.115000 2.171900
18.135300 2.174800
18.155700 2.179500
18.176000 2.182400
18.196400 2.244000
18.216700 2.324200
18.237100 2.414000
18.257400 2.494200
18.277800 2.566700
18.298100 2.637000
18.318500 2.725200
18.338800 2.901300
18.359200 3.034600
18.379500 2.973900
18.399900 2.747300
18.420200 2.663600
18.440600 2.627900
18.460900 2.610200
18.481300 2.495800
18.501600 2.441200
18.522000 2.412100
18.542400 2.426500
18.562700 2.454700
18.583100 2.502900
18.603400 2.578900
18.623800 2.706100
18.644100 2.804800
18.664500 2.782800
18.684800 2.826100
18.705200 2.902800
18.725500 2.961400
18.745900 2.931000
18.766200 2.923100
18.786600 2.910200
18.806900 2.924300
18.827300 2.960500
18.847600 2.979100
18.868000 2.976900
18.888300 3.005800
18.908700 3.090400
18.929000 3.259300
18.949400 3.099500
18.969700 2.966100
18.990100 2.921100
19.010400 2.837500
19.030800 2.789800
19.051100 2.729800
19.071500 2.713100
19.091900 2.821100
19.112200 2.734400
19.132600 2.769800
19.152900 2.802300
19.173300 2.894000
19.193600 2.918900
19.214000 2.901100
19.234300 2.891300
19.254700 2.882400
19.275000 2.869500
19.295400 2.878800
19.315700 2.826600
19.336100 2.833000
19.356400 2.827400
19.376800 2.883400
19.397100 2.880500
19.417500 2.919500
19.437800 2.945600
19.458200 2.964700
19.478500 3.018400
19.498900 3.050000
19.519200 3.069000
19.539600 3.010200
19.559900 3.013400
19.580300 2.999000
19.600600 2.926100
19.621000 2.869900
19.641400 2.844100
19.661700 2.822900
19.682100 2.796400
19.702400 2.762700
19.722800 2.749300
19.743100 2.749300
19.763500 2.746100
19.783800 2.763800
19.804200 2.820900
19.824500 2.880700
19.844900 2.972600
19.865200 3.088700
19.885600 3.180800
19.905900 3.162600
19.926300 3.141300
19.946600 3.122500
19.967000 3.089800
19.987300 3.018600
20.007700 2.905300
20.028000 2.816500
20.048400 2.706000
20.068700 2.659400
20.089100 2.628500
20.109400 2.584100
20.129800 2.589300
20.150100 2.613300
20.170500 2.645300
20.190900 2.699000
20.211200 2.701200
20.231600 2.715700
20.251900 2.736800
20.272300 2.763600
20.292600 2.765300
20.313000 2.765900
20.333300 2.780500
20.353700 2.813100
20.374000 2.836300
20.394400 2.857300
20.414700 2.885100
20.435100 2.927100
20.455400 2.960000
20.475800 2.992300
20.496100 3.020700
20.516500 2.999000
20.536800 2.976200
20.557200 2.958100
20.577500 2.936600
20.597900 2.925200
20.618200 2.890800
20.638600 2.813400
20.658900 2.743800
20.679300 2.687800
20.699600 2.824200
20.720000 2.610800
20.740400 2.547300
20.760700 2.487500
20.781100 2.435800
20.801400 2.389400
20.821800 2.352200
20.842100 2.321400
20.862500 2.295200
20.882800 2.302700
20.903200 2.370100
20.923500 2.303200
20.943900 2.306300
20.964200 2.306800
20.984600 2.309900
21.004900 2.326700
21.025300 2.385000
21.045600 2.435600
21.066000 2.397500
21.086300 2.329400
21.106700 2.335000
21.127000 2.292000
21.147400 2.260100
21.167700 2.231000
21.188100 2.318900
21.208400 2.168700
21.228800 2.138900
21.249100 2.105900
21.269500 2.058900
21.289900 2.002900
21.310200 1.944300
21.330600 1.877300
21.350900 1.807000
21.371300 1.748200
21.391600 1.690500
21.412000 1.654100
21.432300 1.585200
21.452700 1.522800
21.473000 1.463800
21.493400 1.397900
21.513700 1.319500
21.534100 1.248000
21.554400 1.178400
21.574800 1.111400
21.595100 1.043200
21.615500 0.980900
21.635800 0.929500
21.656200 0.890500
21.676500 0.855900
21.696900 0.823400
21.717200 0.789400
21.737600 0.769800
21.757900 0.751000
21.778300 0.732800
21.798600 0.714500
21.819000 0.695500
21.839400 0.675700
21.859700 0.655600
21.880100 0.636600
21.900400 0.618500
21.920800 0.600800
21.941100 0.583600
21.961500 0.567400
21.981800 0.553300
22.002200 0.541500
22.022500 0.530000
22.042900 0.519400
22.063200 0.509200
22.083600 0.499300
22.103900 0.492500
22.124300 0.486800
22.144600 0.481200
22.165000 0.475800
22.185300 0.470700
22.205700 0.466000
22.226000 0.461900
22.246400 0.457700
22.266700 0.453700
22.287100 0.449700
22.307400 0.445600
22.327800 0.441700
22.348100 0.437900
22.368500 0.434200
22.388900 0.430600
22.409200 0.427100
22.429600 0.423700
22.449900 0.421200
22.470300 0.418300
22.490600 0.413700
22.511000 0.411200
22.531300 0.414700
22.551700 0.420600
22.572000 0.388600
22.592400 0.367700
22.612700 0.354800
22.633100 0.343200
22.653400 0.332500
22.673800 0.322700
22.694100 0.313800
22.714500 0.305800
22.734800 0.298700
22.755200 0.292300
22.775500 0.286700
22.795900 0.281900
22.816200 0.278400
22.836600 0.278500
22.856900 0.278700
22.877300 0.279200
22.897600 0.280000
22.918000 0.281900
22.938400 0.286300
22.958700 0.288400
22.979100 0.286600
22.999400 0.280700
23.019800 0.273200
23.040100 0.267400
23.060500 0.256800
23.080800 0.242700
23.101200 0.227400
23.121500 0.210700
23.141900 0.193600
23.162200 0.180700
23.182600 0.173000
23.202900 0.167200
23.223300 0.161800
23.243600 0.158100
23.264000 0.156200
23.284300 0.154000
23.304700 0.151200
23.325000 0.147600
23.345400 0.143300
23.365700 0.138500
23.386100 0.134200
23.406400 0.130900
23.426800 0.128800
23.447100 0.127500
23.467500 0.126300
23.487900 0.125000
23.508200 0.123700
23.528600 0.122500
23.548900 0.121300
23.569300 0.120200
23.589600 0.119200
23.610000 0.118400
23.630300 0.117700
23.650700 0.117000
23.671000 0.115600
23.691400 0.113500
23.711700 0.111000
23.732100 0.108600
23.752400 0.106300
23.772800 0.104000
23.793100 0.101800
23.813500 0.099600
23.833800 0.097500
23.854200 0.095400
23.874500 0.093200
23.894900 0.091000
23.915200 0.088800
23.935600 0.086500
23.955900 0.084100
23.976300 0.081700
23.996700 0.079200
24.017000 0.076400
24.037400 0.073500
24.057700 0.070300
24.078100 0.067000
24.098400 0.063500
24.118800 0.059800
24.139100 0.055900
24.159500 0.044600
24.179800 0.041800
24.200200 0.038500
24.220500 0.034800
24.240900 0.030800
24.261200 0.026400
24.281600 0.022000
24.301900 0.018000
24.322300 0.014200
24.342600 0.010700
24.363000 0.007500
24.383300 0.004700
24.403700 0.002200
24.424000 0.000600
24.444400 0.000000
24.464700 0.000000
24.485100 0.000000
24.505400 0.000000
24.525800 0.000000
24.546200 0.000000
24.566500 0.000000
24.586900 0.000000
24.607200 0.000000
24.627600 0.000000
24.647900 0.000000
24.668300 0.000000
24.688600 0.000000
24.709000 0.000000
24.729300 0.000000
24.749700 0.000000
24.770000 0.000000
24.790400 0.000000
24.810700 0.000000
24.831100 0.000000
24.851400 0.000000
24.871800 0.000000
24.892100 0.000000
24.912500 0.000000
24.932800 0.000000
24.953200 0.000000
24.973500 0.000000
24.993900 0.000000
25.014200 0.000000
25.034600 0.000000
25.054900 0.000000
25.075300 0.000000
25.095700 0.000000
25.116000 0.000000
25.136400 0.000000
25.156700 0.000000
25.177100 0.000000
25.197400 0.000000
25.217800 0.000000
25.238100 0.000000
25.258500 0.000000
25.278800 0.000000
25.299200 0.000000
25.319500 0.000000
25.339900 0.000000
25.360200 0.000000
25.380600 0.000000
25.400900 0.000000
25.421300 0.000000
25.441600 0.000000
25.462000 0.000000
25.482300 0.000000
25.502700 0.000000
25.523000 0.000000
25.543400 0.000000
25.563700 0.000000
25.584100 0.000000
25.604400 0.000000
25.624800 0.000000
25.645200 0.000000
25.665500 0.000000
25.685900 0.000000
25.706200 0.000000
25.726600 0.000000
25.746900 0.000000
25.767300 0.000000
25.787600 0.000000
25.808000 0.000000
25.828300 0.000000
25.848700 0.000000
25.869000 0.000000
25.889400 0.000000
25.909700 0.000000
25.930100 0.000000
25.950400 0.000000
25.970800 0.000000
25.991100 0.000000
26.011500 0.000000
26.031800 0.000000
26.052200 0.000000
26.072500 0.000000
26.092900 0.000000
26.113200 0.000000
26.133600 0.000000
26.153900 0.000000
26.174300 0.000000
26.194700 0.000000
26.215000 0.000000
26.235400 0.000000
26.255700 0.000000
26.276100 0.000000
26.296400 0.000000
e
