set title 'mp-556392 - Density of States'
set xlabel 'Energy (eV)'
set ylabel 'DOS (states/eV)'
set grid
set xrange [-10:10]
set yrange [0:587.688]
set xzeroaxis lt -1
set terminal png size 800,600
set output 'mp-556392_dos_gnuplot.png'
plot '-' using 1:2 with lines title 'DOS'
-12.329400 0.000000
-12.315700 0.000000
-12.302100 0.000000
-12.288400 0.000000
-12.274800 0.000000
-12.261100 0.000000
-12.247500 0.000000
-12.233800 0.000000
-12.220200 0.000000
-12.206500 0.000000
-12.192900 0.000000
-12.179300 0.000000
-12.165600 0.000000
-12.152000 0.000000
-12.138300 0.000000
-12.124700 0.000000
-12.111000 0.000000
-12.097400 0.000000
-12.083700 0.000000
-12.070100 0.000000
-12.056400 0.000000
-12.042800 0.000000
-12.029100 0.000000
-12.015500 0.000000
-12.001900 0.000000
-11.988200 0.000000
-11.974600 0.000000
-11.960900 0.000000
-11.947300 0.000000
-11.933600 0.000000
-11.920000 0.000000
-11.906300 0.000000
-11.892700 0.000000
-11.879000 0.000000
-11.865400 0.000000
-11.851700 0.000000
-11.838100 0.000000
-11.824400 0.000000
-11.810800 0.000000
-11.797200 0.000000
-11.783500 0.000000
-11.769900 0.000000
-11.756200 0.000000
-11.742600 0.000000
-11.728900 0.000000
-11.715300 0.000000
-11.701600 0.000000
-11.688000 0.000000
-11.674300 0.000000
-11.660700 0.000000
-11.647000 0.000000
-11.633400 0.000000
-11.619800 0.000000
-11.606100 0.000000
-11.592500 0.000000
-11.578800 0.000000
-11.565200 0.000000
-11.551500 0.000000
-11.537900 0.000000
-11.524200 0.000000
-11.510600 0.000000
-11.496900 0.000000
-11.483300 0.000000
-11.469600 0.000000
-11.456000 0.000000
-11.442400 0.000000
-11.428700 0.000000
-11.415100 0.000000
-11.401400 0.000000
-11.387800 0.000000
-11.374100 0.000000
-11.360500 0.000000
-11.346800 0.000000
-11.333200 0.000000
-11.319500 0.000000
-11.305900 0.000000
-11.292200 0.000000
-11.278600 0.000000
-11.264900 0.000000
-11.251300 0.000000
-11.237700 0.000000
-11.224000 0.000000
-11.210400 0.000000
-11.196700 0.000000
-11.183100 0.000000
-11.169400 0.000000
-11.155800 0.000000
-11.142100 0.000000
-11.128500 0.000000
-11.114800 0.000000
-11.101200 0.000000
-11.087500 0.018200
-11.073900 0.218900
-11.060300 0.419600
-11.046600 0.755100
-11.033000 1.369500
-11.019300 1.983800
-11.005700 2.598200
-10.992000 3.212600
-10.978400 3.827000
-10.964700 4.441300
-10.951100 4.105000
-10.937400 4.756400
-10.923800 4.781500
-10.910100 4.479500
-10.896500 5.010800
-10.882900 5.542200
-10.869200 6.073500
-10.855600 6.604800
-10.841900 7.136100
-10.828300 7.667400
-10.814600 6.209400
-10.801000 6.344500
-10.787300 6.479600
-10.773700 6.897300
-10.760000 7.569300
-10.746400 8.241200
-10.732700 8.913100
-10.719100 9.578600
-10.705500 10.241000
-10.691800 10.897600
-10.678200 11.543700
-10.664500 10.163300
-10.650900 10.346200
-10.637200 10.529100
-10.623600 10.716500
-10.609900 10.912000
-10.596300 11.107400
-10.582600 11.550800
-10.569000 12.446800
-10.555300 13.342800
-10.541700 14.238800
-10.528000 15.134800
-10.514400 16.035000
-10.500800 16.952100
-10.487100 16.791200
-10.473500 16.134600
-10.459800 16.494300
-10.446200 16.854200
-10.432500 17.214100
-10.418900 17.574000
-10.405200 17.933900
-10.391600 18.802500
-10.377900 20.091500
-10.364300 21.732200
-10.350600 23.729000
-10.337000 25.530500
-10.323400 27.332100
-10.309700 26.754600
-10.296100 27.894400
-10.282400 30.042800
-10.268800 33.181500
-10.255100 38.199900
-10.241500 39.130900
-10.227800 40.060300
-10.214200 40.989700
-10.200500 46.805500
-10.186900 47.554000
-10.173200 44.993200
-10.159600 45.074700
-10.146000 46.329000
-10.132300 52.682100
-10.118700 52.453900
-10.105000 49.304600
-10.091400 45.533400
-10.077700 48.554300
-10.064100 41.157200
-10.050400 53.193800
-10.036800 52.511500
-10.023100 36.848600
-10.009500 38.574100
-9.995800 61.126600
-9.982200 69.448000
-9.968600 49.321300
-9.954900 51.938900
-9.941300 70.697800
-9.927600 69.346100
-9.914000 67.257100
-9.900300 0.000000
-9.886700 0.000000
-9.873000 0.000000
-9.859400 0.000000
-9.845700 0.000000
-9.832100 0.000000
-9.818400 0.000000
-9.804800 0.000000
-9.791100 0.000000
-9.777500 0.000000
-9.763900 0.000000
-9.750200 0.000000
-9.736600 0.000000
-9.722900 0.000000
-9.709300 0.000000
-9.695600 0.000000
-9.682000 0.000000
-9.668300 0.000000
-9.654700 0.000000
-9.641000 0.000000
-9.627400 0.000000
-9.613700 0.000000
-9.600100 0.000000
-9.586500 0.000000
-9.572800 0.000000
-9.559200 0.000000
-9.545500 0.000000
-9.531900 0.000000
-9.518200 0.000000
-9.504600 0.000000
-9.490900 0.000000
-9.477300 0.000000
-9.463600 0.000000
-9.450000 0.000000
-9.436300 0.000000
-9.422700 0.000000
-9.409100 0.000000
-9.395400 0.000000
-9.381800 0.000000
-9.368100 0.000000
-9.354500 0.000000
-9.340800 0.000000
-9.327200 0.000000
-9.313500 0.000000
-9.299900 0.000000
-9.286200 0.000000
-9.272600 0.000000
-9.258900 0.000000
-9.245300 0.000000
-9.231700 0.000000
-9.218000 0.000000
-9.204400 0.000000
-9.190700 0.000000
-9.177100 0.000000
-9.163400 0.000000
-9.149800 0.000000
-9.136100 0.000000
-9.122500 0.000000
-9.108800 0.000000
-9.095200 0.000000
-9.081500 0.000000
-9.067900 0.000000
-9.054200 0.000000
-9.040600 0.000000
-9.027000 0.000000
-9.013300 0.000000
-8.999700 0.000000
-8.986000 0.000000
-8.972400 0.000000
-8.958700 0.000000
-8.945100 0.000000
-8.931400 0.000000
-8.917800 0.000000
-8.904100 0.000000
-8.890500 0.000000
-8.876800 0.000000
-8.863200 0.000000
-8.849600 0.000000
-8.835900 0.000000
-8.822300 0.000000
-8.808600 0.000000
-8.795000 0.000000
-8.781300 0.000000
-8.767700 0.000000
-8.754000 0.000000
-8.740400 0.000000
-8.726700 0.000000
-8.713100 0.000000
-8.699400 0.000000
-8.685800 0.000000
-8.672200 0.000000
-8.658500 0.000000
-8.644900 0.000000
-8.631200 0.000000
-8.617600 0.000000
-8.603900 0.000000
-8.590300 0.000000
-8.576600 0.000000
-8.563000 0.000000
-8.549300 0.000000
-8.535700 0.000000
-8.522000 0.000000
-8.508400 0.000000
-8.494800 0.000000
-8.481100 0.000000
-8.467500 0.000000
-8.453800 0.000000
-8.440200 0.000000
-8.426500 0.000000
-8.412900 0.000000
-8.399200 0.000000
-8.385600 0.000000
-8.371900 0.000000
-8.358300 0.000000
-8.344600 0.000000
-8.331000 0.000000
-8.317300 0.000000
-8.303700 0.000000
-8.290100 0.000000
-8.276400 0.000000
-8.262800 0.000000
-8.249100 0.000000
-8.235500 0.000000
-8.221800 0.000000
-8.208200 0.000000
-8.194500 0.000000
-8.180900 0.000000
-8.167200 0.000000
-8.153600 0.000000
-8.139900 0.000000
-8.126300 0.000000
-8.112700 0.000000
-8.099000 0.000000
-8.085400 0.000000
-8.071700 0.000000
-8.058100 0.000000
-8.044400 0.000000
-8.030800 0.000000
-8.017100 0.000000
-8.003500 0.000000
-7.989800 0.000000
-7.976200 0.000000
-7.962500 0.000000
-7.948900 0.000000
-7.935300 0.000000
-7.921600 0.000000
-7.908000 0.000000
-7.894300 0.000000
-7.880700 0.000000
-7.867000 0.000000
-7.853400 0.000000
-7.839700 0.000000
-7.826100 0.000000
-7.812400 0.000000
-7.798800 0.000000
-7.785100 0.000000
-7.771500 0.000000
-7.757900 0.000000
-7.744200 0.000000
-7.730600 0.000000
-7.716900 0.000000
-7.703300 0.000000
-7.689600 0.000000
-7.676000 0.000000
-7.662300 0.000000
-7.648700 0.000000
-7.635000 0.000000
-7.621400 0.000000
-7.607700 0.000000
-7.594100 0.000000
-7.580400 0.000000
-7.566800 0.000000
-7.553200 0.000000
-7.539500 0.000000
-7.525900 0.000000
-7.512200 0.000000
-7.498600 0.000000
-7.484900 0.000000
-7.471300 0.000000
-7.457600 0.000000
-7.444000 0.000000
-7.430300 0.000000
-7.416700 0.000000
-7.403000 0.000000
-7.389400 0.000000
-7.375800 0.000000
-7.362100 0.000000
-7.348500 0.000000
-7.334800 0.000000
-7.321200 0.000000
-7.307500 0.000000
-7.293900 0.000000
-7.280200 0.000000
-7.266600 0.000000
-7.252900 0.000000
-7.239300 0.000000
-7.225600 0.000000
-7.212000 0.000000
-7.198400 0.000000
-7.184700 0.000000
-7.171100 0.000000
-7.157400 0.000000
-7.143800 0.000000
-7.130100 0.000000
-7.116500 0.000000
-7.102800 0.000000
-7.089200 0.000000
-7.075500 0.000000
-7.061900 0.000000
-7.048200 0.000000
-7.034600 0.000000
-7.021000 0.000000
-7.007300 0.000000
-6.993700 0.000000
-6.980000 0.000000
-6.966400 0.000000
-6.952700 0.000000
-6.939100 0.000000
-6.925400 0.000000
-6.911800 0.000000
-6.898100 0.000000
-6.884500 0.000000
-6.870800 0.000000
-6.857200 0.000000
-6.843500 0.000000
-6.829900 0.000000
-6.816300 0.000000
-6.802600 0.000000
-6.789000 0.000000
-6.775300 0.000000
-6.761700 0.000000
-6.748000 0.000000
-6.734400 0.000000
-6.720700 0.000000
-6.707100 0.000000
-6.693400 0.000000
-6.679800 0.000000
-6.666100 0.000000
-6.652500 0.000000
-6.638900 0.000000
-6.625200 0.000000
-6.611600 0.000000
-6.597900 0.000000
-6.584300 0.000000
-6.570600 0.000000
-6.557000 0.000000
-6.543300 0.000000
-6.529700 0.000000
-6.516000 0.000000
-6.502400 0.000000
-6.488700 0.000000
-6.475100 0.000000
-6.461500 0.000000
-6.447800 0.000000
-6.434200 0.000000
-6.420500 0.000000
-6.406900 0.000000
-6.393200 0.000000
-6.379600 0.000000
-6.365900 0.000000
-6.352300 0.000000
-6.338600 0.000000
-6.325000 0.000000
-6.311300 0.000000
-6.297700 0.000000
-6.284100 0.000000
-6.270400 0.000000
-6.256800 0.000000
-6.243100 0.000000
-6.229500 0.000000
-6.215800 0.000000
-6.202200 0.000000
-6.188500 0.000000
-6.174900 0.000000
-6.161200 0.000000
-6.147600 0.000000
-6.133900 0.000000
-6.120300 0.000000
-6.106600 0.000000
-6.093000 0.000000
-6.079400 0.000000
-6.065700 0.000000
-6.052100 0.000000
-6.038400 0.000000
-6.024800 0.000000
-6.011100 0.000000
-5.997500 0.000000
-5.983800 0.000000
-5.970200 0.000000
-5.956500 0.000000
-5.942900 0.000000
-5.929200 0.000000
-5.915600 0.000000
-5.902000 0.000000
-5.888300 0.000000
-5.874700 0.000000
-5.861000 0.000000
-5.847400 0.000000
-5.833700 0.000000
-5.820100 0.000000
-5.806400 0.000000
-5.792800 0.000000
-5.779100 0.000000
-5.765500 0.000000
-5.751800 0.000000
-5.738200 0.000000
-5.724600 0.000000
-5.710900 0.000000
-5.697300 0.000000
-5.683600 0.000000
-5.670000 0.000000
-5.656300 0.000000
-5.642700 0.000000
-5.629000 0.000000
-5.615400 0.000000
-5.601700 0.000000
-5.588100 0.000000
-5.574400 0.000000
-5.560800 0.000000
-5.547200 0.000000
-5.533500 0.000000
-5.519900 0.000000
-5.506200 0.000000
-5.492600 0.000000
-5.478900 0.000000
-5.465300 0.000000
-5.451600 0.000000
-5.438000 0.000000
-5.424300 0.000000
-5.410700 0.000000
-5.397000 0.000000
-5.383400 0.000000
-5.369700 0.000000
-5.356100 0.000000
-5.342500 0.000000
-5.328800 0.000000
-5.315200 0.000000
-5.301500 0.000000
-5.287900 0.000000
-5.274200 0.000000
-5.260600 0.000000
-5.246900 0.000000
-5.233300 0.000000
-5.219600 0.000000
-5.206000 0.000000
-5.192300 0.000000
-5.178700 0.000000
-5.165100 0.000000
-5.151400 0.000000
-5.137800 0.000000
-5.124100 0.000000
-5.110500 0.000000
-5.096800 0.000000
-5.083200 0.000000
-5.069500 0.000000
-5.055900 0.000000
-5.042200 0.000000
-5.028600 0.000000
-5.014900 0.000000
-5.001300 0.000000
-4.987700 0.000000
-4.974000 0.000000
-4.960400 0.000000
-4.946700 0.000000
-4.933100 0.000000
-4.919400 0.000000
-4.905800 0.000000
-4.892100 0.000000
-4.878500 0.000000
-4.864800 0.000000
-4.851200 0.000000
-4.837500 0.000000
-4.823900 0.000000
-4.810200 0.000000
-4.796600 0.000000
-4.783000 0.000000
-4.769300 0.000000
-4.755700 0.000000
-4.742000 0.000000
-4.728400 0.000000
-4.714700 0.000000
-4.701100 0.000000
-4.687400 0.000000
-4.673800 0.000000
-4.660100 0.000000
-4.646500 0.000000
-4.632800 0.000000
-4.619200 0.000000
-4.605600 0.000000
-4.591900 0.000000
-4.578300 0.000000
-4.564600 0.000000
-4.551000 0.000000
-4.537300 0.000000
-4.523700 0.000000
-4.510000 0.000000
-4.496400 0.000000
-4.482700 0.000000
-4.469100 0.000000
-4.455400 0.000000
-4.441800 0.000000
-4.428200 0.000000
-4.414500 0.000000
-4.400900 64.823200
-4.387200 116.020800
-4.373600 165.961100
-4.359900 177.939800
-4.346300 191.435800
-4.332600 210.198900
-4.319000 238.058900
-4.305300 282.954600
-4.291700 332.517700
-4.278000 483.935700
-4.264400 382.446600
-4.250800 293.203600
-4.237100 266.777000
-4.223500 208.062100
-4.209800 198.611400
-4.196200 190.570400
-4.182500 148.102400
-4.168900 172.926400
-4.155200 166.762200
-4.141600 153.358400
-4.127900 159.195600
-4.114300 150.738900
-4.100600 121.922100
-4.087000 137.226500
-4.073300 125.543400
-4.059700 112.213500
-4.046100 99.585700
-4.032400 81.765200
-4.018800 60.070200
-4.005100 223.074200
-3.991500 81.871600
-3.977800 54.114600
-3.964200 99.147400
-3.950500 391.581900
-3.936900 378.199700
-3.923200 333.859800
-3.909600 430.333100
-3.895900 534.262200
-3.882300 507.638500
-3.868700 261.076400
-3.855000 109.331700
-3.841400 94.579500
-3.827700 83.957800
-3.814100 80.463800
-3.800400 79.704700
-3.786800 73.365800
-3.773100 74.664000
-3.759500 67.902800
-3.745800 58.833600
-3.732200 44.435500
-3.718500 41.188400
-3.704900 53.808700
-3.691300 72.189100
-3.677600 46.817500
-3.664000 40.135000
-3.650300 65.110000
-3.636700 88.326500
-3.623000 56.652700
-3.609400 49.943700
-3.595700 32.724300
-3.582100 22.079900
-3.568400 0.000000
-3.554800 0.000000
-3.541100 0.000000
-3.527500 0.000000
-3.513900 0.000000
-3.500200 0.000000
-3.486600 0.000000
-3.472900 0.000000
-3.459300 0.000000
-3.445600 0.000000
-3.432000 0.000000
-3.418300 0.000000
-3.404700 0.000000
-3.391000 0.000000
-3.377400 0.000000
-3.363700 0.000000
-3.350100 0.000000
-3.336400 0.000000
-3.322800 0.000000
-3.309200 0.000000
-3.295500 0.000000
-3.281900 0.000000
-3.268200 0.000000
-3.254600 0.000000
-3.240900 0.038100
-3.227300 0.134200
-3.213600 0.230300
-3.200000 0.326400
-3.186300 0.422600
-3.172700 0.518700
-3.159000 0.614800
-3.145400 0.710900
-3.131800 0.807000
-3.118100 0.903200
-3.104500 0.999300
-3.090800 1.095400
-3.077200 1.191500
-3.063500 1.287600
-3.049900 0.871400
-3.036200 1.265400
-3.022600 2.855500
-3.008900 4.445600
-2.995300 6.035800
-2.981600 3.197300
-2.968000 5.009900
-2.954400 7.052000
-2.940700 11.434000
-2.927100 9.986100
-2.913400 6.447400
-2.899800 6.751900
-2.886100 7.056500
-2.872500 7.419300
-2.858800 8.101900
-2.845200 8.784500
-2.831500 10.366500
-2.817900 13.349000
-2.804200 16.331500
-2.790600 14.003000
-2.777000 22.202100
-2.763300 17.865400
-2.749700 19.386700
-2.736000 19.646200
-2.722400 20.923000
-2.708700 22.199700
-2.695100 22.914000
-2.681400 25.416400
-2.667800 31.967000
-2.654100 26.881200
-2.640500 27.156800
-2.626800 26.748400
-2.613200 19.533500
-2.599500 50.376800
-2.585900 35.058600
-2.572300 34.756300
-2.558600 38.653000
-2.545000 43.999100
-2.531300 23.979400
-2.517700 14.923700
-2.504000 24.253100
-2.490400 16.291800
-2.476700 13.417400
-2.463100 13.322000
-2.449400 21.595100
-2.435800 14.525100
-2.422100 14.258000
-2.408500 14.511700
-2.394900 14.765300
-2.381200 15.599200
-2.367600 16.245200
-2.353900 17.603900
-2.340300 18.350300
-2.326600 28.038400
-2.313000 13.339400
-2.299300 14.203600
-2.285700 15.067800
-2.272000 15.932000
-2.258400 16.796200
-2.244700 14.014700
-2.231100 14.027800
-2.217500 14.040900
-2.203800 14.054000
-2.190200 14.408500
-2.176500 16.771700
-2.162900 18.831300
-2.149200 21.243200
-2.135600 23.351800
-2.121900 25.815500
-2.108300 32.874600
-2.094600 20.122500
-2.081000 9.649700
-2.067300 9.594900
-2.053700 9.540100
-2.040100 9.485300
-2.026400 9.430400
-2.012800 9.375600
-1.999100 9.320800
-1.985500 9.266000
-1.971800 9.211200
-1.958200 8.441800
-1.944500 8.328400
-1.930900 8.215100
-1.917200 8.101700
-1.903600 7.812900
-1.889900 7.527800
-1.876300 7.472700
-1.862600 7.424500
-1.849000 7.385700
-1.835400 7.347000
-1.821700 7.308200
-1.808100 7.269500
-1.794400 7.230700
-1.780800 7.192000
-1.767100 7.153300
-1.753500 7.114500
-1.739800 7.075800
-1.726200 7.037000
-1.712500 6.998300
-1.698900 6.959500
-1.685200 6.920800
-1.671600 6.751900
-1.658000 6.591100
-1.644300 6.577700
-1.630700 6.564200
-1.617000 6.550800
-1.603400 6.537400
-1.589700 6.523600
-1.576100 6.507300
-1.562400 6.384900
-1.548800 6.378700
-1.535100 6.372400
-1.521500 6.366200
-1.507800 6.360000
-1.494200 6.353800
-1.480600 6.347500
-1.466900 6.341300
-1.453300 6.335100
-1.439600 6.328900
-1.426000 6.322600
-1.412300 6.316400
-1.398700 6.310200
-1.385000 6.304000
-1.371400 6.297700
-1.357700 11.402200
-1.344100 4.118800
-1.330400 4.098200
-1.316800 4.077500
-1.303200 4.056800
-1.289500 4.036200
-1.275900 4.015500
-1.262200 3.994600
-1.248600 3.972100
-1.234900 4.764200
-1.221300 5.029900
-1.207600 5.976100
-1.194000 6.329400
-1.180300 7.398000
-1.166700 7.843900
-1.153000 8.290600
-1.139400 9.309700
-1.125700 9.776700
-1.112100 10.243800
-1.098500 9.583400
-1.084800 10.587100
-1.071200 11.590800
-1.057500 12.594500
-1.043900 13.598200
-1.030200 15.213300
-1.016600 15.520700
-1.002900 15.156100
-0.989300 14.791400
-0.975600 14.426000
-0.962000 14.059100
-0.948300 14.062000
-0.934700 14.829200
-0.921100 15.782100
-0.907400 17.418900
-0.893800 19.055600
-0.880100 20.749500
-0.866500 22.857200
-0.852800 26.639400
-0.839200 26.609800
-0.825500 19.210700
-0.811900 15.274000
-0.798200 12.781300
-0.784600 12.471700
-0.770900 12.162300
-0.757300 11.852900
-0.743700 12.534000
-0.730000 12.548200
-0.716400 12.562400
-0.702700 12.684700
-0.689100 13.724700
-0.675400 13.980500
-0.661800 14.296200
-0.648100 14.738600
-0.634500 15.181000
-0.620800 15.623300
-0.607200 16.068800
-0.593500 17.502800
-0.579900 18.807700
-0.566300 22.005800
-0.552600 24.146200
-0.539000 26.286600
-0.525300 31.752200
-0.511700 30.960300
-0.498000 26.612200
-0.484400 24.547100
-0.470700 22.482100
-0.457100 22.782100
-0.443400 19.943300
-0.429800 19.445800
-0.416100 20.198000
-0.402500 19.977100
-0.388800 19.834200
-0.375200 19.671000
-0.361600 19.585000
-0.347900 20.866500
-0.334300 21.305000
-0.320600 21.743400
-0.307000 22.181900
-0.293300 22.620400
-0.279700 23.058900
-0.266000 23.517000
-0.252400 23.175300
-0.238700 24.631500
-0.225100 24.892700
-0.211400 25.139300
-0.197800 26.325900
-0.184200 25.804800
-0.170500 25.993800
-0.156900 26.182800
-0.143200 26.371700
-0.129600 24.971400
-0.115900 25.068400
-0.102300 24.299900
-0.088600 24.162400
-0.075000 24.157300
-0.061300 23.582900
-0.047700 23.670700
-0.034000 23.584500
-0.020400 23.521200
-0.006800 22.416800
0.006900 22.223300
0.020500 22.217000
0.034200 20.501400
0.047800 20.453500
0.061500 23.585000
0.075100 23.795600
0.088800 25.074900
0.102400 24.983100
0.116100 24.891200
0.129700 24.799400
0.143400 24.767200
0.157000 24.520600
0.170600 24.411700
0.184300 23.619200
0.197900 23.472500
0.211600 23.345600
0.225200 23.199100
0.238900 26.344700
0.252500 25.899000
0.266200 24.038400
0.279800 23.699100
0.293500 23.359700
0.307100 22.498100
0.320800 26.061800
0.334400 25.776400
0.348100 28.090700
0.361700 27.797800
0.375300 29.714700
0.389000 29.779100
0.402600 29.808500
0.416300 29.161700
0.429900 28.968500
0.443600 29.997300
0.457200 29.948000
0.470900 29.927800
0.484500 29.912600
0.498200 29.276800
0.511800 30.530400
0.525500 29.859200
0.539100 29.078100
0.552700 27.029400
0.566400 26.996200
0.580000 26.350400
0.593700 27.829800
0.607300 27.647600
0.621000 27.542700
0.634600 28.576000
0.648300 28.619100
0.661900 28.505100
0.675600 30.074800
0.689200 30.328400
0.702900 30.418900
0.716500 30.509500
0.730100 30.590500
0.743800 30.739200
0.757400 31.150900
0.771100 31.233600
0.784700 30.630900
0.798400 30.317300
0.812000 29.492100
0.825700 28.410300
0.839300 26.893500
0.853000 27.254100
0.866600 27.202000
0.880300 27.138400
0.893900 27.074900
0.907500 26.987600
0.921200 26.935200
0.934800 26.700000
0.948500 26.602800
0.962100 25.630300
0.975800 25.339400
0.989400 25.252100
1.003100 25.108300
1.016700 22.901700
1.030400 22.487700
1.044000 22.073700
1.057700 21.759800
1.071300 21.383600
1.085000 21.025800
1.098600 19.577800
1.112200 19.109100
1.125900 18.610600
1.139500 18.101200
1.153200 17.590200
1.166800 17.063100
1.180500 16.544600
1.194100 16.067500
1.207800 15.610100
1.221400 15.388000
1.235100 14.909300
1.248700 14.348000
1.262400 13.875700
1.276000 13.403400
1.289600 12.931200
1.303300 12.488800
1.316900 12.102400
1.330600 11.683300
1.344200 11.269000
1.357900 10.896800
1.371500 10.552700
1.385200 10.232000
1.398800 9.907800
1.412500 9.579500
1.426100 9.273500
1.439800 8.984500
1.453400 8.695600
1.467000 8.406600
1.480700 8.117700
1.494300 7.828700
1.508000 7.539800
1.521600 8.379300
1.535300 8.338100
1.548900 8.271500
1.562600 7.935700
1.576200 7.600000
1.589900 7.264200
1.603500 6.928400
1.617200 6.592700
1.630800 6.256900
1.644400 5.921200
1.658100 5.585400
1.671700 6.524500
1.685400 6.019500
1.699000 5.514600
1.712700 5.479400
1.726300 5.359500
1.740000 4.799000
1.753600 4.238500
1.767300 3.678000
1.780900 3.117500
1.794600 2.557000
1.808200 1.996500
1.821900 1.436000
1.835500 0.923000
1.849100 0.593500
1.862800 0.308400
1.876400 0.072600
1.890100 0.000000
1.903700 0.000000
1.917400 0.000000
1.931000 0.000000
1.944700 0.000000
1.958300 0.000000
1.972000 0.000000
1.985600 0.000000
1.999300 0.000000
2.012900 0.000000
2.026500 0.000000
2.040200 0.000000
2.053800 0.000000
2.067500 0.000000
2.081100 0.000000
2.094800 0.000000
2.108400 0.000000
2.122100 0.000000
2.135700 0.000000
2.149400 0.000000
2.163000 0.000000
2.176700 0.000000
2.190300 0.000000
2.203900 0.000000
2.217600 0.000000
2.231200 0.000000
2.244900 0.000000
2.258500 0.000000
2.272200 0.000000
2.285800 0.000000
2.299500 0.000000
2.313100 0.000000
2.326800 0.000000
2.340400 0.000000
2.354100 0.000000
2.367700 0.000000
2.381400 0.000000
2.395000 0.000000
2.408600 0.000000
2.422300 0.000000
2.435900 0.000000
2.449600 0.000000
2.463200 0.000000
2.476900 0.000000
2.490500 0.000000
2.504200 0.000000
2.517800 0.000000
2.531500 0.000000
2.545100 0.000000
2.558800 0.000000
2.572400 0.000000
2.586000 0.000000
2.599700 0.000000
2.613300 0.000000
2.627000 0.000000
2.640600 0.000000
2.654300 0.000000
2.667900 0.000000
2.681600 0.000000
2.695200 0.000000
2.708900 0.000000
2.722500 0.000000
2.736200 0.000000
2.749800 0.000000
2.763400 0.000000
2.777100 0.000000
2.790700 0.000000
2.804400 0.000000
2.818000 0.000000
2.831700 0.000000
2.845300 0.000000
2.859000 0.000000
2.872600 0.000000
2.886300 0.000000
2.899900 0.000000
2.913600 0.000000
2.927200 0.000000
2.940800 0.000000
2.954500 0.000000
2.968100 0.000000
2.981800 0.000000
2.995400 0.000000
3.009100 0.000000
3.022700 0.000000
3.036400 0.000000
3.050000 0.000000
3.063700 0.000000
3.077300 0.000000
3.091000 0.000000
3.104600 0.000000
3.118300 0.000000
3.131900 0.000000
3.145500 0.000000
3.159200 0.000000
3.172800 0.000000
3.186500 0.000000
3.200100 0.000000
3.213800 0.000000
3.227400 0.000000
3.241100 0.000000
3.254700 0.000000
3.268400 0.000000
3.282000 0.000000
3.295700 0.000000
3.309300 0.000000
3.322900 0.000000
3.336600 0.000000
3.350200 0.000000
3.363900 0.000000
3.377500 0.000000
3.391200 0.000000
3.404800 0.000000
3.418500 0.000000
3.432100 0.000000
3.445800 0.000000
3.459400 0.000000
3.473100 0.000000
3.486700 0.000000
3.500300 0.000000
3.514000 0.000000
3.527600 0.000000
3.541300 0.000000
3.554900 0.000000
3.568600 0.000000
3.582200 0.000000
3.595900 0.000000
3.609500 0.000000
3.623200 0.000000
3.636800 0.000000
3.650500 0.000000
3.664100 0.000000
3.677700 0.000000
3.691400 0.000000
3.705000 0.000000
3.718700 0.000000
3.732300 0.000000
3.746000 0.000000
3.759600 0.000000
3.773300 0.000000
3.786900 0.000000
3.800600 0.000000
3.814200 0.000000
3.827900 0.000000
3.841500 0.000000
3.855200 0.000000
3.868800 0.000000
3.882400 0.000000
3.896100 0.000000
3.909700 0.000000
3.923400 0.001600
3.937000 0.005500
3.950700 0.009300
3.964300 0.013100
3.978000 0.017000
3.991600 0.020800
4.005300 0.024600
4.018900 0.028400
4.032600 0.032300
4.046200 0.036100
4.059800 0.039900
4.073500 0.043800
4.087100 0.047600
4.100800 0.051400
4.114400 0.055200
4.128100 0.059100
4.141700 0.062900
4.155400 0.066700
4.169000 0.070600
4.182700 0.074400
4.196300 0.078200
4.210000 0.082000
4.223600 0.085900
4.237200 0.089700
4.250900 0.093500
4.264500 0.097400
4.278200 0.101200
4.291800 0.106900
4.305500 0.119700
4.319100 0.134900
4.332800 0.150000
4.346400 0.165100
4.360100 0.180200
4.373700 0.195300
4.387400 0.210400
4.401000 0.225500
4.414600 0.240700
4.428300 0.255800
4.441900 0.270900
4.455600 0.286000
4.469200 0.301100
4.482900 0.316200
4.496500 0.331400
4.510200 0.346500
4.523800 0.361600
4.537500 0.376700
4.551100 0.391800
4.564800 0.406900
4.578400 0.422000
4.592100 0.437200
4.605700 0.452300
4.619300 0.467400
4.633000 0.482500
4.646600 0.497600
4.660300 0.512700
4.673900 0.527900
4.687600 0.543000
4.701200 0.558100
4.714900 0.573200
4.728500 0.588300
4.742200 0.603400
4.755800 0.618500
4.769500 0.633700
4.783100 0.648800
4.796700 0.663900
4.810400 0.679000
4.824000 0.694100
4.837700 0.709200
4.851300 0.724400
4.865000 0.750400
4.878600 0.771100
4.892300 0.792300
4.905900 0.822100
4.919600 0.859200
4.933200 0.896400
4.946900 0.933500
4.960500 0.970700
4.974100 1.007800
4.987800 1.045000
5.001400 1.082100
5.015100 1.119300
5.028700 1.156400
5.042400 1.193600
5.056000 1.237800
5.069700 1.290100
5.083300 1.344300
5.097000 1.401000
5.110600 1.458400
5.124300 1.523600
5.137900 1.591000
5.151500 1.658400
5.165200 1.725700
5.178800 1.793100
5.192500 1.865200
5.206100 1.938400
5.219800 2.011600
5.233400 2.572400
5.247100 2.714100
5.260700 2.860700
5.274400 3.007400
5.288000 3.154000
5.301700 3.793400
5.315300 3.997300
5.329000 4.205300
5.342600 4.416900
5.356200 4.628500
5.369900 4.840100
5.383500 5.621700
5.397200 5.902000
5.410800 6.124600
5.424500 6.331700
5.438100 6.538800
5.451800 6.745900
5.465400 7.584900
5.479100 7.834100
5.492700 8.083400
5.506400 8.332600
5.520000 8.556500
5.533600 8.887700
5.547300 9.242200
5.560900 9.955800
5.574600 10.154000
5.588200 10.350700
5.601900 11.011500
5.615500 11.247400
5.629200 11.483400
5.642800 11.719300
5.656500 11.955200
5.670100 12.191200
5.683800 12.427100
5.697400 12.663000
5.711000 12.899000
5.724700 13.134900
5.738300 13.868700
5.752000 14.156600
5.765600 14.460500
5.779300 14.760400
5.792900 15.525700
5.806600 15.807200
5.820200 16.131300
5.833900 16.494700
5.847500 17.233900
5.861200 17.641100
5.874800 18.281800
5.888400 18.828100
5.902100 19.571800
5.915700 20.178800
5.929400 20.809600
5.943000 21.171000
5.956700 20.561200
5.970300 20.750800
5.984000 20.940500
5.997600 21.551800
6.011300 22.185000
6.024900 22.422700
6.038600 23.064500
6.052200 23.654000
6.065900 20.794100
6.079500 20.744500
6.093100 20.720600
6.106800 21.067500
6.120400 21.094100
6.134100 21.138900
6.147700 21.237100
6.161400 21.837500
6.175000 22.063600
6.188700 22.296400
6.202300 22.469700
6.216000 24.917500
6.229600 23.767000
6.243300 23.193700
6.256900 23.136900
6.270500 22.598400
6.284200 22.056600
6.297800 21.087800
6.311500 20.647600
6.325100 20.207500
6.338800 20.271100
6.352400 19.513900
6.366100 19.539600
6.379700 19.103100
6.393400 19.190700
6.407000 19.787000
6.420700 31.399200
6.434300 19.789000
6.447900 18.973700
6.461600 18.925500
6.475200 18.843900
6.488900 20.691800
6.502500 20.285700
6.516200 19.879500
6.529800 19.611400
6.543500 19.373500
6.557100 19.112200
6.570800 19.449300
6.584400 19.239600
6.598100 19.141500
6.611700 19.165000
6.625300 21.706300
6.639000 21.263300
6.652600 20.802800
6.666300 19.858200
6.679900 22.687500
6.693600 21.648800
6.707200 20.670600
6.720900 19.676600
6.734500 18.816500
6.748200 18.021300
6.761800 17.491600
6.775500 17.339000
6.789100 23.398900
6.802800 19.163100
6.816400 16.928900
6.830000 20.718800
6.843700 19.404800
6.857300 22.506100
6.871000 19.563600
6.884600 17.620000
6.898300 16.317200
6.911900 18.903200
6.925600 16.101900
6.939200 15.508700
6.952900 15.441500
6.966500 14.231200
6.980200 14.074800
6.993800 13.871100
7.007400 13.652100
7.021100 13.433100
7.034700 14.473600
7.048400 13.438100
7.062000 13.236000
7.075700 14.341200
7.089300 13.995400
7.103000 13.649600
7.116600 12.641500
7.130300 12.390300
7.143900 12.139200
7.157600 11.881800
7.171200 11.585400
7.184800 11.289100
7.198500 10.992800
7.212100 10.952900
7.225800 11.215100
7.239400 11.477400
7.253100 11.739600
7.266700 14.647400
7.280400 13.758100
7.294000 13.221600
7.307700 12.975500
7.321300 14.692400
7.335000 14.658500
7.348600 16.854900
7.362200 15.953600
7.375900 15.522400
7.389500 15.091300
7.403200 13.216700
7.416800 12.674000
7.430500 12.117200
7.444100 10.101500
7.457800 9.931100
7.471400 10.342700
7.485100 11.260600
7.498700 12.425200
7.512400 14.141700
7.526000 15.858300
7.539700 16.836200
7.553300 18.530400
7.566900 20.224600
7.580600 11.119200
7.594200 10.265800
7.607900 10.189500
7.621500 9.458300
7.635200 9.618400
7.648800 9.778500
7.662500 10.160400
7.676100 10.543000
7.689800 10.616900
7.703400 11.016300
7.717100 11.571000
7.730700 12.125800
7.744300 12.680600
7.758000 12.927300
7.771600 13.207300
7.785300 13.165400
7.798900 13.280100
7.812600 13.394700
7.826200 13.509400
7.839900 13.624100
7.853500 18.683900
7.867200 24.706800
7.880800 24.100900
7.894500 23.654200
7.908100 17.657700
7.921700 17.332000
7.935400 18.120600
7.949000 18.546500
7.962700 18.737900
7.976300 19.032400
7.990000 18.609700
8.003600 17.784800
8.017300 17.457800
8.030900 16.695100
8.044600 23.165200
8.058200 22.489700
8.071900 21.415600
8.085500 20.923700
8.099100 20.431700
8.112800 18.848300
8.126400 18.722200
8.140100 16.265900
8.153700 16.767700
8.167400 17.941800
8.181000 16.903700
8.194700 17.075700
8.208300 16.919300
8.222000 16.742400
8.235600 15.277500
8.249300 14.988300
8.262900 14.702300
8.276600 17.368000
8.290200 17.068400
8.303800 16.768800
8.317500 14.318200
8.331100 14.078300
8.344800 14.761700
8.358400 14.581000
8.372100 15.882300
8.385700 16.293200
8.399400 16.704100
8.413000 18.046300
8.426700 17.726500
8.440300 18.168800
8.454000 18.617500
8.467600 19.684900
8.481200 19.777400
8.494900 16.326900
8.508500 16.761900
8.522200 17.197000
8.535800 16.764500
8.549500 14.739900
8.563100 14.867900
8.576800 14.170400
8.590400 11.822400
8.604100 11.912800
8.617700 12.003100
8.631400 12.093400
8.645000 11.146600
8.658600 11.002300
8.672300 19.336600
8.685900 13.464000
8.699600 12.544600
8.713200 10.916600
8.726900 10.600200
8.740500 9.999900
8.754200 10.291100
8.767800 10.319200
8.781500 13.065600
8.795100 16.971000
8.808800 20.876500
8.822400 19.978700
8.836000 23.255500
8.849700 22.557600
8.863300 25.240100
8.877000 24.742300
8.890600 23.971400
8.904300 21.032700
8.917900 20.643400
8.931600 22.462000
8.945200 22.702000
8.958900 24.318200
8.972500 25.390000
8.986200 25.983700
8.999800 34.718800
9.013500 31.568900
9.027100 31.515900
9.040700 30.613600
9.054400 26.730900
9.068000 19.857800
9.081700 19.737000
9.095300 19.343200
9.109000 19.149300
9.122600 17.767700
9.136300 17.401900
9.149900 17.040000
9.163600 15.517800
9.177200 20.507400
9.190900 22.779000
9.204500 22.683800
9.218100 22.585700
9.231800 22.830500
9.245400 23.262300
9.259100 23.743300
9.272700 24.174600
9.286400 24.603300
9.300000 26.465500
9.313700 26.587300
9.327300 24.442600
9.341000 25.182100
9.354600 25.200100
9.368300 25.218200
9.381900 25.327100
9.395500 25.746100
9.409200 25.572100
9.422800 26.469700
9.436500 26.547600
9.450100 26.270400
9.463800 24.356700
9.477400 24.144800
9.491100 24.052100
9.504700 22.914300
9.518400 19.585600
9.532000 19.688300
9.545700 19.879700
9.559300 20.071000
9.573000 20.254200
9.586600 24.637000
9.600200 22.957700
9.613900 21.336700
9.627500 18.468700
9.641200 17.569200
9.654800 17.797100
9.668500 15.145400
9.682100 15.182300
9.695800 15.219200
9.709400 15.256100
9.723100 15.330600
9.736700 15.398800
9.750400 15.370800
9.764000 17.302100
9.777600 17.137100
9.791300 16.972000
9.804900 16.807000
9.818600 16.816400
9.832200 20.074600
9.845900 19.295900
9.859500 18.495700
9.873200 17.695600
9.886800 17.090600
9.900500 16.587500
9.914100 19.233500
9.927800 18.012800
9.941400 16.812100
9.955000 15.046000
9.968700 14.781700
9.982300 14.907600
9.996000 15.033400
10.009600 15.159300
10.023300 16.758900
10.036900 16.740500
10.050600 16.722100
10.064200 16.703800
10.077900 16.685400
10.091500 16.879200
10.105200 16.868800
10.118800 16.863200
10.132400 16.867800
10.146100 16.872300
10.159700 16.876900
10.173400 18.131800
10.187000 17.980700
10.200700 17.849700
10.214300 17.633700
10.228000 16.946100
10.241600 16.842800
10.255300 17.930400
10.268900 18.003700
10.282600 18.991600
10.296200 19.842400
10.309900 19.486400
10.323500 23.457600
10.337100 21.129900
10.350800 18.900700
10.364400 20.414700
10.378100 19.771900
10.391700 19.217800
10.405400 18.545400
10.419000 17.872900
10.432700 17.200500
10.446300 18.939200
10.460000 17.626100
10.473600 16.334400
10.487300 16.412300
10.500900 15.508400
10.514500 14.602000
10.528200 14.474000
10.541800 14.363700
10.555500 15.808100
10.569100 15.522700
10.582800 19.730200
10.596400 14.118400
10.610100 15.498900
10.623700 15.042800
10.637400 16.966800
10.651000 15.928300
10.664700 14.889800
10.678300 14.550200
10.691900 13.452800
10.705600 12.355500
10.719200 11.642200
10.732900 11.842000
10.746500 15.461400
10.760200 16.369800
10.773800 17.682700
10.787500 12.567600
10.801100 12.945000
10.814800 12.406000
10.828400 12.499800
10.842100 12.284900
10.855700 12.070000
10.869300 12.968700
10.883000 12.639600
10.896600 13.455000
10.910300 13.690800
10.923900 13.772400
10.937600 13.455600
10.951200 13.088400
10.964900 13.134200
10.978500 12.816200
10.992200 12.834900
11.005800 12.652400
11.019500 13.968000
11.033100 15.186000
11.046800 16.404100
11.060400 17.622100
11.074000 13.225100
11.087700 13.353800
11.101300 13.485500
11.115000 13.368300
11.128600 13.669900
11.142300 16.080900
11.155900 18.486500
11.169600 10.760800
11.183200 10.666100
11.196900 10.340600
11.210500 11.861200
11.224200 11.844700
11.237800 11.828200
11.251400 11.811700
11.265100 11.789300
11.278700 11.739000
11.292400 11.690200
11.306000 11.634200
11.319700 14.845200
11.333300 18.663000
11.347000 16.147600
11.360600 13.731300
11.374300 11.327500
11.387900 9.154700
11.401600 9.182500
11.415200 9.664200
11.428800 10.146000
11.442500 10.627700
11.456100 11.109400
11.469800 11.591200
11.483400 12.072900
11.497100 12.453600
11.510700 12.777600
11.524400 13.101600
11.538000 13.425500
11.551700 13.769700
11.565300 14.568700
11.579000 15.275700
11.592600 13.638400
11.606200 14.303600
11.619900 10.758900
11.633500 9.780500
11.647200 9.962700
11.660800 10.144800
11.674500 10.326900
11.688100 10.509100
11.701800 11.002600
11.715400 8.933700
11.729100 8.963800
11.742700 8.993900
11.756400 9.313300
11.770000 10.137900
11.783700 11.015000
11.797300 11.892100
11.810900 12.860600
11.824600 13.959900
11.838200 15.059200
11.851900 15.157900
11.865500 13.101000
11.879200 12.819800
11.892800 12.538600
11.906500 12.404300
11.920100 12.587400
11.933800 13.218700
11.947400 13.850100
11.961100 11.848800
11.974700 12.336400
11.988300 12.824000
12.002000 13.311500
12.015600 13.758700
12.029300 13.403600
12.042900 13.327700
12.056600 11.129400
12.070200 12.456600
12.083900 12.299800
12.097500 12.143100
12.111200 12.163100
12.124800 12.418800
12.138500 12.674500
12.152100 18.523500
12.165700 17.818900
12.179400 14.669400
12.193000 12.936900
12.206700 13.196200
12.220300 13.455600
12.234000 11.618600
12.247600 11.418000
12.261300 11.217400
12.274900 13.501400
12.288600 13.001500
12.302200 12.661200
12.315900 12.321000
12.329500 11.980700
12.343100 11.640500
12.356800 12.192600
12.370400 12.133800
12.384100 12.075100
12.397700 12.023900
12.411400 13.888800
12.425000 14.694800
12.438700 14.614100
12.452300 14.645700
12.466000 14.677300
12.479600 14.709000
12.493300 14.760000
12.506900 14.863600
12.520600 15.951200
12.534200 16.049200
12.547800 16.147200
12.561500 15.969500
12.575100 14.974000
12.588800 14.168500
12.602400 14.121400
12.616100 14.813400
12.629700 14.720300
12.643400 14.636800
12.657000 13.713800
12.670700 13.451000
12.684300 13.190600
12.698000 12.931500
12.711600 17.605500
12.725200 14.718200
12.738900 14.449200
12.752500 14.977200
12.766200 15.583600
12.779800 16.228100
12.793500 16.265700
12.807100 16.907000
12.820800 18.175300
12.834400 14.950900
12.848100 15.131000
12.861700 15.314400
12.875400 14.994000
12.889000 14.083600
12.902600 14.586500
12.916300 15.089400
12.929900 14.499000
12.943600 13.167600
12.957200 13.841800
12.970900 14.516000
12.984500 15.190100
12.998200 15.864300
13.011800 15.052900
13.025500 11.818700
13.039100 12.370100
13.052800 12.921400
13.066400 13.472800
13.080000 14.028600
13.093700 10.997200
13.107300 9.195900
13.121000 9.191900
13.134600 9.187900
13.148300 9.183900
13.161900 9.359500
13.175600 10.905300
13.189200 12.453400
13.202900 7.958800
13.216500 6.720200
13.230200 7.926000
13.243800 9.131800
13.257500 4.678300
13.271100 4.612800
13.284700 4.547200
13.298400 4.481700
13.312000 4.416100
13.325700 4.350600
13.339300 4.285000
13.353000 7.209900
13.366600 2.769300
13.380300 2.726800
13.393900 2.684200
13.407600 2.641700
13.421200 2.599200
13.434900 2.556600
13.448500 2.514100
13.462100 2.471600
13.475800 2.503600
13.489400 2.827300
13.503100 3.151100
13.516700 3.474900
13.530400 3.798600
13.544000 4.122400
13.557700 1.142000
13.571300 1.164700
13.585000 1.195200
13.598600 1.225600
13.612300 1.256000
13.625900 1.286500
13.639500 1.316900
13.653200 1.347400
13.666800 1.377800
13.680500 1.408300
13.694100 1.438700
13.707800 1.469200
13.721400 1.499600
13.735100 0.000000
13.748700 0.000000
13.762400 0.000000
13.776000 0.000000
13.789700 0.000000
13.803300 0.000000
13.816900 0.000000
13.830600 0.000000
13.844200 0.000000
13.857900 0.000000
13.871500 0.000000
13.885200 0.000000
13.898800 0.000000
13.912500 0.000000
13.926100 0.000000
13.939800 0.000000
13.953400 0.000000
13.967100 0.000000
13.980700 0.000000
13.994400 0.000000
14.008000 0.000000
14.021600 0.000000
14.035300 0.000000
14.048900 0.000000
14.062600 0.000000
14.076200 0.000000
14.089900 0.000000
14.103500 0.000000
14.117200 0.000000
14.130800 0.000000
14.144500 0.000000
14.158100 0.000000
14.171800 0.000000
14.185400 0.000000
14.199000 0.000000
14.212700 0.000000
14.226300 0.000000
14.240000 0.000000
14.253600 0.000000
14.267300 0.000000
14.280900 0.000000
14.294600 0.000000
14.308200 0.000000
14.321900 0.000000
14.335500 0.000000
14.349200 0.000000
14.362800 0.000000
14.376400 0.000000
14.390100 0.000000
14.403700 0.000000
14.417400 0.000000
14.431000 0.000000
14.444700 0.000000
14.458300 0.000000
14.472000 0.000000
14.485600 0.000000
14.499300 0.000000
14.512900 0.000000
14.526600 0.000000
14.540200 0.000000
14.553800 0.000000
14.567500 0.000000
14.581100 0.000000
14.594800 0.000000
14.608400 0.000000
14.622100 0.000000
14.635700 0.000000
14.649400 0.000000
14.663000 0.000000
14.676700 0.000000
14.690300 0.000000
14.704000 0.000000
14.717600 0.000000
14.731300 0.000000
14.744900 0.000000
14.758500 0.000000
14.772200 0.000000
14.785800 0.000000
14.799500 0.000000
14.813100 0.000000
14.826800 0.000000
14.840400 0.000000
14.854100 0.000000
14.867700 0.000000
14.881400 0.000000
14.895000 0.000000
14.908700 0.000000
14.922300 0.000000
14.935900 0.000000
14.949600 0.000000
14.963200 0.000000
e
