set title 'mp-556005 - Density of States'
set xlabel 'Energy (eV)'
set ylabel 'DOS (states/eV)'
set grid
set xrange [-10:10]
set yrange [0:230.537]
set xzeroaxis lt -1
set terminal png size 800,600
set output 'mp-556005_dos_gnuplot.png'
plot '-' using 1:2 with lines title 'DOS'
-12.541600 0.000000
-12.525800 0.000000
-12.510000 0.000000
-12.494200 0.000000
-12.478400 0.000000
-12.462600 0.000000
-12.446800 0.000000
-12.431000 0.000000
-12.415200 0.000000
-12.399400 0.000000
-12.383600 0.000000
-12.367800 0.000000
-12.352000 0.000000
-12.336200 0.000000
-12.320400 0.000000
-12.304700 0.000000
-12.288900 0.000000
-12.273100 0.000000
-12.257300 0.000000
-12.241500 0.000000
-12.225700 0.000000
-12.209900 0.000000
-12.194100 0.000000
-12.178300 0.000000
-12.162500 0.000000
-12.146700 0.000000
-12.130900 0.000000
-12.115100 0.000000
-12.099300 0.000000
-12.083500 0.000000
-12.067700 0.000000
-12.052000 0.000000
-12.036200 0.000000
-12.020400 0.000000
-12.004600 0.000000
-11.988800 0.000000
-11.973000 0.000000
-11.957200 0.000000
-11.941400 0.000000
-11.925600 0.000000
-11.909800 0.000000
-11.894000 0.000000
-11.878200 0.000000
-11.862400 0.000000
-11.846600 0.000000
-11.830800 0.000000
-11.815000 0.000000
-11.799200 0.000000
-11.783500 0.000000
-11.767700 0.000000
-11.751900 0.000000
-11.736100 0.000000
-11.720300 0.000000
-11.704500 0.000000
-11.688700 0.000000
-11.672900 0.000000
-11.657100 0.000000
-11.641300 0.000000
-11.625500 0.000000
-11.609700 0.000000
-11.593900 0.000000
-11.578100 0.000000
-11.562300 0.000000
-11.546500 0.000000
-11.530800 0.000000
-11.515000 0.000000
-11.499200 0.000000
-11.483400 0.000000
-11.467600 0.000000
-11.451800 0.000000
-11.436000 0.000000
-11.420200 0.000000
-11.404400 0.000000
-11.388600 0.000000
-11.372800 0.000000
-11.357000 0.000000
-11.341200 0.000000
-11.325400 0.000000
-11.309600 0.000000
-11.293800 0.000000
-11.278000 0.000000
-11.262300 0.000000
-11.246500 0.000000
-11.230700 0.000000
-11.214900 0.000000
-11.199100 0.000000
-11.183300 0.000000
-11.167500 0.000000
-11.151700 0.000000
-11.135900 0.000000
-11.120100 0.000000
-11.104300 0.021400
-11.088500 0.256900
-11.072700 0.492400
-11.056900 0.727900
-11.041100 0.963400
-11.025300 1.198900
-11.009600 1.434400
-10.993800 1.669800
-10.978000 1.946500
-10.962200 1.566200
-10.946400 2.106300
-10.930600 2.646400
-10.914800 3.186400
-10.899000 3.726500
-10.883200 4.266600
-10.867400 4.806700
-10.851600 4.389200
-10.835800 3.645600
-10.820000 3.740100
-10.804200 3.834600
-10.788400 3.929000
-10.772600 4.023500
-10.756800 4.118000
-10.741100 4.208100
-10.725300 4.293100
-10.709500 4.378200
-10.693700 4.463200
-10.677900 5.059700
-10.662100 5.839000
-10.646300 6.621200
-10.630500 7.411800
-10.614700 8.193800
-10.598900 8.975700
-10.583100 8.753100
-10.567300 7.972900
-10.551500 8.159500
-10.535700 8.356100
-10.519900 8.568800
-10.504100 8.781500
-10.488400 8.994200
-10.472600 9.207000
-10.456800 9.419700
-10.441000 9.632400
-10.425200 9.845100
-10.409400 10.057800
-10.393600 10.651300
-10.377800 11.131800
-10.362000 11.989600
-10.346200 13.439300
-10.330400 15.068800
-10.314600 17.074800
-10.298800 20.895300
-10.283000 20.912100
-10.267200 20.460000
-10.251400 20.899700
-10.235600 23.709600
-10.219900 23.154800
-10.204100 24.132200
-10.188300 23.938600
-10.172500 24.575200
-10.156700 26.054000
-10.140900 24.474000
-10.125100 25.848200
-10.109300 29.053400
-10.093500 38.211400
-10.077700 31.228800
-10.061900 24.084900
-10.046100 21.229000
-10.030300 25.171200
-10.014500 22.546800
-9.998700 26.506000
-9.982900 44.339200
-9.967200 24.611200
-9.951400 23.720100
-9.935600 6.956300
-9.919800 7.578200
-9.904000 51.518700
-9.888200 0.000000
-9.872400 0.000000
-9.856600 0.000000
-9.840800 0.000000
-9.825000 0.000000
-9.809200 0.000000
-9.793400 0.000000
-9.777600 0.000000
-9.761800 0.000000
-9.746000 0.000000
-9.730200 0.000000
-9.714400 0.000000
-9.698700 0.000000
-9.682900 0.000000
-9.667100 0.000000
-9.651300 0.000000
-9.635500 0.000000
-9.619700 0.000000
-9.603900 0.000000
-9.588100 0.000000
-9.572300 0.000000
-9.556500 0.000000
-9.540700 0.000000
-9.524900 0.000000
-9.509100 0.000000
-9.493300 0.000000
-9.477500 0.000000
-9.461700 0.000000
-9.445900 0.000000
-9.430200 0.000000
-9.414400 0.000000
-9.398600 0.000000
-9.382800 0.000000
-9.367000 0.000000
-9.351200 0.000000
-9.335400 0.000000
-9.319600 0.000000
-9.303800 0.000000
-9.288000 0.000000
-9.272200 0.000000
-9.256400 0.000000
-9.240600 0.000000
-9.224800 0.000000
-9.209000 0.000000
-9.193200 0.000000
-9.177500 0.000000
-9.161700 0.000000
-9.145900 0.000000
-9.130100 0.000000
-9.114300 0.000000
-9.098500 0.000000
-9.082700 0.000000
-9.066900 0.000000
-9.051100 0.000000
-9.035300 0.000000
-9.019500 0.000000
-9.003700 0.000000
-8.987900 0.000000
-8.972100 0.000000
-8.956300 0.000000
-8.940500 0.000000
-8.924700 0.000000
-8.909000 0.000000
-8.893200 0.000000
-8.877400 0.000000
-8.861600 0.000000
-8.845800 0.000000
-8.830000 0.000000
-8.814200 0.000000
-8.798400 0.000000
-8.782600 0.000000
-8.766800 0.000000
-8.751000 0.000000
-8.735200 0.000000
-8.719400 0.000000
-8.703600 0.000000
-8.687800 0.000000
-8.672000 0.000000
-8.656300 0.000000
-8.640500 0.000000
-8.624700 0.000000
-8.608900 0.000000
-8.593100 0.000000
-8.577300 0.000000
-8.561500 0.000000
-8.545700 0.000000
-8.529900 0.000000
-8.514100 0.000000
-8.498300 0.000000
-8.482500 0.000000
-8.466700 0.000000
-8.450900 0.000000
-8.435100 0.000000
-8.419300 0.000000
-8.403500 0.000000
-8.387800 0.000000
-8.372000 0.000000
-8.356200 0.000000
-8.340400 0.000000
-8.324600 0.000000
-8.308800 0.000000
-8.293000 0.000000
-8.277200 0.000000
-8.261400 0.000000
-8.245600 0.000000
-8.229800 0.000000
-8.214000 0.000000
-8.198200 0.000000
-8.182400 0.000000
-8.166600 0.000000
-8.150800 0.000000
-8.135100 0.000000
-8.119300 0.000000
-8.103500 0.000000
-8.087700 0.000000
-8.071900 0.000000
-8.056100 0.000000
-8.040300 0.000000
-8.024500 0.000000
-8.008700 0.000000
-7.992900 0.000000
-7.977100 0.000000
-7.961300 0.000000
-7.945500 0.000000
-7.929700 0.000000
-7.913900 0.000000
-7.898100 0.000000
-7.882300 0.000000
-7.866600 0.000000
-7.850800 0.000000
-7.835000 0.000000
-7.819200 0.000000
-7.803400 0.000000
-7.787600 0.000000
-7.771800 0.000000
-7.756000 0.000000
-7.740200 0.000000
-7.724400 0.000000
-7.708600 0.000000
-7.692800 0.000000
-7.677000 0.000000
-7.661200 0.000000
-7.645400 0.000000
-7.629600 0.000000
-7.613900 0.000000
-7.598100 0.000000
-7.582300 0.000000
-7.566500 0.000000
-7.550700 0.000000
-7.534900 0.000000
-7.519100 0.000000
-7.503300 0.000000
-7.487500 0.000000
-7.471700 0.000000
-7.455900 0.000000
-7.440100 0.000000
-7.424300 0.000000
-7.408500 0.000000
-7.392700 0.000000
-7.376900 0.000000
-7.361100 0.000000
-7.345400 0.000000
-7.329600 0.000000
-7.313800 0.000000
-7.298000 0.000000
-7.282200 0.000000
-7.266400 0.000000
-7.250600 0.000000
-7.234800 0.000000
-7.219000 0.000000
-7.203200 0.000000
-7.187400 0.000000
-7.171600 0.000000
-7.155800 0.000000
-7.140000 0.000000
-7.124200 0.000000
-7.108400 0.000000
-7.092600 0.000000
-7.076900 0.000000
-7.061100 0.000000
-7.045300 0.000000
-7.029500 0.000000
-7.013700 0.000000
-6.997900 0.000000
-6.982100 0.000000
-6.966300 0.000000
-6.950500 0.000000
-6.934700 0.000000
-6.918900 0.000000
-6.903100 0.000000
-6.887300 0.000000
-6.871500 0.000000
-6.855700 0.000000
-6.839900 0.000000
-6.824200 0.000000
-6.808400 0.000000
-6.792600 0.000000
-6.776800 0.000000
-6.761000 0.000000
-6.745200 0.000000
-6.729400 0.000000
-6.713600 0.000000
-6.697800 0.000000
-6.682000 0.000000
-6.666200 0.000000
-6.650400 0.000000
-6.634600 0.000000
-6.618800 0.000000
-6.603000 0.000000
-6.587200 0.000000
-6.571400 0.000000
-6.555700 0.000000
-6.539900 0.000000
-6.524100 0.000000
-6.508300 0.000000
-6.492500 0.000000
-6.476700 0.000000
-6.460900 0.000000
-6.445100 0.000000
-6.429300 0.000000
-6.413500 0.000000
-6.397700 0.000000
-6.381900 0.000000
-6.366100 0.000000
-6.350300 0.000000
-6.334500 0.000000
-6.318700 0.000000
-6.303000 0.000000
-6.287200 0.000000
-6.271400 0.000000
-6.255600 0.000000
-6.239800 0.000000
-6.224000 0.000000
-6.208200 0.000000
-6.192400 0.000000
-6.176600 0.000000
-6.160800 0.000000
-6.145000 0.000000
-6.129200 0.000000
-6.113400 0.000000
-6.097600 0.000000
-6.081800 0.000000
-6.066000 0.000000
-6.050200 0.000000
-6.034500 0.000000
-6.018700 0.000000
-6.002900 0.000000
-5.987100 0.000000
-5.971300 0.000000
-5.955500 0.000000
-5.939700 0.000000
-5.923900 0.000000
-5.908100 0.000000
-5.892300 0.000000
-5.876500 0.000000
-5.860700 0.000000
-5.844900 0.000000
-5.829100 0.000000
-5.813300 0.000000
-5.797500 0.000000
-5.781800 0.000000
-5.766000 0.000000
-5.750200 0.000000
-5.734400 0.000000
-5.718600 0.000000
-5.702800 0.000000
-5.687000 0.000000
-5.671200 0.000000
-5.655400 0.000000
-5.639600 0.000000
-5.623800 0.000000
-5.608000 0.000000
-5.592200 0.000000
-5.576400 0.000000
-5.560600 0.000000
-5.544800 0.000000
-5.529000 0.000000
-5.513300 0.000000
-5.497500 0.000000
-5.481700 0.000000
-5.465900 0.000000
-5.450100 0.000000
-5.434300 0.000000
-5.418500 0.000000
-5.402700 0.000000
-5.386900 0.000000
-5.371100 0.000000
-5.355300 0.000000
-5.339500 0.000000
-5.323700 0.000000
-5.307900 0.000000
-5.292100 0.000000
-5.276300 0.000000
-5.260600 0.000000
-5.244800 0.000000
-5.229000 0.000000
-5.213200 0.000000
-5.197400 0.000000
-5.181600 0.000000
-5.165800 0.000000
-5.150000 0.000000
-5.134200 0.000000
-5.118400 0.000000
-5.102600 0.000000
-5.086800 0.000000
-5.071000 0.000000
-5.055200 0.000000
-5.039400 0.000000
-5.023600 0.000000
-5.007800 0.000000
-4.992100 0.000000
-4.976300 0.000000
-4.960500 0.000000
-4.944700 0.000000
-4.928900 0.000000
-4.913100 0.000000
-4.897300 0.000000
-4.881500 0.000000
-4.865700 0.000000
-4.849900 0.000000
-4.834100 0.000000
-4.818300 0.000000
-4.802500 0.000000
-4.786700 0.000000
-4.770900 0.000000
-4.755100 0.000000
-4.739400 0.000000
-4.723600 0.000000
-4.707800 0.000000
-4.692000 0.000000
-4.676200 0.000000
-4.660400 0.000000
-4.644600 0.000000
-4.628800 0.000000
-4.613000 0.000000
-4.597200 0.000000
-4.581400 0.000000
-4.565600 0.000000
-4.549800 0.000000
-4.534000 0.000000
-4.518200 0.000000
-4.502400 0.000000
-4.486600 0.000000
-4.470900 0.000000
-4.455100 0.000000
-4.439300 0.000000
-4.423500 87.564400
-4.407700 54.733100
-4.391900 85.797200
-4.376100 100.205000
-4.360300 78.962400
-4.344500 106.996100
-4.328700 124.077700
-4.312900 147.681700
-4.297100 159.903100
-4.281300 151.896900
-4.265500 173.944300
-4.249700 152.462400
-4.233900 165.052300
-4.218100 127.760400
-4.202400 122.696500
-4.186600 129.644600
-4.170800 79.448400
-4.155000 88.698100
-4.139200 108.779100
-4.123400 85.186300
-4.107600 118.758900
-4.091800 73.476400
-4.076000 65.141100
-4.060200 71.186700
-4.044400 61.997600
-4.028600 35.417900
-4.012800 73.345700
-3.997000 42.944000
-3.981200 79.467600
-3.965400 126.952500
-3.949700 109.542300
-3.933900 209.579000
-3.918100 158.264500
-3.902300 143.949000
-3.886500 134.816800
-3.870700 127.153900
-3.854900 160.074200
-3.839100 104.592800
-3.823300 76.137700
-3.807500 55.852400
-3.791700 41.001400
-3.775900 39.547500
-3.760100 44.359000
-3.744300 43.194600
-3.728500 20.943300
-3.712700 22.482300
-3.696900 38.439300
-3.681200 41.103100
-3.665400 58.164900
-3.649600 19.412100
-3.633800 20.546700
-3.618000 25.922800
-3.602200 25.492600
-3.586400 16.834100
-3.570600 11.880900
-3.554800 7.345800
-3.539000 0.000000
-3.523200 0.000000
-3.507400 0.000000
-3.491600 0.000000
-3.475800 0.000000
-3.460000 0.000000
-3.444200 0.000000
-3.428500 0.000000
-3.412700 0.000000
-3.396900 0.000000
-3.381100 0.000000
-3.365300 0.000000
-3.349500 0.000000
-3.333700 0.000000
-3.317900 0.000000
-3.302100 0.000000
-3.286300 0.000000
-3.270500 0.000000
-3.254700 0.000000
-3.238900 0.062200
-3.223100 0.175000
-3.207300 0.287900
-3.191500 0.400800
-3.175700 0.513700
-3.160000 0.626500
-3.144200 0.739400
-3.128400 0.852300
-3.112600 0.965200
-3.096800 1.078100
-3.081000 1.190900
-3.065200 1.303800
-3.049400 0.879200
-3.033600 0.905200
-3.017800 0.931300
-3.002000 0.957300
-2.986200 1.850900
-2.970400 6.664400
-2.954600 2.773700
-2.938800 2.961500
-2.923000 3.214300
-2.907300 5.353500
-2.891500 7.492800
-2.875700 9.632100
-2.859900 5.868900
-2.844100 6.194800
-2.828300 6.520700
-2.812500 6.890900
-2.796700 11.708900
-2.780900 16.527000
-2.765100 10.797800
-2.749300 12.036000
-2.733500 13.274300
-2.717700 13.671100
-2.701900 15.120600
-2.686100 14.345600
-2.670300 13.368600
-2.654500 12.391600
-2.638800 5.415600
-2.623000 8.634000
-2.607200 10.980000
-2.591400 13.325900
-2.575600 12.157900
-2.559800 22.917000
-2.544000 9.673900
-2.528200 9.520100
-2.512400 9.109100
-2.496600 10.585000
-2.480800 12.060900
-2.465000 9.034700
-2.449200 8.999800
-2.433400 8.964900
-2.417600 8.930000
-2.401800 8.895000
-2.386100 8.860100
-2.370300 11.840000
-2.354500 16.580100
-2.338700 12.603200
-2.322900 13.721700
-2.307100 14.840100
-2.291300 16.910600
-2.275500 25.440600
-2.259700 21.748500
-2.243900 16.243600
-2.228100 11.290400
-2.212300 9.585200
-2.196500 5.382700
-2.180700 5.414800
-2.164900 5.447000
-2.149100 5.479100
-2.133300 5.511200
-2.117600 5.543300
-2.101800 5.575400
-2.086000 5.607500
-2.070200 5.639600
-2.054400 5.671700
-2.038600 5.703800
-2.022800 5.735900
-2.007000 5.768000
-1.991200 5.800100
-1.975400 5.832300
-1.959600 5.864400
-1.943800 4.906200
-1.928000 4.834900
-1.912200 4.763500
-1.896400 4.692100
-1.880600 4.620700
-1.864900 4.549300
-1.849100 4.301500
-1.833300 4.244800
-1.817500 4.188200
-1.801700 4.131500
-1.785900 3.873800
-1.770100 3.840300
-1.754300 3.806700
-1.738500 3.773200
-1.722700 3.741900
-1.706900 3.716200
-1.691100 3.692700
-1.675300 3.669200
-1.659500 3.645700
-1.643700 3.622200
-1.627900 3.598800
-1.612100 3.575300
-1.596400 3.551800
-1.580600 3.528300
-1.564800 3.504800
-1.549000 3.385500
-1.533200 3.373700
-1.517400 3.361900
-1.501600 3.350200
-1.485800 3.338400
-1.470000 3.326600
-1.454200 3.314900
-1.438400 3.992600
-1.422600 4.064400
-1.406800 4.136200
-1.391000 4.208100
-1.375200 4.279300
-1.359400 4.348000
-1.343600 4.416700
-1.327900 4.485400
-1.312100 4.554000
-1.296300 4.622700
-1.280500 4.691400
-1.264700 4.760000
-1.248900 4.828400
-1.233100 4.896000
-1.217300 4.963600
-1.201500 5.031200
-1.185700 5.098700
-1.169900 5.794900
-1.154100 5.900500
-1.138300 8.275900
-1.122500 16.147800
-1.106700 13.023600
-1.090900 9.898800
-1.075200 7.347700
-1.059400 5.947700
-1.043600 5.965900
-1.027800 5.981800
-1.012000 5.997700
-0.996200 6.013600
-0.980400 10.580800
-0.964600 9.326100
-0.948800 8.071300
-0.933000 6.816500
-0.917200 6.274900
-0.901400 5.631800
-0.885600 5.693200
-0.869800 5.754600
-0.854000 5.816100
-0.838200 5.877500
-0.822400 5.938900
-0.806700 6.000400
-0.790900 6.061800
-0.775100 6.123200
-0.759300 9.169300
-0.743500 13.163500
-0.727700 16.395200
-0.711900 18.508600
-0.696100 13.979900
-0.680300 10.822400
-0.664500 9.068800
-0.648700 9.069200
-0.632900 10.941200
-0.617100 14.145700
-0.601300 16.571400
-0.585500 17.946000
-0.569700 16.305600
-0.554000 14.719500
-0.538200 13.133500
-0.522400 11.547400
-0.506600 9.243000
-0.490800 8.777900
-0.475000 8.537600
-0.459200 10.124400
-0.443400 9.816700
-0.427600 10.493800
-0.411800 10.339800
-0.396000 10.189000
-0.380200 10.067200
-0.364400 10.126600
-0.348600 10.185900
-0.332800 10.335500
-0.317000 10.426200
-0.301200 10.628500
-0.285500 10.830800
-0.269700 10.853500
-0.253900 11.010300
-0.238100 11.167100
-0.222300 11.323900
-0.206500 11.480700
-0.190700 10.941900
-0.174900 12.366000
-0.159100 12.576800
-0.143300 12.851400
-0.127500 13.927800
-0.111700 14.238900
-0.095900 14.550000
-0.080100 14.861200
-0.064300 15.172300
-0.048500 15.398100
-0.032800 15.495700
-0.017000 13.572000
-0.001200 13.506300
0.014600 13.396500
0.030400 13.293400
0.046200 14.306700
0.062000 14.262200
0.077800 14.217800
0.093600 13.228900
0.109400 13.146500
0.125200 13.064100
0.141000 12.981700
0.156800 12.899300
0.172600 12.826400
0.188400 13.046000
0.204200 15.052200
0.220000 15.316500
0.235700 15.622600
0.251500 15.828300
0.267300 16.130500
0.283100 16.593700
0.298900 17.058800
0.314700 17.276800
0.330500 17.459600
0.346300 17.570000
0.362100 17.652600
0.377900 17.387400
0.393700 15.235700
0.409500 14.860300
0.425300 14.484900
0.441100 36.695800
0.456900 14.211000
0.472700 17.612000
0.488400 16.965700
0.504200 16.321300
0.520000 15.676900
0.535800 16.753500
0.551600 16.691900
0.567400 16.630300
0.583200 16.568700
0.599000 16.507000
0.614800 16.445400
0.630600 16.383800
0.646400 17.853500
0.662200 17.238500
0.678000 17.161000
0.693800 17.083600
0.709600 16.998400
0.725400 16.643300
0.741200 16.962100
0.756900 16.867000
0.772700 17.243600
0.788500 17.420600
0.804300 17.665500
0.820100 17.942600
0.835900 17.588500
0.851700 17.778900
0.867500 15.481500
0.883300 14.970900
0.899100 14.706600
0.914900 14.343400
0.930700 13.980100
0.946500 13.616900
0.962300 13.253600
0.978100 13.246000
0.993900 13.034100
1.009600 12.822200
1.025400 13.134300
1.041200 12.848800
1.057000 12.563400
1.072800 12.278000
1.088600 11.132500
1.104400 10.796100
1.120200 10.477200
1.136000 10.158300
1.151800 9.857800
1.167600 9.593800
1.183400 9.339700
1.199200 9.542400
1.215000 9.239900
1.230800 8.937400
1.246600 8.634900
1.262400 8.111800
1.278100 7.570100
1.293900 7.215200
1.309700 6.918400
1.325500 6.621600
1.341300 6.162700
1.357100 5.878900
1.372900 5.642600
1.388700 5.429600
1.404500 5.216600
1.420300 5.003700
1.436100 4.829800
1.451900 4.723100
1.467700 4.609400
1.483500 4.456800
1.499300 4.304200
1.515100 4.151600
1.530900 3.999100
1.546600 4.559300
1.562400 4.601300
1.578200 4.346100
1.594000 4.090800
1.609800 3.835600
1.625600 3.580400
1.641400 3.325100
1.657200 3.069900
1.673000 2.814700
1.688800 3.110100
1.704600 2.782600
1.720400 2.455100
1.736200 2.624100
1.752000 2.296700
1.767800 2.001800
1.783600 1.707000
1.799300 1.412100
1.815100 1.117300
1.830900 0.822400
1.846700 0.553000
1.862500 0.307400
1.878300 0.061800
1.894100 0.000000
1.909900 0.000000
1.925700 0.000000
1.941500 0.000000
1.957300 0.000000
1.973100 0.000000
1.988900 0.000000
2.004700 0.000000
2.020500 0.000000
2.036300 0.000000
2.052100 0.000000
2.067800 0.000000
2.083600 0.000000
2.099400 0.000000
2.115200 0.000000
2.131000 0.000000
2.146800 0.000000
2.162600 0.000000
2.178400 0.000000
2.194200 0.000000
2.210000 0.000000
2.225800 0.000000
2.241600 0.000000
2.257400 0.000000
2.273200 0.000000
2.289000 0.000000
2.304800 0.000000
2.320500 0.000000
2.336300 0.000000
2.352100 0.000000
2.367900 0.000000
2.383700 0.000000
2.399500 0.000000
2.415300 0.000000
2.431100 0.000000
2.446900 0.000000
2.462700 0.000000
2.478500 0.000000
2.494300 0.000000
2.510100 0.000000
2.525900 0.000000
2.541700 0.000000
2.557500 0.000000
2.573300 0.000000
2.589000 0.000000
2.604800 0.000000
2.620600 0.000000
2.636400 0.000000
2.652200 0.000000
2.668000 0.000000
2.683800 0.000000
2.699600 0.000000
2.715400 0.000000
2.731200 0.000000
2.747000 0.000000
2.762800 0.000000
2.778600 0.000000
2.794400 0.000000
2.810200 0.000000
2.826000 0.000000
2.841700 0.000000
2.857500 0.000000
2.873300 0.000000
2.889100 0.000000
2.904900 0.000000
2.920700 0.000000
2.936500 0.000000
2.952300 0.000000
2.968100 0.000000
2.983900 0.000000
2.999700 0.000000
3.015500 0.000000
3.031300 0.000000
3.047100 0.000000
3.062900 0.000000
3.078700 0.000000
3.094500 0.000000
3.110200 0.000000
3.126000 0.000000
3.141800 0.000000
3.157600 0.000000
3.173400 0.000000
3.189200 0.000000
3.205000 0.000000
3.220800 0.000000
3.236600 0.000000
3.252400 0.000000
3.268200 0.000000
3.284000 0.000000
3.299800 0.000000
3.315600 0.000000
3.331400 0.000000
3.347200 0.000000
3.362900 0.000000
3.378700 0.000000
3.394500 0.000000
3.410300 0.000000
3.426100 0.000000
3.441900 0.000000
3.457700 0.000000
3.473500 0.000000
3.489300 0.000000
3.505100 0.000000
3.520900 0.000000
3.536700 0.000000
3.552500 0.000000
3.568300 0.000000
3.584100 0.000000
3.599900 0.000000
3.615700 0.000000
3.631400 0.000000
3.647200 0.000000
3.663000 0.000000
3.678800 0.000000
3.694600 0.000000
3.710400 0.000000
3.726200 0.000000
3.742000 0.000000
3.757800 0.000000
3.773600 0.000000
3.789400 0.000000
3.805200 0.000000
3.821000 0.000000
3.836800 0.000000
3.852600 0.000000
3.868400 0.000000
3.884100 0.000000
3.899900 0.000000
3.915700 0.000000
3.931500 0.002900
3.947300 0.007300
3.963100 0.011800
3.978900 0.016200
3.994700 0.020600
4.010500 0.025000
4.026300 0.029500
4.042100 0.033900
4.057900 0.038300
4.073700 0.042700
4.089500 0.047200
4.105300 0.051600
4.121100 0.056000
4.136900 0.060400
4.152600 0.064900
4.168400 0.069300
4.184200 0.073700
4.200000 0.078200
4.215800 0.082600
4.231600 0.087000
4.247400 0.091400
4.263200 0.095900
4.279000 0.100300
4.294800 0.104700
4.310600 0.109100
4.326400 0.113600
4.342200 0.118000
4.358000 0.122400
4.373800 0.126900
4.389600 0.131300
4.405400 0.135700
4.421100 0.140100
4.436900 0.144600
4.452700 0.149000
4.468500 0.153400
4.484300 0.157800
4.500100 0.162300
4.515900 0.166700
4.531700 0.171100
4.547500 0.175500
4.563300 0.180000
4.579100 0.184400
4.594900 0.188800
4.610700 0.193300
4.626500 0.197700
4.642300 0.202100
4.658100 0.206500
4.673800 0.211000
4.689600 0.215400
4.705400 0.219800
4.721200 0.224200
4.737000 0.228700
4.752800 0.239600
4.768600 0.253500
4.784400 0.267300
4.800200 0.281200
4.816000 0.295100
4.831800 0.317100
4.847600 0.340600
4.863400 0.372600
4.879200 0.400700
4.895000 0.428900
4.910800 0.457000
4.926600 0.485100
4.942300 0.513300
4.958100 0.541400
4.973900 0.569500
4.989700 0.603300
5.005500 0.637600
5.021300 0.671800
5.037100 0.706100
5.052900 0.740300
5.068700 0.774600
5.084500 0.808800
5.100300 0.843100
5.116100 0.877300
5.131900 0.911500
5.147700 0.947600
5.163500 0.988000
5.179300 1.028300
5.195000 1.074400
5.210800 1.121100
5.226600 1.167800
5.242400 1.214500
5.258200 1.261200
5.274000 1.307900
5.289800 1.354600
5.305600 1.401300
5.321400 2.007700
5.337200 2.138000
5.353000 2.273800
5.368800 3.028000
5.384600 3.319500
5.400400 3.569700
5.416200 3.820000
5.432000 4.070300
5.447800 4.320500
5.463500 5.126100
5.479300 5.408000
5.495100 5.635800
5.510900 5.863700
5.526700 6.091500
5.542500 6.319400
5.558300 6.986300
5.574100 7.259100
5.589900 7.427800
5.605700 7.556400
5.621500 7.685100
5.637300 7.813700
5.653100 7.942400
5.668900 8.071100
5.684700 8.199700
5.700500 8.328400
5.716200 8.457000
5.732000 8.585700
5.747800 8.714300
5.763600 8.843000
5.779400 9.434200
5.795200 9.693300
5.811000 9.939600
5.826800 10.168800
5.842600 10.398000
5.858400 10.627200
5.874200 10.856400
5.890000 11.085600
5.905800 11.314800
5.921600 11.977700
5.937400 12.233500
5.953200 12.637800
5.969000 13.018400
5.984700 13.416500
6.000500 13.674400
6.016300 13.932300
6.032100 14.262400
6.047900 13.497500
6.063700 13.653300
6.079500 12.066400
6.095300 11.991900
6.111100 11.874100
6.126900 11.759100
6.142700 11.755800
6.158500 11.766600
6.174300 13.039200
6.190100 12.800200
6.205900 12.954600
6.221700 12.699000
6.237400 12.443400
6.253200 11.683000
6.269000 11.521100
6.284800 11.359200
6.300600 10.721200
6.316400 10.656900
6.332200 10.592700
6.348000 10.528400
6.363800 10.398900
6.379600 10.263500
6.395400 10.128000
6.411200 10.036400
6.427000 10.017500
6.442800 9.938900
6.458600 10.443400
6.474400 9.855700
6.490200 9.848300
6.505900 9.840900
6.521700 9.833500
6.537500 9.832600
6.553300 9.911400
6.569100 10.519000
6.584900 11.330200
6.600700 12.709300
6.616500 12.057400
6.632300 11.558000
6.648100 11.256300
6.663900 11.450400
6.679700 11.644400
6.695500 11.943800
6.711300 9.562300
6.727100 9.410800
6.742900 10.162400
6.758700 10.210500
6.774400 10.258600
6.790200 10.306600
6.806000 10.354700
6.821800 16.756900
6.837600 10.162000
6.853400 9.135600
6.869200 13.206400
6.885000 11.673800
6.900800 10.128100
6.916600 8.582400
6.932400 7.652600
6.948200 8.391400
6.964000 8.038600
6.979800 6.948000
6.995600 6.844900
7.011400 6.741900
7.027100 6.638900
7.042900 6.482600
7.058700 6.240500
7.074500 5.998500
7.090300 5.756500
7.106100 5.514400
7.121900 6.814600
7.137700 5.887300
7.153500 5.631000
7.169300 5.374700
7.185100 5.118400
7.200900 4.862200
7.216700 4.605900
7.232500 4.586400
7.248300 4.801400
7.264100 5.016300
7.279900 5.231300
7.295600 5.452100
7.311400 5.761400
7.327200 6.225700
7.343000 6.716500
7.358800 5.238400
7.374600 5.271100
7.390400 5.303900
7.406200 5.336600
7.422000 5.369300
7.437800 5.402100
7.453600 6.353400
7.469400 9.223600
7.485200 10.395900
7.501000 10.647600
7.516800 11.767700
7.532600 9.719500
7.548300 12.080500
7.564100 11.390900
7.579900 11.357700
7.595700 10.987400
7.611500 11.131100
7.627300 11.862100
7.643100 12.590400
7.658900 13.255800
7.674700 13.921300
7.690500 14.586700
7.706300 14.533100
7.722100 14.183300
7.737900 13.759100
7.753700 17.228200
7.769500 21.052300
7.785300 14.936500
7.801100 13.739400
7.816800 12.681500
7.832600 11.140500
7.848400 9.339700
7.864200 8.812200
7.880000 8.296500
7.895800 7.997100
7.911600 7.387600
7.927400 7.164600
7.943200 6.335300
7.959000 6.296800
7.974800 6.258300
7.990600 6.055200
8.006400 6.278000
8.022200 6.500900
8.038000 6.723800
8.053800 6.946700
8.069500 7.169600
8.085300 7.912000
8.101100 9.024700
8.116900 8.541900
8.132700 9.103900
8.148500 9.747700
8.164300 10.402200
8.180100 10.596700
8.195900 10.521300
8.211700 10.451100
8.227500 10.418700
8.243300 10.395500
8.259100 10.372400
8.274900 7.993200
8.290700 8.210700
8.306500 8.428200
8.322300 8.695400
8.338000 9.007500
8.353800 9.319600
8.369600 12.027000
8.385400 10.111000
8.401200 7.086300
8.417000 8.295700
8.432800 9.871300
8.448600 5.642000
8.464400 6.041400
8.480200 6.440700
8.496000 5.492800
8.511800 5.909300
8.527600 6.325800
8.543400 6.933200
8.559200 7.625800
8.575000 5.684700
8.590700 6.010600
8.606500 5.983200
8.622300 5.955800
8.638100 5.928400
8.653900 6.617300
8.669700 6.493200
8.685500 6.541500
8.701300 9.421500
8.717100 11.170100
8.732900 12.918800
8.748700 14.795400
8.764500 13.419700
8.780300 15.868400
8.796100 18.886600
8.811900 19.133500
8.827700 21.341500
8.843500 19.377800
8.859200 15.212500
8.875000 12.773400
8.890800 10.334400
8.906600 8.135700
8.922400 7.719000
8.938200 7.829300
8.954000 7.984900
8.969800 8.140600
8.985600 8.420400
9.001400 9.293000
9.017200 11.510300
9.033000 12.036000
9.048800 12.561700
9.064600 12.487800
9.080400 13.151900
9.096200 14.165000
9.111900 13.879300
9.127700 13.809400
9.143500 13.882500
9.159300 20.241100
9.175100 20.524200
9.190900 19.848900
9.206700 20.506300
9.222500 19.730600
9.238300 18.032300
9.254100 17.402300
9.269900 16.781000
9.285700 15.346600
9.301500 14.170400
9.317300 13.119300
9.333100 12.292400
9.348900 9.970400
9.364700 10.111400
9.380400 10.252400
9.396200 10.591800
9.412000 13.564500
9.427800 11.826500
9.443600 10.993700
9.459400 9.372500
9.475200 8.849700
9.491000 8.852700
9.506800 8.865900
9.522600 8.879000
9.538400 8.892100
9.554200 8.905300
9.570000 8.737900
9.585800 8.766400
9.601600 9.835700
9.617400 9.716700
9.633200 9.629700
9.648900 9.542800
9.664700 9.455800
9.680500 9.368900
9.696300 9.281900
9.712100 9.195000
9.727900 8.871500
9.743700 7.919600
9.759500 7.949300
9.775300 11.478000
9.791100 10.430100
9.806900 9.430600
9.822700 8.536200
9.838500 8.652700
9.854300 8.655900
9.870100 8.659000
9.885900 8.662100
9.901600 8.665300
9.917400 8.668400
9.933200 8.647500
9.949000 11.129200
9.964800 10.679200
9.980600 10.229300
9.996400 9.779300
10.012200 9.329400
10.028000 8.879400
10.043800 9.100900
10.059600 9.090100
10.075400 12.462900
10.091200 11.678400
10.107000 10.893900
10.122800 10.109500
10.138600 9.328300
10.154400 9.321800
10.170100 9.315400
10.185900 9.308900
10.201700 8.815800
10.217500 9.578100
10.233300 10.562300
10.249100 10.980200
10.264900 18.960100
10.280700 11.742100
10.296500 10.904600
10.312300 10.779700
10.328100 10.720500
10.343900 10.946900
10.359700 10.858500
10.375500 11.453400
10.391300 11.316600
10.407100 11.205000
10.422800 11.093300
10.438600 10.499600
10.454400 10.415600
10.470200 10.331600
10.486000 9.619200
10.501800 9.649000
10.517600 10.765700
10.533400 10.676700
10.549200 11.491600
10.565000 11.285800
10.580800 11.080000
10.596600 10.874200
10.612400 10.668300
10.628200 10.462500
10.644000 15.030000
10.659800 13.202400
10.675600 11.386000
10.691300 9.545600
10.707100 12.296000
10.722900 11.506200
10.738700 10.716300
10.754500 9.926500
10.770300 9.136600
10.786100 8.817300
10.801900 8.102500
10.817700 7.943600
10.833500 8.036200
10.849300 7.782300
10.865100 7.528300
10.880900 7.274300
10.896700 7.018500
10.912500 6.702000
10.928300 6.385500
10.944000 6.181200
10.959800 6.110200
10.975600 6.342200
10.991400 6.712200
11.007200 7.002400
11.023000 6.899200
11.038800 6.796000
11.054600 6.692900
11.070400 6.521300
11.086200 7.574200
11.102000 7.701500
11.117800 7.418400
11.133600 7.135400
11.149400 6.852300
11.165200 9.063800
11.181000 12.671100
11.196800 6.263800
11.212500 5.988400
11.228300 7.455700
11.244100 7.248100
11.259900 7.040500
11.275700 6.832800
11.291500 7.238100
11.307300 7.180100
11.323100 7.122000
11.338900 7.064000
11.354700 7.006000
11.370500 6.947900
11.386300 6.889900
11.402100 6.259200
11.417900 5.615800
11.433700 4.997400
11.449500 4.838200
11.465200 4.780000
11.481000 5.028100
11.496800 5.019200
11.512600 5.010300
11.528400 5.001400
11.544200 4.992400
11.560000 5.532900
11.575800 6.736900
11.591600 7.941000
11.607400 7.894600
11.623200 7.778100
11.639000 6.444800
11.654800 6.314400
11.670600 6.184100
11.686400 6.053800
11.702200 5.923400
11.718000 5.793100
11.733700 5.662800
11.749500 5.532400
11.765300 5.769900
11.781100 6.554600
11.796900 7.878800
11.812700 9.203000
11.828500 10.527200
11.844300 20.203300
11.860100 9.854700
11.875900 12.219900
11.891700 6.218500
11.907500 5.312200
11.923300 5.239500
11.939100 5.166700
11.954900 5.094000
11.970700 5.021200
11.986400 8.202000
12.002200 11.616000
12.018000 6.606600
12.033800 6.484600
12.049600 6.362700
12.065400 6.240700
12.081200 6.118700
12.097000 5.996800
12.112800 5.874800
12.128600 5.752900
12.144400 5.630900
12.160200 5.648300
12.176000 5.792500
12.191800 5.948200
12.207600 8.083800
12.223400 10.031000
12.239200 11.978300
12.254900 9.251500
12.270700 7.530000
12.286500 13.811100
12.302300 10.914600
12.318100 6.316500
12.333900 6.597500
12.349700 6.886400
12.365500 8.240500
12.381300 9.373300
12.397100 10.506100
12.412900 11.639000
12.428700 12.771800
12.444500 8.093700
12.460300 7.947900
12.476100 7.802000
12.491900 7.656200
12.507700 7.510400
12.523400 7.394100
12.539200 7.281300
12.555000 7.168500
12.570800 7.055700
12.586600 6.942900
12.602400 6.830100
12.618200 7.989200
12.634000 7.838400
12.649800 7.687600
12.665600 7.536800
12.681400 7.386000
12.697200 7.270000
12.713000 7.874400
12.728800 8.057200
12.744600 8.239900
12.760400 8.444200
12.776100 9.813400
12.791900 10.124700
12.807700 10.474900
12.823500 10.825100
12.839300 11.175300
12.855100 9.542600
12.870900 9.934800
12.886700 10.333600
12.902500 10.732300
12.918300 9.101700
12.934100 9.494700
12.949900 9.881900
12.965700 9.834300
12.981500 9.786700
12.997300 11.410200
13.013100 12.391800
13.028900 13.373400
13.044600 12.821400
13.060400 13.806400
13.076200 11.219800
13.092000 10.948600
13.107800 10.677400
13.123600 10.747900
13.139400 14.387800
13.155200 9.373500
13.171000 9.184600
13.186800 9.176700
13.202600 9.662500
13.218400 19.420600
13.234200 9.483500
13.250000 9.789400
13.265800 7.293700
13.281600 5.960300
13.297300 6.080300
13.313100 6.200300
13.328900 6.674500
13.344700 6.909200
13.360500 5.825900
13.376300 4.365900
13.392100 4.490100
13.407900 4.614400
13.423700 4.793200
13.439500 5.021300
13.455300 5.249500
13.471100 5.477600
13.486900 5.718300
13.502700 5.961800
13.518500 6.207800
13.534300 11.110800
13.550100 8.773400
13.565800 8.134400
13.581600 7.495400
13.597400 15.424200
13.613200 9.977200
13.629000 8.070800
13.644800 6.547400
13.660600 5.373500
13.676400 4.243500
13.692200 4.238800
13.708000 4.267700
13.723800 4.315800
13.739600 4.363800
13.755400 4.411900
13.771200 4.466400
13.787000 4.815500
13.802800 5.878700
13.818500 6.542900
13.834300 7.226200
13.850100 4.437300
13.865900 4.561500
13.881700 4.685600
13.897500 4.809800
13.913300 4.948600
13.929100 5.211500
13.944900 5.474300
13.960700 5.737200
13.976500 6.000000
13.992300 6.262900
14.008100 6.525700
14.023900 6.788600
14.039700 7.051400
14.055500 5.380900
14.071300 5.531500
14.087000 5.682200
14.102800 6.338000
14.118600 6.318500
14.134400 6.299100
14.150200 6.279600
14.166000 6.260200
14.181800 6.240700
14.197600 6.221300
14.213400 7.056800
14.229200 7.058200
14.245000 6.369000
14.260800 6.379900
14.276600 6.401300
14.292400 8.622300
14.308200 9.118900
14.324000 9.133300
14.339700 9.217200
14.355500 11.610900
14.371300 11.196600
14.387100 11.211500
14.402900 11.198100
14.418700 11.071400
14.434500 12.741500
14.450300 12.035600
14.466100 11.329700
14.481900 20.721800
14.497700 13.090600
14.513500 12.216500
14.529300 11.342300
14.545100 10.676100
14.560900 10.415900
14.576700 9.615200
14.592500 9.590600
14.608200 10.195000
14.624000 10.241200
14.639800 10.278700
14.655600 10.485400
14.671400 10.671800
14.687200 10.794800
14.703000 10.917700
14.718800 10.335500
14.734600 10.575900
14.750400 10.661300
14.766200 9.532100
14.782000 8.187000
14.797800 8.512300
14.813600 8.837600
14.829400 9.162900
14.845200 9.488200
14.860900 9.813500
14.876700 10.118100
14.892500 10.573900
14.908300 11.018700
14.924100 11.395300
14.939900 15.972400
14.955700 21.419800
14.971500 20.520000
14.987300 17.747300
15.003100 14.974700
15.018900 13.533400
15.034700 13.793500
15.050500 14.068300
15.066300 15.139700
15.082100 12.495600
15.097900 10.616700
15.113700 10.846500
15.129400 11.076300
15.145200 11.306100
15.161000 11.277200
15.176800 12.667300
15.192600 13.061700
15.208400 13.456200
15.224200 13.850600
15.240000 14.245000
15.255800 13.778200
15.271600 12.633900
15.287400 9.757000
15.303200 10.010600
15.319000 10.826300
15.334800 12.911200
15.350600 14.463300
15.366400 15.510900
15.382200 9.728200
15.397900 9.592200
15.413700 9.872800
15.429500 10.578500
15.445300 11.826600
15.461100 12.704500
15.476900 13.582400
15.492700 14.460200
15.508500 11.716000
15.524300 9.430300
15.540100 7.276300
15.555900 6.603800
15.571700 6.917500
15.587500 7.092800
15.603300 7.268100
15.619100 7.443300
15.634900 7.618600
15.650600 7.793900
15.666400 7.969200
15.682200 10.071400
15.698000 10.829600
15.713800 11.587800
15.729600 12.347800
15.745400 13.700300
15.761200 16.415900
15.777000 7.865800
15.792800 8.321200
15.808600 8.801000
15.824400 9.280800
15.840200 10.498900
15.856000 7.701300
15.871800 7.677500
15.887600 7.568200
15.903400 7.471400
15.919100 7.374500
15.934900 7.344300
15.950700 7.324700
15.966500 7.328000
15.982300 7.443600
15.998100 7.558800
16.013900 5.773800
16.029700 5.772900
16.045500 5.960700
16.061300 6.148500
16.077100 6.336300
16.092900 6.524200
16.108700 6.712000
16.124500 6.899800
16.140300 7.087600
16.156100 7.275400
16.171800 7.463200
16.187600 7.272900
16.203400 7.027600
16.219200 5.909100
16.235000 5.516700
16.250800 5.124300
16.266600 4.731900
16.282400 4.339400
16.298200 7.013400
16.314000 6.801400
16.329800 7.102900
16.345600 7.729500
16.361400 8.356100
16.377200 8.936600
16.393000 9.403500
16.408800 9.870300
16.424600 10.337200
16.440300 10.804100
16.456100 11.271000
16.471900 5.433300
16.487700 4.906100
16.503500 5.600300
16.519300 6.294400
16.535100 6.988600
16.550900 7.297800
16.566700 8.008000
16.582500 8.718200
16.598300 9.428400
16.614100 10.138600
16.629900 6.781200
16.645700 6.763800
16.661500 7.076400
16.677300 7.454900
16.693000 7.886100
16.708800 8.317300
16.724600 8.766000
16.740400 9.252100
16.756200 13.891700
16.772000 10.384500
16.787800 10.630400
16.803600 9.706300
16.819400 7.433400
16.835200 7.282900
16.851000 7.258000
16.866800 7.444600
16.882600 7.659200
16.898400 7.873800
16.914200 8.088400
16.930000 8.303000
16.945800 8.517600
16.961500 8.732200
16.977300 8.946800
16.993100 8.289300
17.008900 6.993600
17.024700 6.235900
17.040500 5.973600
17.056300 5.711400
17.072100 5.449100
17.087900 4.930600
17.103700 4.693100
17.119500 4.455500
17.135300 4.218000
17.151100 3.980400
17.166900 6.974300
17.182700 3.213200
17.198500 3.036500
17.214200 2.896000
17.230000 2.772400
17.245800 2.648800
17.261600 3.814300
17.277400 2.981700
17.293200 2.149100
17.309000 1.894500
17.324800 4.643700
17.340600 1.356700
17.356400 1.279800
17.372200 1.202800
17.388000 1.125900
17.403800 1.049000
17.419600 0.972100
17.435400 0.895200
17.451200 0.826700
17.467000 1.033800
17.482700 1.240900
17.498500 1.448000
17.514300 0.806900
17.530100 0.182000
17.545900 0.137000
17.561700 0.091900
17.577500 0.046900
17.593300 0.015100
17.609100 0.001300
17.624900 0.000000
17.640700 0.000000
17.656500 0.000000
17.672300 0.000000
17.688100 0.000000
17.703900 0.000000
17.719700 0.000000
17.735400 0.000000
17.751200 0.000000
17.767000 0.000000
17.782800 0.000000
17.798600 0.000000
17.814400 0.000000
17.830200 0.000000
17.846000 0.000000
17.861800 0.000000
17.877600 0.000000
17.893400 0.000000
17.909200 0.000000
17.925000 0.000000
17.940800 0.000000
17.956600 0.000000
17.972400 0.000000
17.988200 0.000000
18.003900 0.000000
18.019700 0.000000
18.035500 0.000000
18.051300 0.000000
18.067100 0.000000
18.082900 0.000000
18.098700 0.000000
18.114500 0.000000
18.130300 0.000000
18.146100 0.000000
18.161900 0.000000
18.177700 0.000000
18.193500 0.000000
18.209300 0.000000
18.225100 0.000000
18.240900 0.000000
18.256700 0.000000
18.272400 0.000000
18.288200 0.000000
18.304000 0.000000
18.319800 0.000000
18.335600 0.000000
18.351400 0.000000
18.367200 0.000000
18.383000 0.000000
18.398800 0.000000
18.414600 0.000000
18.430400 0.000000
18.446200 0.000000
18.462000 0.000000
18.477800 0.000000
18.493600 0.000000
18.509400 0.000000
18.525100 0.000000
18.540900 0.000000
18.556700 0.000000
18.572500 0.000000
18.588300 0.000000
18.604100 0.000000
18.619900 0.000000
18.635700 0.000000
18.651500 0.000000
18.667300 0.000000
18.683100 0.000000
18.698900 0.000000
18.714700 0.000000
18.730500 0.000000
18.746300 0.000000
18.762100 0.000000
18.777900 0.000000
18.793600 0.000000
18.809400 0.000000
18.825200 0.000000
18.841000 0.000000
18.856800 0.000000
18.872600 0.000000
18.888400 0.000000
18.904200 0.000000
18.920000 0.000000
18.935800 0.000000
18.951600 0.000000
18.967400 0.000000
18.983200 0.000000
18.999000 0.000000
19.014800 0.000000
19.030600 0.000000
19.046300 0.000000
e
