set title 'mp-605790 - Density of States'
set xlabel 'Energy (eV)'
set ylabel 'DOS (states/eV)'
set grid
set xrange [-10:10]
set yrange [0:6.488]
set xzeroaxis lt -1
set terminal png size 800,600
set output 'mp-605790_dos_gnuplot.png'
plot '-' using 1:2 with lines title 'DOS'
-31.886400 0.000000
-31.836700 0.000000
-31.787100 0.000000
-31.737500 0.000000
-31.687900 0.000000
-31.638300 0.000000
-31.588600 0.000000
-31.539000 0.000000
-31.489400 0.000000
-31.439800 0.000000
-31.390100 0.000000
-31.340500 0.000000
-31.290900 0.000000
-31.241300 0.000000
-31.191700 0.000000
-31.142000 0.000000
-31.092400 0.000000
-31.042800 0.000000
-30.993200 0.000000
-30.943600 0.000000
-30.893900 0.000000
-30.844300 0.000000
-30.794700 0.000000
-30.745100 0.000000
-30.695400 0.000000
-30.645800 0.000000
-30.596200 0.000000
-30.546600 0.000000
-30.497000 0.000000
-30.447300 0.000000
-30.397700 0.000000
-30.348100 0.000000
-30.298500 0.000000
-30.248800 0.000000
-30.199200 0.000000
-30.149600 0.000000
-30.100000 0.000000
-30.050400 0.000000
-30.000700 0.000000
-29.951100 0.000000
-29.901500 0.000000
-29.851900 0.000000
-29.802300 0.000000
-29.752600 0.000000
-29.703000 0.000000
-29.653400 0.000000
-29.603800 0.000000
-29.554100 0.000000
-29.504500 0.000000
-29.454900 0.000000
-29.405300 0.000000
-29.355700 0.000000
-29.306000 0.000000
-29.256400 0.000000
-29.206800 0.000000
-29.157200 0.000000
-29.107500 0.000000
-29.057900 0.000000
-29.008300 0.000000
-28.958700 0.000000
-28.909100 0.000000
-28.859400 0.000000
-28.809800 0.000000
-28.760200 0.000000
-28.710600 0.000000
-28.661000 0.000000
-28.611300 0.000000
-28.561700 0.000000
-28.512100 0.000000
-28.462500 0.000000
-28.412800 0.000000
-28.363200 0.000000
-28.313600 0.000000
-28.264000 0.000000
-28.214400 0.000000
-28.164700 0.000000
-28.115100 0.000000
-28.065500 0.000000
-28.015900 0.000000
-27.966200 0.000000
-27.916600 0.000000
-27.867000 0.000000
-27.817400 0.000000
-27.767800 0.000000
-27.718100 0.000000
-27.668500 0.000000
-27.618900 0.000000
-27.569300 0.000000
-27.519700 0.000000
-27.470000 0.000000
-27.420400 0.000000
-27.370800 2.898300
-27.321200 31.188200
-27.271500 0.787900
-27.221900 0.000000
-27.172300 0.000000
-27.122700 0.000000
-27.073100 0.000000
-27.023400 0.000000
-26.973800 0.000000
-26.924200 0.000000
-26.874600 0.000000
-26.825000 0.000000
-26.775300 0.000000
-26.725700 0.000000
-26.676100 0.000000
-26.626500 0.000000
-26.576800 0.000000
-26.527200 0.000000
-26.477600 0.000000
-26.428000 0.000000
-26.378400 0.000000
-26.328700 0.000000
-26.279100 0.000000
-26.229500 0.000000
-26.179900 0.000000
-26.130200 0.000000
-26.080600 0.000000
-26.031000 0.000000
-25.981400 0.000000
-25.931800 0.000000
-25.882100 0.000000
-25.832500 0.000000
-25.782900 0.000000
-25.733300 0.000000
-25.683700 0.000000
-25.634000 0.000000
-25.584400 0.000000
-25.534800 0.000000
-25.485200 0.000000
-25.435500 0.000000
-25.385900 0.000000
-25.336300 0.000000
-25.286700 0.000000
-25.237100 0.000000
-25.187400 0.000000
-25.137800 0.000000
-25.088200 0.000000
-25.038600 0.000000
-24.988900 0.000000
-24.939300 0.000000
-24.889700 0.000000
-24.840100 0.000000
-24.790500 0.000000
-24.740800 0.000000
-24.691200 0.000000
-24.641600 0.000000
-24.592000 0.000000
-24.542400 0.000000
-24.492700 0.000000
-24.443100 0.000000
-24.393500 0.000000
-24.343900 0.000000
-24.294200 0.000000
-24.244600 0.000000
-24.195000 0.000000
-24.145400 0.000000
-24.095800 0.000000
-24.046100 0.000000
-23.996500 0.000000
-23.946900 0.000000
-23.897300 0.000000
-23.847600 0.000000
-23.798000 0.000000
-23.748400 0.000000
-23.698800 0.000000
-23.649200 0.000000
-23.599500 0.000000
-23.549900 0.000000
-23.500300 0.000000
-23.450700 0.000000
-23.401100 0.000000
-23.351400 0.000000
-23.301800 0.000000
-23.252200 0.000000
-23.202600 0.000000
-23.152900 0.000000
-23.103300 0.000000
-23.053700 0.000000
-23.004100 0.000000
-22.954500 0.000000
-22.904800 0.000000
-22.855200 0.000000
-22.805600 0.000000
-22.756000 0.000000
-22.706300 0.000000
-22.656700 0.000000
-22.607100 0.000000
-22.557500 0.000000
-22.507900 0.000000
-22.458200 0.000000
-22.408600 0.000000
-22.359000 0.000000
-22.309400 0.000000
-22.259800 0.000000
-22.210100 0.000000
-22.160500 0.000000
-22.110900 0.000000
-22.061300 0.000000
-22.011600 0.000000
-21.962000 0.000000
-21.912400 0.000000
-21.862800 0.000000
-21.813200 0.000000
-21.763500 0.000000
-21.713900 0.000000
-21.664300 0.000000
-21.614700 0.000000
-21.565000 0.000000
-21.515400 0.000000
-21.465800 0.000000
-21.416200 0.000000
-21.366600 0.000000
-21.316900 0.000000
-21.267300 0.000000
-21.217700 0.000000
-21.168100 0.000000
-21.118500 0.000000
-21.068800 0.000000
-21.019200 0.000000
-20.969600 0.000000
-20.920000 0.000000
-20.870300 0.000000
-20.820700 0.000000
-20.771100 0.000000
-20.721500 0.000000
-20.671900 0.000000
-20.622200 0.000000
-20.572600 0.000000
-20.523000 0.000000
-20.473400 0.000000
-20.423800 0.000000
-20.374100 0.000000
-20.324500 0.000000
-20.274900 0.000000
-20.225300 0.000000
-20.175600 0.000000
-20.126000 0.000000
-20.076400 0.000000
-20.026800 0.000000
-19.977200 0.000000
-19.927500 0.000000
-19.877900 0.000000
-19.828300 0.000000
-19.778700 0.000000
-19.729000 0.000000
-19.679400 0.000000
-19.629800 0.000000
-19.580200 0.000000
-19.530600 0.000000
-19.480900 0.000000
-19.431300 0.000000
-19.381700 0.000000
-19.332100 0.000000
-19.282500 0.000000
-19.232800 0.000000
-19.183200 0.000000
-19.133600 0.000000
-19.084000 0.000000
-19.034300 0.000000
-18.984700 0.000000
-18.935100 0.000000
-18.885500 0.000000
-18.835900 0.000000
-18.786200 0.000000
-18.736600 0.000000
-18.687000 0.000000
-18.637400 0.000000
-18.587700 0.000000
-18.538100 0.000000
-18.488500 0.000000
-18.438900 0.000000
-18.389300 0.000000
-18.339600 0.000000
-18.290000 0.000000
-18.240400 0.000000
-18.190800 0.000000
-18.141200 0.000000
-18.091500 0.000000
-18.041900 0.000000
-17.992300 0.000000
-17.942700 0.000000
-17.893000 0.000000
-17.843400 0.000000
-17.793800 0.000000
-17.744200 0.000000
-17.694600 0.000000
-17.644900 0.000000
-17.595300 0.000000
-17.545700 0.000000
-17.496100 0.000000
-17.446400 0.000000
-17.396800 0.000000
-17.347200 0.000000
-17.297600 0.000000
-17.248000 0.000000
-17.198300 0.000000
-17.148700 0.000000
-17.099100 0.000000
-17.049500 0.000000
-16.999900 0.000000
-16.950200 0.000000
-16.900600 0.000000
-16.851000 0.000000
-16.801400 0.000000
-16.751700 0.000000
-16.702100 0.000000
-16.652500 0.000000
-16.602900 0.000000
-16.553300 0.000000
-16.503600 0.000000
-16.454000 0.000000
-16.404400 0.000000
-16.354800 0.000000
-16.305100 0.000000
-16.255500 0.000000
-16.205900 0.000000
-16.156300 0.000000
-16.106700 0.000000
-16.057000 0.000000
-16.007400 0.000000
-15.957800 0.000000
-15.908200 0.000000
-15.858600 0.000000
-15.808900 0.000000
-15.759300 0.000000
-15.709700 0.000000
-15.660100 0.000000
-15.610400 0.000000
-15.560800 0.000000
-15.511200 0.000000
-15.461600 0.000000
-15.412000 0.000000
-15.362300 0.000000
-15.312700 0.000000
-15.263100 0.000000
-15.213500 0.000000
-15.163900 0.000000
-15.114200 0.000000
-15.064600 0.000000
-15.015000 0.000000
-14.965400 0.000000
-14.915700 0.000000
-14.866100 0.000000
-14.816500 0.000000
-14.766900 0.000000
-14.717300 0.000000
-14.667600 0.000000
-14.618000 0.000000
-14.568400 0.000000
-14.518800 0.000000
-14.469100 0.000000
-14.419500 0.000000
-14.369900 0.000000
-14.320300 0.000000
-14.270700 0.000000
-14.221000 0.000000
-14.171400 0.000000
-14.121800 0.000000
-14.072200 0.000000
-14.022600 0.000000
-13.972900 0.000000
-13.923300 0.000000
-13.873700 0.000000
-13.824100 0.000000
-13.774400 0.000000
-13.724800 0.000000
-13.675200 0.000000
-13.625600 0.000000
-13.576000 0.000000
-13.526300 0.000000
-13.476700 0.000000
-13.427100 0.000000
-13.377500 0.000000
-13.327800 0.000000
-13.278200 0.000000
-13.228600 0.000000
-13.179000 0.000000
-13.129400 0.000000
-13.079700 0.000000
-13.030100 0.000000
-12.980500 0.000000
-12.930900 1.444000
-12.881300 4.839100
-12.831600 8.358300
-12.782000 12.466100
-12.732400 9.050200
-12.682800 7.652000
-12.633100 6.579800
-12.583500 7.553600
-12.533900 10.701700
-12.484300 12.211400
-12.434700 16.435900
-12.385000 10.610700
-12.335400 6.324300
-12.285800 5.992100
-12.236200 0.000000
-12.186500 0.000000
-12.136900 0.000000
-12.087300 0.000000
-12.037700 0.000000
-11.988100 0.000000
-11.938400 0.000000
-11.888800 0.000000
-11.839200 0.000000
-11.789600 0.000000
-11.740000 0.000000
-11.690300 0.000000
-11.640700 0.000000
-11.591100 0.000000
-11.541500 0.000000
-11.491800 0.000000
-11.442200 0.000000
-11.392600 0.000000
-11.343000 0.000000
-11.293400 0.000000
-11.243700 0.000000
-11.194100 0.000000
-11.144500 0.000000
-11.094900 0.000000
-11.045200 0.000000
-10.995600 0.000000
-10.946000 0.000000
-10.896400 0.000000
-10.846800 0.000000
-10.797100 0.000000
-10.747500 0.000000
-10.697900 0.000000
-10.648300 0.000000
-10.598700 0.000000
-10.549000 0.000000
-10.499400 0.000000
-10.449800 0.000000
-10.400200 0.000000
-10.350500 0.000000
-10.300900 0.000000
-10.251300 0.000000
-10.201700 0.000000
-10.152100 0.000000
-10.102400 0.000000
-10.052800 0.000000
-10.003200 0.000000
-9.953600 0.000000
-9.903900 0.000000
-9.854300 0.000000
-9.804700 0.000000
-9.755100 0.000000
-9.705500 0.000000
-9.655800 0.000000
-9.606200 0.000000
-9.556600 0.000000
-9.507000 0.000000
-9.457400 0.000000
-9.407700 0.000000
-9.358100 0.000000
-9.308500 0.000000
-9.258900 0.000000
-9.209200 0.000000
-9.159600 0.000000
-9.110000 0.000000
-9.060400 0.000000
-9.010800 0.000000
-8.961100 0.000000
-8.911500 0.000000
-8.861900 0.000000
-8.812300 0.000000
-8.762700 0.000000
-8.713000 0.000000
-8.663400 0.000000
-8.613800 0.000000
-8.564200 0.000000
-8.514500 0.000000
-8.464900 0.000000
-8.415300 0.000000
-8.365700 0.000000
-8.316100 0.000000
-8.266400 0.000000
-8.216800 0.000000
-8.167200 0.000000
-8.117600 0.000000
-8.067900 0.000000
-8.018300 0.000000
-7.968700 0.000000
-7.919100 0.000000
-7.869500 0.000000
-7.819800 0.000000
-7.770200 0.000000
-7.720600 0.000000
-7.671000 0.000000
-7.621400 0.000000
-7.571700 0.000000
-7.522100 0.000000
-7.472500 0.000000
-7.422900 0.000000
-7.373200 0.000000
-7.323600 0.000000
-7.274000 0.000000
-7.224400 0.000000
-7.174800 0.000000
-7.125100 0.000000
-7.075500 0.000000
-7.025900 0.000000
-6.976300 0.000000
-6.926600 0.000000
-6.877000 0.000000
-6.827400 0.000000
-6.777800 0.000000
-6.728200 0.000000
-6.678500 0.000000
-6.628900 0.000000
-6.579300 0.000000
-6.529700 0.000000
-6.480100 0.000000
-6.430400 0.000000
-6.380800 0.000000
-6.331200 0.000000
-6.281600 0.000000
-6.231900 0.000000
-6.182300 0.000000
-6.132700 0.000000
-6.083100 0.000000
-6.033500 0.000000
-5.983800 0.000000
-5.934200 0.000000
-5.884600 0.000000
-5.835000 0.000000
-5.785300 0.000000
-5.735700 0.000000
-5.686100 0.000000
-5.636500 0.000000
-5.586900 0.000000
-5.537200 0.000000
-5.487600 0.000000
-5.438000 0.000000
-5.388400 0.000000
-5.338800 0.000000
-5.289100 0.000000
-5.239500 0.000000
-5.189900 0.000000
-5.140300 0.000000
-5.090600 0.000000
-5.041000 0.000000
-4.991400 0.000000
-4.941800 0.000000
-4.892200 0.000000
-4.842500 0.000000
-4.792900 0.000000
-4.743300 0.000000
-4.693700 0.000000
-4.644000 0.000000
-4.594400 0.000000
-4.544800 0.000000
-4.495200 0.000000
-4.445600 0.000000
-4.395900 0.000000
-4.346300 0.000000
-4.296700 0.000000
-4.247100 0.000000
-4.197500 0.000000
-4.147800 0.000000
-4.098200 0.000000
-4.048600 0.000000
-3.999000 0.000000
-3.949300 0.000000
-3.899700 0.000000
-3.850100 0.000000
-3.800500 0.000000
-3.750900 0.000000
-3.701200 0.000000
-3.651600 0.000000
-3.602000 0.000000
-3.552400 0.000000
-3.502800 0.000000
-3.453100 0.000000
-3.403500 0.000000
-3.353900 0.000000
-3.304300 0.000000
-3.254600 0.000000
-3.205000 0.000000
-3.155400 0.000000
-3.105800 0.000000
-3.056200 0.000000
-3.006500 0.000000
-2.956900 0.000000
-2.907300 0.000000
-2.857700 0.000000
-2.808000 0.000000
-2.758400 0.000000
-2.708800 0.000000
-2.659200 0.000000
-2.609600 0.000000
-2.559900 0.000000
-2.510300 0.000000
-2.460700 0.000000
-2.411100 0.000000
-2.361500 0.000000
-2.311800 0.000000
-2.262200 0.000000
-2.212600 0.000000
-2.163000 0.000000
-2.113300 0.000000
-2.063700 0.000000
-2.014100 0.000000
-1.964500 0.000000
-1.914900 0.000000
-1.865200 0.000000
-1.815600 0.000000
-1.766000 0.000000
-1.716400 0.000000
-1.666700 0.000000
-1.617100 0.000000
-1.567500 0.000000
-1.517900 0.000000
-1.468300 0.000000
-1.418600 0.000000
-1.369000 0.000000
-1.319400 0.000000
-1.269800 0.000000
-1.220200 0.000000
-1.170500 0.000000
-1.120900 0.000000
-1.071300 0.000000
-1.021700 0.001200
-0.972000 0.021900
-0.922400 0.065600
-0.872800 0.084900
-0.823200 0.090300
-0.773600 0.107500
-0.723900 0.125600
-0.674300 0.143400
-0.624700 0.155900
-0.575100 0.164900
-0.525400 0.175900
-0.475800 0.189100
-0.426200 0.202800
-0.376600 0.216800
-0.327000 0.231000
-0.277300 0.245300
-0.227700 0.258300
-0.178100 0.271600
-0.128500 0.285700
-0.078900 0.300200
-0.029200 0.315700
0.020400 0.333100
0.070000 0.351700
0.119600 0.370800
0.169300 0.390400
0.218900 0.410400
0.268500 0.431100
0.318100 0.455000
0.367700 0.483400
0.417400 0.515100
0.467000 0.550800
0.516600 0.590900
0.566200 0.634500
0.615900 0.679300
0.665500 0.754300
0.715100 0.911100
0.764700 1.035900
0.814300 1.101400
0.864000 1.128000
0.913600 1.491900
0.963200 1.612500
1.012800 1.925600
1.062400 2.449400
1.112100 2.999100
1.161700 3.488800
1.211300 2.532100
1.260900 2.047400
1.310600 1.492800
1.360200 1.219000
1.409800 0.808400
1.459400 0.713700
1.509000 0.662900
1.558700 0.656700
1.608300 0.696900
1.657900 0.776700
1.707500 0.868900
1.757200 0.990000
1.806800 1.228600
1.856400 1.889600
1.906000 2.257700
1.955600 3.597200
2.005300 5.752000
2.054900 5.898600
2.104500 3.865300
2.154100 3.122200
2.203700 2.374200
2.253400 1.932100
2.303000 1.694100
2.352600 1.716700
2.402200 1.776700
2.451900 1.911100
2.501500 2.222200
2.551100 2.748000
2.600700 1.749400
2.650300 1.886900
2.700000 1.314400
2.749600 1.283800
2.799200 1.310200
2.848800 1.338300
2.898400 1.531000
2.948100 1.631200
2.997700 1.829200
3.047300 1.815900
3.096900 1.827200
3.146600 1.838200
3.196200 1.922900
3.245800 2.165200
3.295400 2.131100
3.345000 2.009000
3.394700 2.192800
3.444300 1.803900
3.493900 1.500000
3.543500 1.557400
3.593200 1.654700
3.642800 1.785200
3.692400 1.957600
3.742000 1.731500
3.791600 1.769800
3.841300 1.903400
3.890900 2.103800
3.940500 2.263000
3.990100 2.418800
4.039700 2.647500
4.089400 3.025200
4.139000 2.726500
4.188600 2.125000
4.238200 2.017500
4.287900 2.346000
4.337500 2.747200
4.387100 2.890200
4.436700 3.347900
4.486300 3.828800
4.536000 3.157000
4.585600 2.734300
4.635200 2.388200
4.684800 2.657200
4.734500 2.377000
4.784100 2.051800
4.833700 1.913000
4.883300 1.808600
4.932900 1.874700
4.982600 2.139300
5.032200 2.187900
5.081800 2.043100
5.131400 1.816600
5.181000 1.774100
5.230700 1.748300
5.280300 1.708400
5.329900 1.668800
5.379500 1.556400
5.429200 1.542600
5.478800 1.381300
5.528400 1.271400
5.578000 1.219600
5.627600 1.159200
5.677300 1.195400
5.726900 1.281700
5.776500 1.340500
5.826100 1.375100
5.875800 1.403200
5.925400 1.367200
5.975000 1.334200
6.024600 1.317400
6.074200 1.249700
6.123900 1.243300
6.173500 1.217200
6.223100 1.163200
6.272700 1.075800
6.322300 1.057900
6.372000 1.057900
6.421600 1.177900
6.471200 0.904100
6.520800 0.896000
6.570500 0.869900
6.620100 0.869800
6.669700 0.858700
6.719300 0.859500
6.768900 0.889200
6.818600 1.038200
6.868200 1.039700
6.917800 1.072600
6.967400 1.131200
7.017100 1.140100
7.066700 1.038500
7.116300 0.752600
7.165900 0.530100
7.215500 0.383800
7.265200 0.480000
7.314800 0.662800
7.364400 0.788800
7.414000 0.956100
7.463600 1.108500
7.513300 1.285500
7.562900 1.396200
7.612500 1.442100
7.662100 1.476700
7.711800 1.433800
7.761400 1.434600
7.811000 1.474500
7.860600 1.523900
7.910200 1.627400
7.959900 1.714000
8.009500 1.766900
8.059100 1.790200
8.108700 1.782100
8.158300 1.754900
8.208000 1.733600
8.257600 1.680900
8.307200 1.854200
8.356800 1.220300
8.406500 1.067400
8.456100 1.042100
8.505700 1.024500
8.555300 1.009800
8.604900 0.977400
8.654600 1.149400
8.704200 1.359500
8.753800 1.483900
8.803400 1.750100
8.853100 2.104600
8.902700 2.208300
8.952300 2.305700
9.001900 2.397500
9.051500 2.607700
9.101200 2.685200
9.150800 2.391800
9.200400 2.182700
9.250000 2.057500
9.299600 1.952300
9.349300 1.733200
9.398900 1.523000
9.448500 1.188100
9.498100 1.211600
9.547800 1.317000
9.597400 1.364800
9.647000 1.349600
9.696600 0.892600
9.746200 0.790900
9.795900 1.015700
9.845500 0.859800
9.895100 0.794300
9.944700 0.816100
9.994400 1.013600
10.044000 1.298700
10.093600 1.534400
10.143200 1.791800
10.192800 2.060700
10.242500 2.166700
10.292100 2.200200
10.341700 2.219600
10.391300 2.397000
10.440900 2.479000
10.490600 2.431600
10.540200 2.319400
10.589800 2.169900
10.639400 2.074300
10.689100 1.987200
10.738700 1.843300
10.788300 1.673900
10.837900 1.631900
10.887500 1.722400
10.937200 1.931800
10.986800 2.050200
11.036400 2.381400
11.086000 2.456000
11.135700 2.345900
11.185300 2.220200
11.234900 2.123000
11.284500 1.988600
11.334100 1.951200
11.383800 1.889100
11.433400 1.863000
11.483000 1.816700
11.532600 1.753700
11.582200 1.675300
11.631900 1.782400
11.681500 1.821800
11.731100 1.755800
11.780700 1.754700
11.830400 1.751000
11.880000 1.757700
11.929600 1.709100
11.979200 1.557600
12.028800 1.548300
12.078500 1.419800
12.128100 1.457200
12.177700 1.495700
12.227300 1.521700
12.277000 1.576700
12.326600 1.680700
12.376200 1.773500
12.425800 1.843400
12.475400 1.837700
12.525100 1.731300
12.574700 1.723400
12.624300 1.629200
12.673900 1.600100
12.723500 1.567800
12.773200 1.546900
12.822800 1.546900
12.872400 1.539400
12.922000 1.533000
12.971700 1.414100
13.021300 1.365000
13.070900 1.325700
13.120500 1.341500
13.170100 1.481600
13.219800 1.552100
13.269400 1.470900
13.319000 1.558400
13.368600 1.819200
13.418300 1.896200
13.467900 1.927200
13.517500 1.937500
13.567100 1.924000
13.616700 1.905500
13.666400 1.847700
13.716000 1.783500
13.765600 1.772900
13.815200 1.805300
13.864800 1.769900
13.914500 1.731000
13.964100 1.733700
14.013700 1.716600
14.063300 1.687200
14.113000 1.658800
14.162600 1.582100
14.212200 1.542700
14.261800 1.562700
14.311400 1.603800
14.361100 1.614600
14.410700 1.722600
14.460300 1.836200
14.509900 1.942400
14.559500 2.076600
14.609200 2.078500
14.658800 1.976300
14.708400 1.819500
14.758000 1.935000
14.807700 2.032800
14.857300 2.250500
14.906900 2.543200
14.956500 2.440400
15.006100 1.873900
15.055800 1.595000
15.105400 1.472900
15.155000 1.354100
15.204600 1.276200
15.254300 1.283500
15.303900 1.376700
15.353500 1.422900
15.403100 1.448900
15.452700 1.547800
15.502400 1.723200
15.552000 1.923300
15.601600 2.045400
15.651200 2.104900
15.700800 2.075000
15.750500 1.933800
15.800100 1.842500
15.849700 1.779300
15.899300 1.763800
15.949000 1.765900
15.998600 1.802300
16.048200 1.871900
16.097800 1.993500
16.147400 2.061000
16.197100 2.086000
16.246700 2.042200
16.296300 2.122800
16.345900 2.289300
16.395600 2.401700
16.445200 2.476300
16.494800 2.491200
16.544400 2.514300
16.594000 2.579500
16.643700 2.383500
16.693300 2.469900
16.742900 2.689200
16.792500 2.880000
16.842100 2.684800
16.891800 2.752400
16.941400 2.832300
16.991000 2.840000
17.040600 2.616200
17.090300 2.047000
17.139900 1.826900
17.189500 1.729200
17.239100 1.628800
17.288700 1.537900
17.338400 1.582400
17.388000 1.422000
17.437600 1.416000
17.487200 1.586600
17.536900 1.445400
17.586500 1.545000
17.636100 1.707600
17.685700 1.920800
17.735300 2.151800
17.785000 2.436900
17.834600 2.599800
17.884200 2.666400
17.933800 2.629100
17.983400 2.477200
18.033100 2.338300
18.082700 2.245900
18.132300 2.224000
18.181900 2.144100
18.231600 2.073800
18.281200 2.024900
18.330800 1.930100
18.380400 2.029700
18.430000 2.115100
18.479700 2.129200
18.529300 2.254000
18.578900 2.388900
18.628500 2.430900
18.678200 2.315300
18.727800 2.222700
18.777400 2.175400
18.827000 2.146800
18.876600 2.152800
18.926300 2.091800
18.975900 1.987900
19.025500 1.996400
19.075100 1.869100
19.124700 2.004600
19.174400 2.078400
19.224000 1.909900
19.273600 1.894800
19.323200 1.925700
19.372900 1.972300
19.422500 1.993200
19.472100 2.072300
19.521700 2.129200
19.571300 2.269500
19.621000 2.510200
19.670600 2.693900
19.720200 2.760800
19.769800 2.840300
19.819400 2.867700
19.869100 2.770300
19.918700 2.460600
19.968300 2.114600
20.017900 1.976000
20.067600 1.897700
20.117200 2.175800
20.166800 1.876500
20.216400 1.719400
20.266000 1.628500
20.315700 1.653200
20.365300 1.722300
20.414900 1.917400
20.464500 2.258400
20.514200 2.445000
20.563800 2.429500
20.613400 2.459100
20.663000 2.372700
20.712600 2.311900
20.762300 2.215400
20.811900 2.359500
20.861500 2.350000
20.911100 1.822500
20.960700 1.699700
21.010400 1.665200
21.060000 1.785100
21.109600 2.048900
21.159200 2.134400
21.208900 2.096300
21.258500 2.140400
21.308100 2.234500
21.357700 2.459500
21.407300 2.450400
21.457000 2.406200
21.506600 2.408500
21.556200 2.405800
21.605800 2.347500
21.655500 2.281600
21.705100 2.207100
21.754700 2.148500
21.804300 2.135300
21.853900 2.153800
21.903600 2.234400
21.953200 2.246400
22.002800 2.196600
22.052400 2.171000
22.102000 2.158800
22.151700 2.148100
22.201300 2.150200
22.250900 2.142100
22.300500 2.445600
22.350200 2.265300
22.399800 2.318200
22.449400 2.382000
22.499000 2.541700
22.548600 2.580500
22.598300 2.889900
22.647900 2.827100
22.697500 2.935100
22.747100 2.825600
22.796800 2.688800
22.846400 2.471200
22.896000 2.318900
22.945600 2.212100
22.995200 2.173000
23.044900 2.169600
23.094500 2.205700
23.144100 2.189000
23.193700 2.215000
23.243300 2.320100
23.293000 2.489500
23.342600 2.538800
23.392200 2.542100
23.441800 2.622800
23.491500 2.389100
23.541100 2.389200
23.590700 2.621100
23.640300 2.474400
23.689900 2.390600
23.739600 2.199300
23.789200 2.229900
23.838800 2.274100
23.888400 2.317100
23.938100 2.243100
23.987700 2.159200
24.037300 2.070100
24.086900 2.274900
24.136500 2.085900
24.186200 2.104800
24.235800 2.076600
24.285400 2.064500
24.335000 2.165900
24.384600 2.278900
24.434300 2.330100
24.483900 2.345700
24.533500 2.295500
24.583100 2.255500
24.632800 2.327000
24.682400 2.441300
24.732000 2.556700
24.781600 2.493800
24.831200 2.572700
24.880900 2.569300
24.930500 2.505900
24.980100 2.256000
25.029700 2.352900
25.079400 2.354000
25.129000 2.341600
25.178600 2.235200
25.228200 2.338900
25.277800 2.552100
25.327500 3.163400
25.377100 2.576000
25.426700 2.624000
25.476300 2.729300
25.525900 2.906300
25.575600 2.882200
25.625200 2.459300
25.674800 2.428000
25.724400 2.487500
25.774100 2.473700
25.823700 2.458100
25.873300 2.335000
25.922900 2.291200
25.972500 2.247200
26.022200 2.179500
26.071800 2.235100
26.121400 2.273600
26.171000 2.255000
26.220600 2.304200
26.270300 2.356200
26.319900 2.518800
26.369500 2.601800
26.419100 2.753000
26.468800 2.807000
26.518400 2.811500
26.568000 2.840300
26.617600 2.759800
26.667200 2.715900
26.716900 2.635200
26.766500 2.505400
26.816100 2.377300
26.865700 2.196200
26.915400 2.105500
26.965000 2.123100
27.014600 2.204700
27.064200 2.295100
27.113800 2.400600
27.163500 2.697500
27.213100 2.735500
27.262700 2.476600
27.312300 2.406200
27.361900 2.411200
27.411600 2.397100
27.461200 2.468200
27.510800 2.358500
27.560400 2.364600
27.610100 2.407900
27.659700 2.454800
27.709300 2.539300
27.758900 2.687800
27.808500 2.932300
27.858200 3.247400
27.907800 2.937200
27.957400 2.540200
28.007000 2.431000
28.056700 2.296000
28.106300 2.286900
28.155900 2.517000
28.205500 2.663200
28.255100 2.656300
28.304800 2.597300
28.354400 2.503200
28.404000 2.482200
28.453600 2.511700
28.503200 2.632800
28.552900 2.617700
28.602500 2.583100
28.652100 2.656300
28.701700 2.585400
28.751400 2.436600
28.801000 2.289000
28.850600 2.131300
28.900200 2.096500
28.949800 2.132200
28.999500 2.161100
29.049100 2.175700
29.098700 2.207900
29.148300 2.283300
29.198000 2.465000
29.247600 2.603000
29.297200 2.736100
29.346800 2.722300
29.396400 2.661200
29.446100 2.670300
29.495700 2.676000
29.545300 2.680100
29.594900 2.626900
29.644500 2.736200
29.694200 2.708100
29.743800 2.729000
29.793400 2.721800
29.843000 2.660200
29.892700 2.653500
29.942300 2.729000
29.991900 3.143700
30.041500 2.564400
30.091100 2.629500
30.140800 2.792300
30.190400 2.685300
30.240000 2.670000
30.289600 2.724100
30.339300 2.756400
30.388900 2.635600
30.438500 2.537900
30.488100 2.809400
30.537700 2.705200
30.587400 2.623800
30.637000 2.509600
30.686600 2.495500
30.736200 2.493400
30.785800 2.521000
30.835500 2.618600
30.885100 2.668600
30.934700 2.755300
30.984300 2.800100
31.034000 2.621100
31.083600 2.629500
31.133200 2.696700
31.182800 2.691600
31.232400 2.704300
31.282100 2.695300
31.331700 2.579500
31.381300 2.486400
31.430900 2.426900
31.480500 2.399000
31.530200 2.402500
31.579800 2.473700
31.629400 2.554900
31.679000 2.714600
31.728700 2.732700
31.778300 2.782000
31.827900 2.770600
31.877500 2.803200
31.927100 2.807200
31.976800 2.783900
32.026400 2.785300
32.076000 2.732500
32.125600 2.639700
32.175300 2.484800
32.224900 2.529800
32.274500 2.507400
32.324100 2.529700
32.373700 2.564400
32.423400 2.544100
32.473000 2.557300
32.522600 2.636900
32.572200 2.715900
32.621800 2.791300
32.671500 2.840400
32.721100 2.964400
32.770700 3.029300
32.820300 2.976700
32.870000 2.935400
32.919600 2.974200
32.969200 2.756100
33.018800 2.729000
33.068400 2.791400
33.118100 3.144600
33.167700 2.791100
33.217300 2.720100
33.266900 2.624000
33.316600 2.498000
33.366200 2.441700
33.415800 2.515000
33.465400 2.654300
33.515000 2.682000
33.564700 2.776800
33.614300 2.864000
33.663900 2.845800
33.713500 2.870200
33.763100 2.844900
33.812800 2.724100
33.862400 2.669100
33.912000 2.666500
33.961600 2.658400
34.011300 2.580900
34.060900 2.648900
34.110500 2.644700
34.160100 2.587300
34.209700 2.590400
34.259400 2.680000
34.309000 2.749000
34.358600 2.896700
34.408200 2.875500
34.457900 2.761700
34.507500 2.738900
34.557100 2.821800
34.606700 2.918100
34.656300 2.999500
34.706000 2.957800
34.755600 2.953900
34.805200 2.931500
34.854800 2.926000
34.904400 2.943100
34.954100 2.898200
35.003700 2.958700
35.053300 2.942800
35.102900 2.987100
35.152600 2.967600
35.202200 2.897100
35.251800 2.789700
35.301400 2.760900
35.351000 2.776000
35.400700 2.657600
35.450300 2.712400
35.499900 2.969600
35.549500 3.094400
35.599200 3.121200
35.648800 3.005500
35.698400 2.845500
35.748000 2.804400
35.797600 2.865500
35.847300 3.012600
35.896900 2.767200
35.946500 2.703600
35.996100 2.688700
36.045700 2.678100
36.095400 2.703000
36.145000 2.693700
36.194600 2.602700
36.244200 2.598000
36.293900 2.434600
36.343500 2.475300
36.393100 2.485500
36.442700 2.471200
36.492300 2.514600
36.542000 2.577200
36.591600 2.648400
36.641200 2.771000
36.690800 2.876200
36.740500 2.892300
36.790100 2.868000
36.839700 2.877100
36.889300 2.901900
36.938900 2.866100
36.988600 2.852500
37.038200 2.891100
37.087800 2.938000
37.137400 3.233100
37.187000 3.417800
37.236700 3.451300
37.286300 3.372100
37.335900 3.316900
37.385500 3.214700
37.435200 3.100900
37.484800 3.128200
37.534400 3.000800
37.584000 2.971400
37.633600 2.895200
37.683300 2.778400
37.732900 2.762400
37.782500 2.772500
37.832100 2.796700
37.881700 2.839000
37.931400 2.863700
37.981000 2.812800
38.030600 2.725000
38.080200 2.713200
38.129900 2.734700
38.179500 2.759500
38.229100 2.777500
38.278700 2.839700
38.328300 2.879600
38.378000 2.889000
38.427600 2.945900
38.477200 2.935500
38.526800 2.950300
38.576500 2.907600
38.626100 2.817900
38.675700 2.844200
38.725300 2.822200
38.774900 2.895400
38.824600 2.991900
38.874200 3.033100
38.923800 2.839200
38.973400 2.620300
39.023000 2.632100
39.072700 2.839300
39.122300 2.991700
39.171900 3.393300
39.221500 2.943700
39.271200 2.958500
39.320800 3.019000
39.370400 3.107300
39.420000 3.039200
39.469600 3.018800
39.519300 3.214700
39.568900 3.310000
39.618500 3.168100
39.668100 3.128800
39.717800 3.045000
39.767400 3.006400
39.817000 2.934800
39.866600 2.955000
39.916200 2.945900
39.965900 2.954500
40.015500 2.908100
40.065100 2.928900
40.114700 2.639200
40.164300 2.479100
40.214000 2.470900
40.263600 2.420300
40.313200 2.333100
40.362800 2.321600
40.412500 2.297900
40.462100 2.468400
40.511700 2.428900
40.561300 2.457000
40.610900 2.517000
40.660600 2.615200
40.710200 2.752400
40.759800 2.946400
40.809400 3.181300
40.859100 3.386300
40.908700 3.498400
40.958300 3.556300
41.007900 3.409500
41.057500 3.260100
41.107200 3.265800
41.156800 3.467200
41.206400 3.513000
41.256000 3.432900
41.305600 3.487200
41.355300 3.396300
41.404900 3.207400
41.454500 3.056600
41.504100 3.141300
41.553800 2.936900
41.603400 2.741700
41.653000 2.649300
41.702600 2.644900
41.752200 2.724400
41.801900 2.851500
41.851500 2.985500
41.901100 2.989900
41.950700 2.955100
42.000400 2.917400
42.050000 2.985400
42.099600 3.150100
42.149200 3.376400
42.198800 3.358900
42.248500 3.228500
42.298100 3.172500
42.347700 3.188400
42.397300 3.198000
42.446900 3.031600
42.496600 2.964700
42.546200 2.892500
42.595800 3.029900
42.645400 3.345100
42.695100 3.356100
42.744700 3.204600
42.794300 3.171300
42.843900 3.105900
42.893500 3.138600
42.943200 3.146700
42.992800 3.168300
43.042400 3.182400
43.092000 3.119500
43.141600 2.957300
43.191300 2.881900
43.240900 2.880700
43.290500 2.968300
43.340100 2.875800
43.389800 2.888800
43.439400 2.927700
43.489000 2.909600
43.538600 2.964500
43.588200 2.858400
43.637900 2.970600
43.687500 3.120000
43.737100 3.181400
43.786700 3.196100
43.836400 2.999500
43.886000 3.036900
43.935600 3.313000
43.985200 3.422900
44.034800 3.461400
44.084500 3.413400
44.134100 3.371500
44.183700 3.219200
44.233300 3.141200
44.282900 3.103000
44.332600 3.120500
44.382200 3.203600
44.431800 3.243900
44.481400 3.403200
44.531100 3.412400
44.580700 3.404200
44.630300 3.244100
44.679900 2.959000
44.729500 2.922600
44.779200 2.927700
44.828800 2.969000
44.878400 3.275200
44.928000 3.633700
44.977700 3.274000
45.027300 3.153300
45.076900 3.025300
45.126500 3.015200
45.176100 3.136400
45.225800 3.026800
45.275400 3.001600
45.325000 3.037000
45.374600 2.997600
45.424200 2.958700
45.473900 3.007200
45.523500 3.072400
45.573100 2.958300
45.622700 2.894500
45.672400 2.884800
45.722000 2.880100
45.771600 2.861800
45.821200 2.869800
45.870800 2.841800
45.920500 2.983000
45.970100 3.020100
46.019700 3.096500
46.069300 3.017000
46.119000 2.906900
46.168600 2.885500
46.218200 2.831800
46.267800 2.787100
46.317400 2.699500
46.367100 2.743000
46.416700 2.759000
46.466300 2.739100
46.515900 2.775200
46.565500 2.852300
46.615200 2.920700
46.664800 2.846700
46.714400 2.908000
46.764000 2.905500
46.813700 2.915900
46.863300 2.924000
46.912900 2.982000
46.962500 3.206400
47.012100 3.512700
47.061800 3.443800
47.111400 3.363900
47.161000 3.326100
47.210600 3.317700
47.260300 3.344200
47.309900 3.481300
47.359500 3.422900
47.409100 3.358800
47.458700 3.348900
47.508400 3.351700
47.558000 3.514000
47.607600 3.545500
47.657200 3.619000
47.706800 3.526100
47.756500 3.394200
47.806100 3.262200
47.855700 3.213300
47.905300 3.233300
47.955000 3.209400
48.004600 3.028600
48.054200 3.102900
48.103800 3.012800
48.153400 2.971000
48.203100 2.975300
48.252700 2.950300
48.302300 3.009800
48.351900 3.086900
48.401600 3.311500
48.451200 3.179100
48.500800 3.163100
48.550400 3.118500
48.600000 3.120100
48.649700 3.151500
48.699300 3.111700
48.748900 3.185300
48.798500 3.612400
48.848100 3.324600
48.897800 3.163800
48.947400 3.099700
48.997000 3.080300
49.046600 2.962100
49.096300 2.998700
49.145900 3.118400
49.195500 3.449600
49.245100 3.239700
49.294700 3.210800
49.344400 3.177700
49.394000 3.139100
49.443600 3.120400
49.493200 3.349600
49.542800 3.197700
49.592500 3.161900
49.642100 3.044400
49.691700 3.013700
49.741300 2.970700
49.791000 2.974400
49.840600 3.000700
49.890200 3.112900
49.939800 3.220000
49.989400 3.217500
50.039100 3.155200
50.088700 3.194000
50.138300 3.325200
50.187900 3.563600
50.237600 3.499400
50.287200 3.660800
50.336800 3.896400
50.386400 3.875200
50.436000 3.887100
50.485700 3.786300
50.535300 3.697900
50.584900 3.554700
50.634500 3.477000
50.684100 3.385200
50.733800 3.226900
50.783400 3.098600
50.833000 3.423000
50.882600 3.267700
50.932300 3.215900
50.981900 3.246100
51.031500 3.110000
51.081100 3.168900
51.130700 3.293900
51.180400 3.346200
51.230000 3.388400
51.279600 3.364200
51.329200 3.227800
51.378900 3.121900
51.428500 3.063800
51.478100 2.975500
51.527700 3.001700
51.577300 3.001200
51.627000 2.990000
51.676600 3.015900
51.726200 3.087900
51.775800 3.228200
51.825400 3.326400
51.875100 3.454500
51.924700 3.391000
51.974300 3.390800
52.023900 3.371400
52.073600 3.345700
52.123200 3.360300
52.172800 3.352900
52.222400 3.334600
52.272000 3.345700
52.321700 3.345600
52.371300 3.359700
52.420900 3.387400
52.470500 3.421200
52.520200 3.361700
52.569800 3.293700
52.619400 3.194100
52.669000 3.136100
52.718600 3.160200
52.768300 3.116300
52.817900 3.196400
52.867500 3.412800
52.917100 3.514700
52.966700 3.584200
53.016400 3.616800
53.066000 3.639800
53.115600 3.588000
53.165200 3.468900
53.214900 3.502500
53.264500 3.442300
53.314100 3.295800
53.363700 3.136100
53.413300 3.098600
53.463000 3.028600
53.512600 3.038400
53.562200 2.996200
53.611800 2.935900
53.661500 2.892800
53.711100 2.913300
53.760700 3.054400
53.810300 3.275700
53.859900 3.397600
53.909600 3.469900
53.959200 3.560700
54.008800 3.524300
54.058400 3.420800
54.108000 3.382100
54.157700 3.401000
54.207300 3.416000
54.256900 3.338800
54.306500 3.277600
54.356200 3.247600
54.405800 3.292600
54.455400 3.343300
54.505000 3.554200
54.554600 3.617900
54.604300 3.684100
54.653900 3.589000
54.703500 3.555400
54.753100 3.798700
54.802700 3.630000
54.852400 3.553400
54.902000 3.652000
54.951600 3.601400
55.001200 3.499600
55.050900 3.409300
55.100500 3.286900
55.150100 3.208400
55.199700 3.167700
55.249300 3.178400
55.299000 3.119200
55.348600 3.151600
55.398200 3.116600
55.447800 3.028100
55.497500 3.627400
55.547100 3.157700
55.596700 3.250300
55.646300 3.384000
55.695900 3.361400
55.745600 3.302300
55.795200 3.212700
55.844800 3.191200
55.894400 3.167900
55.944000 3.172700
55.993700 3.221300
56.043300 3.338800
56.092900 3.509700
56.142500 3.674000
56.192200 3.674400
56.241800 3.583800
56.291400 3.726500
56.341000 3.880200
56.390600 3.978100
56.440300 3.916600
56.489900 3.764600
56.539500 3.632900
56.589100 3.618600
56.638800 3.564400
56.688400 3.459700
56.738000 3.224000
56.787600 3.070000
56.837200 3.112600
56.886900 3.195500
56.936500 3.327100
56.986100 3.342700
57.035700 3.330700
57.085300 3.254900
57.135000 3.301600
57.184600 3.507800
57.234200 3.344900
57.283800 3.320100
57.333500 3.416500
57.383100 3.340800
57.432700 3.383400
57.482300 3.275400
57.531900 3.187700
57.581600 3.147300
57.631200 3.153200
57.680800 3.227200
57.730400 3.306300
57.780100 3.435500
57.829700 3.523200
57.879300 3.396900
57.928900 3.238800
57.978500 3.248900
58.028200 3.377400
58.077800 3.512400
58.127400 3.603700
58.177000 3.487200
58.226600 3.425900
58.276300 3.420100
58.325900 3.511800
58.375500 3.510500
58.425100 3.678900
58.474800 3.254400
58.524400 3.255000
58.574000 3.607500
58.623600 3.215500
58.673200 3.048900
58.722900 3.035100
58.772500 3.110200
58.822100 3.200900
58.871700 3.263700
58.921400 3.232700
58.971000 3.198600
59.020600 3.045500
59.070200 2.960700
59.119800 2.893600
59.169500 2.902600
59.219100 2.847000
59.268700 2.807700
59.318300 2.848600
59.367900 2.728000
59.417600 2.693300
59.467200 2.614800
59.516800 2.579500
59.566400 2.537200
59.616100 2.532900
59.665700 2.212300
59.715300 2.184700
59.764900 2.043400
59.814500 2.107000
59.864200 2.152300
59.913800 2.081300
59.963400 2.010700
60.013000 1.786700
60.062700 1.540400
60.112300 1.441200
60.161900 1.227700
60.211500 1.150200
60.261100 0.992000
60.310800 0.890000
60.360400 0.812700
60.410000 0.710800
60.459600 0.622700
60.509200 0.552500
60.558900 0.495700
60.608500 0.450900
60.658100 0.416500
60.707700 0.384200
60.757400 0.348600
60.807000 0.314000
60.856600 0.267000
60.906200 0.229500
60.955800 0.198800
61.005500 0.174000
61.055100 0.155100
61.104700 0.140700
61.154300 0.127900
61.203900 0.120900
61.253600 0.117700
61.303200 0.115100
61.352800 0.113100
61.402400 0.111700
61.452100 0.110900
61.501700 0.110500
61.551300 0.109900
61.600900 0.108900
61.650500 0.108200
61.700200 0.108200
61.749800 0.107600
61.799400 0.106300
61.849000 0.104400
61.898700 0.101800
61.948300 0.098500
61.997900 0.094600
62.047500 0.090000
62.097100 0.083800
62.146800 0.073500
62.196400 0.061800
62.246000 0.057300
62.295600 0.039800
62.345200 0.036900
62.394900 0.035800
62.444500 0.035000
62.494100 0.034500
62.543700 0.034500
62.593400 0.034800
62.643000 0.035500
62.692600 0.036500
62.742200 0.073100
62.791800 0.022600
62.841500 0.000200
62.891100 0.000000
62.940700 0.000000
62.990300 0.000000
63.040000 0.000000
63.089600 0.000000
63.139200 0.000000
63.188800 0.000000
63.238400 0.000000
63.288100 0.000000
63.337700 0.000000
63.387300 0.000000
63.436900 0.000000
63.486500 0.000000
63.536200 0.000000
63.585800 0.000000
63.635400 0.000000
63.685000 0.000000
63.734700 0.000000
63.784300 0.000000
63.833900 0.000000
63.883500 0.000000
63.933100 0.000000
63.982800 0.000000
64.032400 0.000000
64.082000 0.000000
64.131600 0.000000
64.181300 0.000000
64.230900 0.000000
64.280500 0.000000
64.330100 0.000000
64.379700 0.000000
64.429400 0.000000
64.479000 0.000000
64.528600 0.000000
64.578200 0.000000
64.627800 0.000000
64.677500 0.000000
64.727100 0.000000
64.776700 0.000000
64.826300 0.000000
64.876000 0.000000
64.925600 0.000000
64.975200 0.000000
65.024800 0.000000
65.074400 0.000000
65.124100 0.000000
65.173700 0.000000
65.223300 0.000000
65.272900 0.000000
65.322600 0.000000
65.372200 0.000000
65.421800 0.000000
65.471400 0.000000
65.521000 0.000000
65.570700 0.000000
65.620300 0.000000
65.669900 0.000000
65.719500 0.000000
65.769100 0.000000
65.818800 0.000000
65.868400 0.000000
65.918000 0.000000
65.967600 0.000000
66.017300 0.000000
66.066900 0.000000
66.116500 0.000000
66.166100 0.000000
66.215700 0.000000
66.265400 0.000000
66.315000 0.000000
66.364600 0.000000
66.414200 0.000000
66.463800 0.000000
66.513500 0.000000
66.563100 0.000000
66.612700 0.000000
66.662300 0.000000
66.712000 0.000000
66.761600 0.000000
66.811200 0.000000
66.860800 0.000000
66.910400 0.000000
66.960100 0.000000
67.009700 0.000000
67.059300 0.000000
67.108900 0.000000
67.158600 0.000000
67.208200 0.000000
67.257800 0.000000
67.307400 0.000000
67.357000 0.000000
e
