set title 'mp-2133 - Density of States'
set xlabel 'Energy (eV)'
set ylabel 'DOS (states/eV)'
set grid
set xrange [-10:10]
set yrange [0:33.102]
set xzeroaxis lt -1
set terminal png size 800,600
set output 'mp-2133_dos_gnuplot.png'
plot '-' using 1:2 with lines title 'DOS'
-19.037800 0.000000
-19.014500 0.000000
-18.991200 0.000000
-18.967900 0.000000
-18.944600 0.000000
-18.921400 0.000000
-18.898100 0.000000
-18.874800 0.000000
-18.851500 0.000000
-18.828200 0.000000
-18.805000 0.000000
-18.781700 0.000000
-18.758400 0.000000
-18.735100 0.000000
-18.711800 0.000000
-18.688600 0.000000
-18.665300 0.000000
-18.642000 0.000000
-18.618700 0.000000
-18.595400 0.000000
-18.572200 0.000000
-18.548900 0.000000
-18.525600 0.000000
-18.502300 0.000000
-18.479000 0.000000
-18.455800 0.000000
-18.432500 0.000000
-18.409200 0.000000
-18.385900 0.000000
-18.362600 0.000000
-18.339400 0.000000
-18.316100 0.000000
-18.292800 0.000000
-18.269500 0.000000
-18.246200 0.000000
-18.223000 0.000000
-18.199700 0.000000
-18.176400 0.000000
-18.153100 0.000000
-18.129800 0.000000
-18.106600 0.000000
-18.083300 0.000000
-18.060000 0.000000
-18.036700 0.000000
-18.013400 0.000000
-17.990200 0.000000
-17.966900 0.000000
-17.943600 0.000000
-17.920300 0.000000
-17.897000 0.000000
-17.873800 0.000000
-17.850500 0.000000
-17.827200 0.000000
-17.803900 0.000000
-17.780600 0.000000
-17.757400 0.000000
-17.734100 0.000000
-17.710800 0.000000
-17.687500 0.000000
-17.664200 0.000000
-17.641000 0.000000
-17.617700 0.000000
-17.594400 0.000000
-17.571100 0.000000
-17.547800 0.000000
-17.524600 0.000000
-17.501300 0.000000
-17.478000 0.000000
-17.454700 0.000000
-17.431400 0.000000
-17.408200 0.000000
-17.384900 0.000000
-17.361600 0.000000
-17.338300 0.000000
-17.315000 0.000000
-17.291800 0.000000
-17.268500 0.000000
-17.245200 0.000000
-17.221900 0.000000
-17.198600 0.000000
-17.175400 0.000000
-17.152100 0.000000
-17.128800 0.000000
-17.105500 0.000000
-17.082200 0.000000
-17.059000 0.000000
-17.035700 0.000000
-17.012400 0.000000
-16.989100 0.000000
-16.965800 0.000000
-16.942600 0.000000
-16.919300 0.006600
-16.896000 0.314200
-16.872700 0.517000
-16.849400 0.635700
-16.826200 0.772200
-16.802900 0.877300
-16.779600 1.000400
-16.756300 1.116200
-16.733000 1.228300
-16.709800 1.352100
-16.686500 1.478600
-16.663200 1.609000
-16.639900 1.743900
-16.616600 1.893300
-16.593400 2.053100
-16.570100 2.219600
-16.546800 2.405800
-16.523500 2.609000
-16.500200 2.838500
-16.477000 3.093600
-16.453700 3.363000
-16.430400 3.707100
-16.407100 4.101000
-16.383800 4.535200
-16.360600 5.119600
-16.337300 5.881700
-16.314000 6.930400
-16.290700 8.938500
-16.267400 9.729800
-16.244200 10.175900
-16.220900 10.468100
-16.197600 10.911400
-16.174300 11.649900
-16.151000 12.180600
-16.127800 15.720400
-16.104500 20.515200
-16.081200 0.000000
-16.057900 0.000000
-16.034600 0.000000
-16.011400 0.000000
-15.988100 0.000000
-15.964800 0.000000
-15.941500 0.000000
-15.918200 0.000000
-15.895000 0.000000
-15.871700 0.000000
-15.848400 0.000000
-15.825100 0.000000
-15.801800 0.000000
-15.778600 0.000000
-15.755300 0.000000
-15.732000 0.000000
-15.708700 0.000000
-15.685400 0.000000
-15.662200 0.000000
-15.638900 0.000000
-15.615600 0.000000
-15.592300 0.000000
-15.569000 0.000000
-15.545800 0.000000
-15.522500 0.000000
-15.499200 0.000000
-15.475900 0.000000
-15.452600 0.000000
-15.429400 0.000000
-15.406100 0.000000
-15.382800 0.000000
-15.359500 0.000000
-15.336200 0.000000
-15.313000 0.000000
-15.289700 0.000000
-15.266400 0.000000
-15.243100 0.000000
-15.219800 0.000000
-15.196600 0.000000
-15.173300 0.000000
-15.150000 0.000000
-15.126700 0.000000
-15.103400 0.000000
-15.080200 0.000000
-15.056900 0.000000
-15.033600 0.000000
-15.010300 0.000000
-14.987000 0.000000
-14.963800 0.000000
-14.940500 0.000000
-14.917200 0.000000
-14.893900 0.000000
-14.870600 0.000000
-14.847400 0.000000
-14.824100 0.000000
-14.800800 0.000000
-14.777500 0.000000
-14.754200 0.000000
-14.731000 0.000000
-14.707700 0.000000
-14.684400 0.000000
-14.661100 0.000000
-14.637800 0.000000
-14.614600 0.000000
-14.591300 0.000000
-14.568000 0.000000
-14.544700 0.000000
-14.521400 0.000000
-14.498200 0.000000
-14.474900 0.000000
-14.451600 0.000000
-14.428300 0.000000
-14.405000 0.000000
-14.381800 0.000000
-14.358500 0.000000
-14.335200 0.000000
-14.311900 0.000000
-14.288600 0.000000
-14.265400 0.000000
-14.242100 0.000000
-14.218800 0.000000
-14.195500 0.000000
-14.172200 0.000000
-14.149000 0.000000
-14.125700 0.000000
-14.102400 0.000000
-14.079100 0.000000
-14.055800 0.000000
-14.032600 0.000000
-14.009300 0.000000
-13.986000 0.000000
-13.962700 0.000000
-13.939400 0.000000
-13.916200 0.000000
-13.892900 0.000000
-13.869600 0.000000
-13.846300 0.000000
-13.823000 0.000000
-13.799800 0.000000
-13.776500 0.000000
-13.753200 0.000000
-13.729900 0.000000
-13.706600 0.000000
-13.683400 0.000000
-13.660100 0.000000
-13.636800 0.000000
-13.613500 0.000000
-13.590200 0.000000
-13.567000 0.000000
-13.543700 0.000000
-13.520400 0.000000
-13.497100 0.000000
-13.473800 0.000000
-13.450600 0.000000
-13.427300 0.000000
-13.404000 0.000000
-13.380700 0.000000
-13.357400 0.000000
-13.334200 0.000000
-13.310900 0.000000
-13.287600 0.000000
-13.264300 0.000000
-13.241000 0.000000
-13.217800 0.000000
-13.194500 0.000000
-13.171200 0.000000
-13.147900 0.000000
-13.124600 0.000000
-13.101400 0.000000
-13.078100 0.000000
-13.054800 0.000000
-13.031500 0.000000
-13.008200 0.000000
-12.985000 0.000000
-12.961700 0.000000
-12.938400 0.000000
-12.915100 0.000000
-12.891800 0.000000
-12.868600 0.000000
-12.845300 0.000000
-12.822000 0.000000
-12.798700 0.000000
-12.775400 0.000000
-12.752200 0.000000
-12.728900 0.000000
-12.705600 0.000000
-12.682300 0.000000
-12.659000 0.000000
-12.635800 0.000000
-12.612500 0.000000
-12.589200 0.000000
-12.565900 0.000000
-12.542600 0.000000
-12.519400 0.000000
-12.496100 0.000000
-12.472800 0.000000
-12.449500 0.000000
-12.426200 0.000000
-12.403000 0.000000
-12.379700 0.000000
-12.356400 0.000000
-12.333100 0.000000
-12.309800 0.000000
-12.286600 0.000000
-12.263300 0.000000
-12.240000 0.000000
-12.216700 0.000000
-12.193400 0.000000
-12.170200 0.000000
-12.146900 0.000000
-12.123600 0.000000
-12.100300 0.000000
-12.077000 0.000000
-12.053800 0.000000
-12.030500 0.000000
-12.007200 0.000000
-11.983900 0.000000
-11.960600 0.000000
-11.937400 0.000000
-11.914100 0.000000
-11.890800 0.000000
-11.867500 0.000000
-11.844200 0.000000
-11.821000 0.000000
-11.797700 0.000000
-11.774400 0.000000
-11.751100 0.000000
-11.727800 0.000000
-11.704600 0.000000
-11.681300 0.000000
-11.658000 0.000000
-11.634700 0.000000
-11.611400 0.000000
-11.588200 0.000000
-11.564900 0.000000
-11.541600 0.000000
-11.518300 0.000000
-11.495000 0.000000
-11.471800 0.000000
-11.448500 0.000000
-11.425200 0.000000
-11.401900 0.000000
-11.378600 0.000000
-11.355400 0.000000
-11.332100 0.000000
-11.308800 0.000000
-11.285500 0.000000
-11.262200 0.000000
-11.239000 0.000000
-11.215700 0.000000
-11.192400 0.000000
-11.169100 0.000000
-11.145800 0.000000
-11.122600 0.000000
-11.099300 0.000000
-11.076000 0.000000
-11.052700 0.000000
-11.029400 0.000000
-11.006200 0.000000
-10.982900 0.000000
-10.959600 0.000000
-10.936300 0.000000
-10.913000 0.000000
-10.889800 0.000000
-10.866500 0.000000
-10.843200 0.000000
-10.819900 0.000000
-10.796600 0.000000
-10.773400 0.000000
-10.750100 0.000000
-10.726800 0.000000
-10.703500 0.000000
-10.680200 0.000000
-10.657000 0.000000
-10.633700 0.000000
-10.610400 0.000000
-10.587100 0.000000
-10.563800 0.000000
-10.540600 0.000000
-10.517300 0.000000
-10.494000 0.000000
-10.470700 0.000000
-10.447400 0.000000
-10.424200 0.000000
-10.400900 0.000000
-10.377600 0.000000
-10.354300 0.000000
-10.331000 0.000000
-10.307800 0.000000
-10.284500 0.000000
-10.261200 0.000000
-10.237900 0.000000
-10.214600 0.000000
-10.191400 0.000000
-10.168100 0.000000
-10.144800 0.000000
-10.121500 0.000000
-10.098200 0.000000
-10.075000 0.000000
-10.051700 0.000000
-10.028400 0.000000
-10.005100 0.000000
-9.981800 0.000000
-9.958600 0.000000
-9.935300 0.000000
-9.912000 0.000000
-9.888700 0.000000
-9.865400 0.000000
-9.842200 0.000000
-9.818900 0.000000
-9.795600 0.000000
-9.772300 0.000000
-9.749000 0.000000
-9.725800 0.000000
-9.702500 0.000000
-9.679200 0.000000
-9.655900 0.000000
-9.632600 0.000000
-9.609400 0.000000
-9.586100 0.000000
-9.562800 0.000000
-9.539500 0.000000
-9.516200 0.000000
-9.493000 0.000000
-9.469700 0.000000
-9.446400 0.000000
-9.423100 0.000000
-9.399800 0.000000
-9.376600 0.000000
-9.353300 0.000000
-9.330000 0.000000
-9.306700 0.000000
-9.283400 0.000000
-9.260200 0.000000
-9.236900 0.000000
-9.213600 0.000000
-9.190300 0.000000
-9.167000 0.000000
-9.143800 0.000000
-9.120500 0.000000
-9.097200 0.000000
-9.073900 0.000000
-9.050600 0.000000
-9.027400 0.000000
-9.004100 0.000000
-8.980800 0.000000
-8.957500 0.000000
-8.934200 0.000000
-8.911000 0.000000
-8.887700 0.000000
-8.864400 0.000000
-8.841100 0.000000
-8.817800 0.000000
-8.794600 0.000000
-8.771300 0.000000
-8.748000 0.000000
-8.724700 0.000000
-8.701400 0.000000
-8.678200 0.000000
-8.654900 0.000000
-8.631600 0.000000
-8.608300 0.000000
-8.585000 0.000000
-8.561800 0.000000
-8.538500 0.000000
-8.515200 0.000000
-8.491900 0.000000
-8.468600 0.000000
-8.445400 0.000000
-8.422100 0.000000
-8.398800 0.000000
-8.375500 0.000000
-8.352200 0.000000
-8.329000 0.000000
-8.305700 0.000000
-8.282400 0.000000
-8.259100 0.000000
-8.235800 0.000000
-8.212600 0.000000
-8.189300 0.000000
-8.166000 0.000000
-8.142700 0.000000
-8.119400 0.000000
-8.096200 0.000000
-8.072900 0.000000
-8.049600 0.000000
-8.026300 0.000000
-8.003000 0.000000
-7.979800 0.000000
-7.956500 0.000000
-7.933200 0.000000
-7.909900 0.000000
-7.886600 0.000000
-7.863400 0.000000
-7.840100 0.000000
-7.816800 0.000000
-7.793500 0.000000
-7.770200 0.000000
-7.747000 0.000000
-7.723700 0.000000
-7.700400 0.000000
-7.677100 0.000000
-7.653800 0.000000
-7.630600 0.000000
-7.607300 0.000000
-7.584000 0.000000
-7.560700 0.000000
-7.537400 0.000000
-7.514200 0.000000
-7.490900 0.000000
-7.467600 0.000000
-7.444300 0.000000
-7.421000 0.000000
-7.397800 0.000000
-7.374500 0.000000
-7.351200 0.000000
-7.327900 0.000000
-7.304600 0.000000
-7.281400 0.000000
-7.258100 0.000000
-7.234800 0.000000
-7.211500 0.000000
-7.188200 0.000000
-7.165000 0.000000
-7.141700 0.000000
-7.118400 0.000000
-7.095100 0.000000
-7.071800 0.000000
-7.048600 0.000000
-7.025300 0.000000
-7.002000 0.000000
-6.978700 0.000000
-6.955400 0.000000
-6.932200 0.000000
-6.908900 0.000000
-6.885600 0.000000
-6.862300 0.000000
-6.839000 0.000000
-6.815800 0.000000
-6.792500 0.000000
-6.769200 0.000000
-6.745900 0.000000
-6.722600 0.000000
-6.699400 0.000000
-6.676100 0.000000
-6.652800 0.000000
-6.629500 0.000000
-6.606200 0.000000
-6.583000 0.000000
-6.559700 0.000000
-6.536400 0.000000
-6.513100 0.000000
-6.489800 0.000000
-6.466600 0.000000
-6.443300 0.000000
-6.420000 0.000000
-6.396700 0.000000
-6.373400 0.000000
-6.350200 0.000000
-6.326900 0.000000
-6.303600 0.000000
-6.280300 0.000000
-6.257000 0.000000
-6.233800 0.000000
-6.210500 0.000000
-6.187200 0.000000
-6.163900 0.000000
-6.140600 0.000000
-6.117400 0.000000
-6.094100 0.000000
-6.070800 0.000000
-6.047500 0.000000
-6.024200 0.000000
-6.001000 0.000000
-5.977700 0.000000
-5.954400 0.000000
-5.931100 0.000000
-5.907800 0.000000
-5.884600 0.000000
-5.861300 0.000000
-5.838000 0.000000
-5.814700 0.000000
-5.791400 0.000000
-5.768200 0.000000
-5.744900 0.000000
-5.721600 0.000000
-5.698300 0.000000
-5.675000 0.000000
-5.651800 0.000000
-5.628500 0.000000
-5.605200 0.000000
-5.581900 0.000000
-5.558600 0.000000
-5.535400 0.000000
-5.512100 0.000000
-5.488800 0.000000
-5.465500 0.000000
-5.442200 0.000000
-5.419000 0.000000
-5.395700 0.000000
-5.372400 0.000000
-5.349100 0.000000
-5.325800 0.000000
-5.302600 0.000000
-5.279300 0.000000
-5.256000 0.000000
-5.232700 0.000000
-5.209400 0.000000
-5.186200 0.000000
-5.162900 0.000000
-5.139600 0.000000
-5.116300 0.000000
-5.093000 0.000000
-5.069800 0.000000
-5.046500 0.000000
-5.023200 0.000000
-4.999900 5.924800
-4.976600 8.025900
-4.953400 12.004200
-4.930100 13.470400
-4.906800 13.227700
-4.883500 12.946700
-4.860200 12.286900
-4.837000 10.020900
-4.813700 8.777500
-4.790400 8.010900
-4.767100 7.651600
-4.743800 7.983900
-4.720600 8.807900
-4.697300 6.299700
-4.674000 7.734300
-4.650700 9.667800
-4.627400 10.658100
-4.604200 9.481000
-4.580900 8.770600
-4.557600 9.884700
-4.534300 12.008800
-4.511000 13.368300
-4.487800 15.070200
-4.464500 19.587900
-4.441200 19.681600
-4.417900 18.698000
-4.394600 14.648900
-4.371400 13.346100
-4.348100 12.552100
-4.324800 12.131700
-4.301500 12.028600
-4.278200 11.747200
-4.255000 11.239700
-4.231700 11.167800
-4.208400 11.295100
-4.185100 11.903000
-4.161800 12.436300
-4.138600 12.654300
-4.115300 11.703100
-4.092000 10.969000
-4.068700 10.158600
-4.045400 9.564500
-4.022200 7.903300
-3.998900 7.437800
-3.975600 6.256100
-3.952300 4.504600
-3.929000 3.110100
-3.905800 2.103700
-3.882500 1.253500
-3.859200 0.885900
-3.835900 0.622200
-3.812600 0.370800
-3.789400 0.264200
-3.766100 0.134100
-3.742800 0.802100
-3.719500 5.236100
-3.696200 7.159900
-3.673000 8.138400
-3.649700 9.482600
-3.626400 16.590500
-3.603100 18.267400
-3.579800 21.451800
-3.556600 22.670200
-3.533300 26.247400
-3.510000 30.093100
-3.486700 20.243000
-3.463400 16.776900
-3.440200 25.780600
-3.416900 22.967100
-3.393600 17.089900
-3.370300 11.032900
-3.347000 9.606700
-3.323800 12.435800
-3.300500 9.892800
-3.277200 8.906000
-3.253900 8.636400
-3.230600 6.849600
-3.207400 5.084600
-3.184100 2.907600
-3.160800 0.878000
-3.137500 0.543200
-3.114200 0.580300
-3.091000 0.576200
-3.067700 0.503700
-3.044400 0.519900
-3.021100 0.552100
-2.997800 0.591400
-2.974600 0.652100
-2.951300 1.349300
-2.928000 4.850900
-2.904700 6.935800
-2.881400 6.810200
-2.858200 5.432700
-2.834900 4.867900
-2.811600 4.521900
-2.788300 4.149300
-2.765000 3.626500
-2.741800 3.339800
-2.718500 3.039700
-2.695200 2.991600
-2.671900 3.124000
-2.648600 3.153900
-2.625400 3.242800
-2.602100 3.315800
-2.578800 3.609700
-2.555500 3.769800
-2.532200 3.648900
-2.509000 3.701200
-2.485700 3.448300
-2.462400 3.250800
-2.439100 2.996100
-2.415800 2.911900
-2.392600 2.816000
-2.369300 2.685500
-2.346000 2.594400
-2.322700 2.516900
-2.299400 2.443600
-2.276200 2.358300
-2.252900 2.288200
-2.229600 2.224100
-2.206300 2.169300
-2.183000 2.122800
-2.159800 2.078000
-2.136500 2.038300
-2.113200 2.007600
-2.089900 1.963000
-2.066600 1.907700
-2.043400 1.881600
-2.020100 1.864800
-1.996800 1.850300
-1.973500 1.835700
-1.950200 1.823400
-1.927000 1.811900
-1.903700 1.878500
-1.880400 1.954700
-1.857100 2.109400
-1.833800 2.171200
-1.810600 2.229700
-1.787300 2.228000
-1.764000 2.168000
-1.740700 2.166500
-1.717400 2.150700
-1.694200 2.178200
-1.670900 2.232100
-1.647600 2.308300
-1.624300 2.385000
-1.601000 2.461600
-1.577800 2.494800
-1.554500 2.487800
-1.531200 2.529000
-1.507900 2.588700
-1.484600 2.680400
-1.461400 2.809400
-1.438100 2.971700
-1.414800 3.091000
-1.391500 3.067600
-1.368200 3.051000
-1.345000 3.056000
-1.321700 3.109400
-1.298400 3.232400
-1.275100 3.298200
-1.251800 3.297000
-1.228600 3.300400
-1.205300 3.336900
-1.182000 3.363900
-1.158700 3.401500
-1.135400 3.436000
-1.112200 3.497500
-1.088900 3.609100
-1.065600 3.558200
-1.042300 3.471700
-1.019000 3.360900
-0.995800 3.240800
-0.972500 3.109400
-0.949200 2.967500
-0.925900 2.940500
-0.902600 3.023900
-0.879400 3.050000
-0.856100 3.066700
-0.832800 3.163300
-0.809500 3.255700
-0.786200 3.270000
-0.763000 3.411900
-0.739700 3.507800
-0.716400 3.696900
-0.693100 3.760700
-0.669800 3.858200
-0.646600 3.643700
-0.623300 3.606200
-0.600000 3.655100
-0.576700 4.000600
-0.553400 3.884700
-0.530200 3.975900
-0.506900 4.094500
-0.483600 4.148400
-0.460300 4.587400
-0.437000 4.921100
-0.413800 5.029900
-0.390500 5.292400
-0.367200 5.580000
-0.343900 6.164000
-0.320600 5.992700
-0.297400 6.002900
-0.274100 6.282800
-0.250800 6.251300
-0.227500 6.040200
-0.204200 5.899000
-0.181000 5.602600
-0.157700 5.327000
-0.134400 5.122100
-0.111100 4.953200
-0.087800 4.817900
-0.064600 4.698900
-0.041300 4.606300
-0.018000 4.541300
0.005300 4.497500
0.028600 4.325800
0.051800 4.041200
0.075100 3.836500
0.098400 3.622600
0.121700 3.430300
0.145000 3.271500
0.168200 3.124500
0.191500 2.969900
0.214800 2.827400
0.238100 2.708600
0.261400 2.595700
0.284600 2.484800
0.307900 2.382100
0.331200 2.287700
0.354500 2.203000
0.377800 2.107100
0.401000 2.007100
0.424300 1.922900
0.447600 1.883400
0.470900 1.792600
0.494200 1.693500
0.517400 1.592800
0.540700 1.500300
0.564000 1.416800
0.587300 1.336900
0.610600 1.244800
0.633800 1.149000
0.657100 1.040900
0.680400 0.935900
0.703700 0.841000
0.727000 0.702000
0.750200 0.509400
0.773500 0.386600
0.796800 0.239000
0.820100 0.005200
0.843400 0.000000
0.866600 0.000000
0.889900 0.000000
0.913200 0.000000
0.936500 0.000000
0.959800 0.000000
0.983000 0.000000
1.006300 0.000000
1.029600 0.000000
1.052900 0.000000
1.076200 0.000000
1.099400 0.000000
1.122700 0.000000
1.146000 0.000000
1.169300 0.000000
1.192600 0.000000
1.215800 0.000000
1.239100 0.000000
1.262400 0.000000
1.285700 0.000000
1.309000 0.000000
1.332200 0.000000
1.355500 0.000000
1.378800 0.000000
1.402100 0.000000
1.425400 0.000000
1.448600 0.000000
1.471900 0.000000
1.495200 0.000000
1.518500 0.000000
1.541800 0.000000
1.565000 0.000000
1.588300 0.000200
1.611600 0.000600
1.634900 0.001200
1.658200 0.002000
1.681400 0.002900
1.704700 0.004100
1.728000 0.005500
1.751300 0.007100
1.774600 0.008900
1.797800 0.011200
1.821100 0.014400
1.844400 0.016200
1.867700 0.017800
1.891000 0.019300
1.914200 0.020600
1.937500 0.021700
1.960800 0.022600
1.984100 0.023700
2.007400 0.025400
2.030600 0.027100
2.053900 0.028800
2.077200 0.030600
2.100500 0.032400
2.123800 0.034300
2.147000 0.036200
2.170300 0.038100
2.193600 0.040100
2.216900 0.042100
2.240200 0.044000
2.263400 0.045900
2.286700 0.047800
2.310000 0.049800
2.333300 0.052100
2.356600 0.054400
2.379800 0.056600
2.403100 0.058800
2.426400 0.060900
2.449700 0.063000
2.473000 0.065100
2.496200 0.067300
2.519500 0.069500
2.542800 0.071600
2.566100 0.073800
2.589400 0.076000
2.612600 0.078300
2.635900 0.080800
2.659200 0.083400
2.682500 0.086200
2.705800 0.089100
2.729000 0.091900
2.752300 0.094600
2.775600 0.097200
2.798900 0.099800
2.822200 0.102400
2.845400 0.105000
2.868700 0.107600
2.892000 0.110200
2.915300 0.112800
2.938600 0.115400
2.961800 0.117900
2.985100 0.121000
3.008400 0.124000
3.031700 0.127000
3.055000 0.130000
3.078200 0.133100
3.101500 0.136100
3.124800 0.139200
3.148100 0.142300
3.171400 0.145400
3.194600 0.148600
3.217900 0.151700
3.241200 0.154800
3.264500 0.157800
3.287800 0.160900
3.311000 0.163900
3.334300 0.167200
3.357600 0.170600
3.380900 0.174100
3.404200 0.177600
3.427400 0.181200
3.450700 0.184700
3.474000 0.188100
3.497300 0.191600
3.520600 0.195100
3.543800 0.198500
3.567100 0.202000
3.590400 0.205500
3.613700 0.209000
3.637000 0.212500
3.660200 0.216100
3.683500 0.219700
3.706800 0.223400
3.730100 0.227500
3.753400 0.231600
3.776600 0.235500
3.799900 0.239500
3.823200 0.243500
3.846500 0.247600
3.869800 0.251600
3.893000 0.255600
3.916300 0.259600
3.939600 0.263700
3.962900 0.267700
3.986200 0.271700
4.009400 0.275700
4.032700 0.279700
4.056000 0.283800
4.079300 0.288000
4.102600 0.292600
4.125800 0.297200
4.149100 0.301800
4.172400 0.306400
4.195700 0.311000
4.219000 0.315700
4.242200 0.320300
4.265500 0.325000
4.288800 0.329700
4.312100 0.334400
4.335400 0.339100
4.358600 0.343800
4.381900 0.348500
4.405200 0.353200
4.428500 0.357900
4.451800 0.362800
4.475000 0.367900
4.498300 0.373200
4.521600 0.378600
4.544900 0.384000
4.568200 0.389300
4.591400 0.394600
4.614700 0.400000
4.638000 0.405400
4.661300 0.410900
4.684600 0.416600
4.707800 0.422300
4.731100 0.428000
4.754400 0.433700
4.777700 0.439300
4.801000 0.444900
4.824200 0.450600
4.847500 0.456600
4.870800 0.463000
4.894100 0.469400
4.917400 0.475800
4.940600 0.482200
4.963900 0.488600
4.987200 0.495100
5.010500 0.501600
5.033800 0.508200
5.057000 0.514800
5.080300 0.521600
5.103600 0.528500
5.126900 0.535600
5.150200 0.542800
5.173400 0.549800
5.196700 0.557000
5.220000 0.564200
5.243300 0.572100
5.266600 0.580400
5.289800 0.588800
5.313100 0.597300
5.336400 0.605700
5.359700 0.613800
5.383000 0.622100
5.406200 0.630500
5.429500 0.639200
5.452800 0.648200
5.476100 0.657500
5.499400 0.667100
5.522600 0.676500
5.545900 0.686100
5.569200 0.695900
5.592500 0.705800
5.615800 0.716500
5.639000 0.728100
5.662300 0.739800
5.685600 0.751800
5.708900 0.764500
5.732200 0.778000
5.755400 0.792200
5.778700 0.806800
5.802000 0.820900
5.825300 0.835200
5.848600 0.849800
5.871800 0.866300
5.895100 0.886000
5.918400 0.907800
5.941700 0.928800
5.965000 0.945700
5.988200 0.961200
6.011500 0.977700
6.034800 1.001200
6.058100 1.027200
6.081400 1.055600
6.104600 1.086300
6.127900 1.119600
6.151200 1.155300
6.174500 1.193000
6.197800 1.236200
6.221000 1.301900
6.244300 1.265100
6.267600 1.264000
6.290900 1.259100
6.314200 1.250200
6.337400 1.251000
6.360700 1.256200
6.384000 1.254600
6.407300 1.279500
6.430600 1.256500
6.453800 1.195800
6.477100 1.180500
6.500400 1.165000
6.523700 1.152200
6.547000 1.142400
6.570200 1.133900
6.593500 1.126800
6.616800 1.120400
6.640100 1.114400
6.663400 1.109000
6.686600 1.105600
6.709900 1.103200
6.733200 1.100700
6.756500 1.099300
6.779800 1.089700
6.803000 1.084300
6.826300 1.079300
6.849600 1.074700
6.872900 1.070100
6.896200 1.061900
6.919400 1.058700
6.942700 1.058900
6.966000 1.059100
6.989300 1.059500
7.012600 1.060400
7.035800 1.060500
7.059100 1.059100
7.082400 1.057000
7.105700 1.054800
7.129000 1.052400
7.152200 1.048300
7.175500 1.043600
7.198800 1.038600
7.222100 1.034000
7.245400 1.030600
7.268600 1.028100
7.291900 1.028100
7.315200 1.030100
7.338500 1.033500
7.361800 1.036200
7.385000 1.038700
7.408300 1.040300
7.431600 1.041900
7.454900 1.044000
7.478200 1.045600
7.501400 1.049200
7.524700 1.055300
7.548000 1.064600
7.571300 1.070900
7.594600 1.058600
7.617800 1.066300
7.641100 1.083200
7.664400 1.100200
7.687700 1.113500
7.711000 1.121200
7.734200 1.121200
7.757500 1.113900
7.780800 1.105000
7.804100 1.098500
7.827400 1.091400
7.850600 1.084400
7.873900 1.078400
7.897200 1.072500
7.920500 1.065600
7.943800 1.058100
7.967000 1.051600
7.990300 1.049800
8.013600 1.056100
8.036900 1.066600
8.060200 1.118800
8.083400 1.073800
8.106700 1.053600
8.130000 1.046300
8.153300 1.035600
8.176600 1.019900
8.199800 1.014900
8.223100 1.009400
8.246400 0.992800
8.269700 0.982400
8.293000 0.995100
8.316200 0.986900
8.339500 1.016300
8.362800 1.365500
8.386100 1.415600
8.409400 1.406300
8.432600 1.572600
8.455900 0.780800
8.479200 0.920500
8.502500 0.660800
8.525800 0.760500
8.549000 0.867100
8.572300 0.899200
8.595600 0.892600
8.618900 0.910800
8.642200 0.925400
8.665400 0.944200
8.688700 0.980800
8.712000 1.020000
8.735300 1.058900
8.758600 1.100700
8.781800 1.151900
8.805100 1.218000
8.828400 1.305700
8.851700 1.405900
8.875000 1.580700
8.898200 2.689400
8.921500 3.240500
8.944800 2.948600
8.968100 2.797000
8.991400 2.876100
9.014600 2.916400
9.037900 3.047300
9.061200 3.270900
9.084500 4.312500
9.107800 5.385000
9.131000 5.887900
9.154300 6.215600
9.177600 6.011400
9.200900 5.592700
9.224200 5.422200
9.247400 4.924300
9.270700 3.960500
9.294000 3.583700
9.317300 3.297700
9.340600 3.019200
9.363800 2.674700
9.387100 2.422300
9.410400 2.235800
9.433700 2.101500
9.457000 1.979400
9.480200 1.860500
9.503500 1.757600
9.526800 1.724200
9.550100 1.625500
9.573400 1.556500
9.596600 1.499000
9.619900 1.447100
9.643200 1.397000
9.666500 1.347200
9.689800 1.299300
9.713000 1.239600
9.736300 1.200600
9.759600 1.168400
9.782900 1.141900
9.806200 1.123900
9.829400 1.102600
9.852700 1.078900
9.876000 1.055000
9.899300 1.031400
9.922600 1.011200
9.945800 0.995100
9.969100 0.976400
9.992400 0.958300
10.015700 0.942000
10.039000 0.926600
10.062200 0.910700
10.085500 0.893700
10.108800 0.883500
10.132100 0.874700
10.155400 0.865300
10.178600 0.857500
10.201900 0.854400
10.225200 0.851800
10.248500 0.849100
10.271800 0.846800
10.295000 0.845700
10.318300 0.843400
10.341600 0.840500
10.364900 0.837100
10.388200 0.832700
10.411400 0.829500
10.434700 0.827300
10.458000 0.826300
10.481300 0.826900
10.504600 0.830300
10.527800 0.835800
10.551100 0.842100
10.574400 0.849100
10.597700 0.856700
10.621000 0.864500
10.644200 0.872000
10.667500 0.880100
10.690800 0.888600
10.714100 0.898500
10.737400 0.913700
10.760600 0.927900
10.783900 0.944700
10.807200 0.961900
10.830500 0.980400
10.853800 1.001600
10.877000 1.021300
10.900300 1.038900
10.923600 1.057500
10.946900 1.077100
10.970200 1.109400
10.993400 1.150900
11.016700 1.206300
11.040000 1.267600
11.063300 1.328400
11.086600 1.404700
11.109800 1.499600
11.133100 1.846300
11.156400 2.111600
11.179700 2.456800
11.203000 2.582700
11.226200 2.328900
11.249500 2.186400
11.272800 2.105900
11.296100 2.032800
11.319400 1.960200
11.342600 1.905200
11.365900 1.871800
11.389200 1.856700
11.412500 1.858600
11.435800 1.877500
11.459000 1.891600
11.482300 1.923800
11.505600 2.032900
11.528900 2.058500
11.552200 1.834800
11.575400 1.736600
11.598700 1.702500
11.622000 1.684500
11.645300 1.669200
11.668600 1.649900
11.691800 1.623800
11.715100 1.599800
11.738400 1.583800
11.761700 1.576900
11.785000 1.566100
11.808200 1.553600
11.831500 1.540400
11.854800 1.529600
11.878100 1.519100
11.901400 1.510400
11.924600 1.506800
11.947900 1.498900
11.971200 1.489700
11.994500 1.481500
12.017800 1.469700
12.041000 1.458900
12.064300 1.450000
12.087600 1.434700
12.110900 1.421400
12.134200 1.411800
12.157400 1.404400
12.180700 1.399700
12.204000 1.393100
12.227300 1.389900
12.250600 1.386900
12.273800 1.385400
12.297100 1.386600
12.320400 1.393000
12.343700 1.402400
12.367000 1.414300
12.390200 1.511400
12.413500 1.432900
12.436800 1.423300
12.460100 1.412000
12.483400 1.407900
12.506600 1.411200
12.529900 1.418700
12.553200 1.427200
12.576500 1.435900
12.599800 1.450900
12.623000 1.454800
12.646300 1.463600
12.669600 1.476700
12.692900 1.487900
12.716200 1.500700
12.739400 1.519800
12.762700 1.535900
12.786000 1.553100
12.809300 1.569200
12.832600 1.591400
12.855800 1.611200
12.879100 1.633500
12.902400 1.652500
12.925700 1.673600
12.949000 1.717100
12.972200 1.815800
12.995500 1.944700
13.018800 2.028200
13.042100 2.060500
13.065400 2.141200
13.088600 2.034100
13.111900 1.905900
13.135200 1.852900
13.158500 1.805700
13.181800 1.677600
13.205000 1.620400
13.228300 1.483500
13.251600 1.435900
13.274900 1.411600
13.298200 1.409800
13.321400 1.402500
13.344700 1.401600
13.368000 1.422300
13.391300 1.451100
13.414600 1.471900
13.437800 1.482700
13.461100 1.494400
13.484400 1.508300
13.507700 1.527200
13.531000 1.821200
13.554200 1.837100
13.577500 1.941300
13.600800 1.850300
13.624100 1.789400
13.647400 1.894500
13.670600 1.874700
13.693900 1.991800
13.717200 2.901600
13.740500 2.966900
13.763800 2.896100
13.787000 2.856700
13.810300 2.890000
13.833600 2.745900
13.856900 2.525600
13.880200 2.511400
13.903400 2.485900
13.926700 2.454800
13.950000 2.590200
13.973300 2.400800
13.996600 2.201400
14.019800 1.991200
14.043100 1.915500
14.066400 1.870400
14.089700 1.851800
14.113000 1.834100
14.136200 1.813400
14.159500 1.803500
14.182800 1.806500
14.206100 1.807800
14.229400 1.809900
14.252600 1.817500
14.275900 1.826500
14.299200 1.847100
14.322500 1.857700
14.345800 1.873400
14.369000 1.893000
14.392300 1.923000
14.415600 1.949500
14.438900 1.987800
14.462200 2.038200
14.485400 2.103100
14.508700 2.191700
14.532000 2.335700
14.555300 2.514900
14.578600 2.760500
14.601800 2.906600
14.625100 2.918500
14.648400 3.163900
14.671700 3.400600
14.695000 2.434100
14.718200 2.142100
14.741500 1.946400
14.764800 1.870400
14.788100 1.795500
14.811400 1.720800
14.834600 1.674500
14.857900 1.619800
14.881200 1.541300
14.904500 1.459700
14.927800 1.389000
14.951000 1.324900
14.974300 1.267600
14.997600 1.215300
15.020900 1.172900
15.044200 1.135900
15.067400 1.101500
15.090700 1.069900
15.114000 1.039900
15.137300 1.012200
15.160600 0.985300
15.183800 0.960300
15.207100 0.937200
15.230400 0.915700
15.253700 0.897100
15.277000 0.886800
15.300200 0.881200
15.323500 0.878000
15.346800 0.880300
15.370100 0.886000
15.393400 0.893800
15.416600 0.902300
15.439900 0.908300
15.463200 0.913200
15.486500 0.918200
15.509800 0.927000
15.533000 0.932100
15.556300 0.936900
15.579600 0.942400
15.602900 1.017700
15.626200 1.003900
15.649400 0.899300
15.672700 0.858800
15.696000 0.838800
15.719300 0.831200
15.742600 0.847400
15.765800 0.871500
15.789100 0.840400
15.812400 0.836600
15.835700 0.870500
15.859000 0.918900
15.882200 0.980000
15.905500 1.079400
15.928800 1.300200
15.952100 1.477100
15.975400 1.494900
15.998600 1.562800
16.021900 1.652200
16.045200 1.823500
16.068500 2.053400
16.091800 2.178100
16.115000 2.214300
16.138300 2.293900
16.161600 2.320000
16.184900 2.345500
16.208200 2.419200
16.231400 2.481300
16.254700 2.387000
16.278000 2.067000
16.301300 1.846100
16.324600 1.663200
16.347800 1.471600
16.371100 1.319900
16.394400 1.032500
16.417700 0.937900
16.441000 0.906700
16.464200 0.883600
16.487500 0.878400
16.510800 0.865500
16.534100 0.853800
16.557400 0.840500
16.580600 0.821800
16.603900 0.797900
16.627200 0.773400
16.650500 0.750200
16.673800 0.740700
16.697000 0.731200
16.720300 0.717800
16.743600 0.710500
16.766900 0.705700
16.790200 0.703200
16.813400 0.703300
16.836700 0.704900
16.860000 0.702800
16.883300 0.713100
16.906600 0.708200
16.929800 0.704400
16.953100 0.702200
16.976400 0.701600
16.999700 0.703000
17.023000 0.694600
17.046200 0.698100
17.069500 0.702100
17.092800 0.706500
17.116100 0.711400
17.139400 0.717800
17.162600 0.732300
17.185900 0.741400
17.209200 0.745300
17.232500 0.748400
17.255800 0.751700
17.279000 0.755200
17.302300 0.749500
17.325600 0.755400
17.348900 0.761300
17.372200 0.767400
17.395400 0.774200
17.418700 0.781200
17.442000 0.787900
17.465300 0.794500
17.488600 0.801500
17.511800 0.809100
17.535100 0.818100
17.558400 0.828900
17.581700 0.841200
17.605000 0.855400
17.628200 0.869900
17.651500 0.884500
17.674800 0.899700
17.698100 0.915700
17.721400 0.932600
17.744600 0.950300
17.767900 0.969100
17.791200 0.992200
17.814500 1.022100
17.837800 1.048900
17.861000 1.079800
17.884300 1.114800
17.907600 1.154300
17.930900 1.200400
17.954200 1.255300
17.977400 1.333700
18.000700 1.396100
18.024000 1.420000
18.047300 1.408400
18.070600 1.361300
18.093800 1.317400
18.117100 1.287200
18.140400 1.271600
18.163700 1.261000
18.187000 1.253500
18.210200 1.239800
18.233500 1.224900
18.256800 1.215800
18.280100 1.217200
18.303400 1.207000
18.326600 1.179400
18.349900 1.154400
18.373200 1.135300
18.396500 1.116900
18.419800 1.098300
18.443000 1.083400
18.466300 1.072100
18.489600 1.064200
18.512900 1.059700
18.536200 1.055000
18.559400 1.049300
18.582700 1.043500
18.606000 1.035900
18.629300 1.018800
18.652600 1.005600
18.675800 0.993500
18.699100 0.983400
18.722400 0.978400
18.745700 0.989900
18.769000 0.986100
18.792200 0.997400
18.815500 1.060000
18.838800 1.077300
18.862100 1.074700
18.885400 1.146800
18.908600 1.227000
18.931900 1.242200
18.955200 1.190300
18.978500 1.128000
19.001800 1.090900
19.025000 0.934600
19.048300 0.823600
19.071600 0.731600
19.094900 0.699600
19.118200 0.677300
19.141400 0.657200
19.164700 0.640800
19.188000 0.632100
19.211300 0.630200
19.234600 0.612300
19.257800 0.591500
19.281100 0.582200
19.304400 0.574900
19.327700 0.568400
19.351000 0.562000
19.374200 0.556400
19.397500 0.552100
19.420800 0.550300
19.444100 0.550700
19.467400 0.552200
19.490600 0.554700
19.513900 0.557400
19.537200 0.561100
19.560500 0.567000
19.583800 0.562900
19.607000 0.566800
19.630300 0.581500
19.653600 0.601400
19.676900 0.632600
19.700200 0.661800
19.723400 0.686900
19.746700 0.709400
19.770000 0.735800
19.793300 0.768000
19.816600 0.800700
19.839800 0.835100
19.863100 0.871200
19.886400 0.923700
19.909700 1.101700
19.933000 1.192400
19.956200 1.224000
19.979500 1.283200
20.002800 1.338700
20.026100 1.405300
20.049400 1.366300
20.072600 1.392200
20.095900 1.419300
20.119200 1.448400
20.142500 1.482500
20.165800 1.522600
20.189000 1.563000
20.212300 1.641600
20.235600 1.795800
20.258900 1.872600
20.282200 1.966800
20.305400 1.962700
20.328700 1.970800
20.352000 1.978300
20.375300 2.009600
20.398600 2.083400
20.421800 2.215700
20.445100 2.097400
20.468400 2.002500
20.491700 1.904600
20.515000 1.827200
20.538200 1.769200
20.561500 1.727000
20.584800 1.684800
20.608100 1.674400
20.631400 1.632400
20.654600 1.595500
20.677900 1.561200
20.701200 1.529800
20.724500 1.496200
20.747800 1.454800
20.771000 1.449300
20.794300 1.450800
20.817600 1.468700
20.840900 1.452500
20.864200 1.448400
20.887400 1.460000
20.910700 1.488900
20.934000 1.502700
20.957300 1.503600
20.980600 1.501200
21.003800 1.497100
21.027100 1.481500
21.050400 1.463500
21.073700 1.463700
21.097000 1.492000
21.120200 1.507200
21.143500 1.523400
21.166800 1.534800
21.190100 1.495000
21.213400 1.498500
21.236600 1.505200
21.259900 1.512000
21.283200 1.519100
21.306500 1.526700
21.329800 1.538100
21.353000 1.551500
21.376300 1.571800
21.399600 1.581000
21.422900 1.583500
21.446200 1.583800
21.469400 1.582600
21.492700 1.595300
21.516000 1.617900
21.539300 1.659000
21.562600 1.703600
21.585800 1.752700
21.609100 1.779300
21.632400 1.784500
21.655700 1.817900
21.679000 1.864300
21.702200 1.894900
21.725500 1.919700
21.748800 1.947300
21.772100 1.994200
21.795400 2.001800
21.818600 1.997500
21.841900 2.041300
21.865200 2.116600
21.888500 2.209400
21.911800 2.259800
21.935000 2.277000
21.958300 2.264300
21.981600 2.298100
22.004900 2.346800
22.028200 2.349700
22.051400 2.247200
22.074700 1.957900
22.098000 1.809500
22.121300 1.729000
22.144600 1.635900
22.167800 1.639200
22.191100 1.592500
22.214400 1.565300
22.237700 1.527900
22.261000 1.433500
22.284200 1.393400
22.307500 1.382100
22.330800 1.382600
22.354100 1.392000
22.377400 1.409500
22.400600 1.433600
22.423900 1.459100
22.447200 1.487300
22.470500 1.530600
22.493800 1.575500
22.517000 1.632700
22.540300 1.686300
22.563600 1.734700
22.586900 1.767600
22.610200 1.797700
22.633400 1.824800
22.656700 1.801500
22.680000 1.764000
22.703300 1.779600
22.726600 1.803100
22.749800 1.815800
22.773100 1.810900
22.796400 1.762600
22.819700 1.756700
22.843000 1.759900
22.866200 1.773200
22.889500 1.802500
22.912800 1.845700
22.936100 1.882200
22.959400 1.900300
22.982600 1.918200
23.005900 1.947500
23.029200 1.978400
23.052500 2.017300
23.075800 2.057300
23.099000 2.158100
23.122300 2.176500
23.145600 2.179600
23.168900 2.181500
23.192200 2.212000
23.215400 2.245600
23.238700 2.255100
23.262000 2.270500
23.285300 2.408000
23.308600 2.468900
23.331800 2.478800
23.355100 2.410600
23.378400 2.205600
23.401700 2.107900
23.425000 2.050800
23.448200 1.998100
23.471500 1.879300
23.494800 1.758800
23.518100 1.711100
23.541400 1.680700
23.564600 1.650600
23.587900 1.632300
23.611200 1.612800
23.634500 1.591200
23.657800 1.576900
23.681000 1.581400
23.704300 1.560200
23.727600 1.520500
23.750900 1.475100
23.774200 1.416900
23.797400 1.347200
23.820700 1.306700
23.844000 1.262400
23.867300 1.219500
23.890600 1.163000
23.913800 1.110600
23.937100 1.070000
23.960400 1.036600
23.983700 0.971100
24.007000 0.875200
24.030200 0.801100
24.053500 0.763000
24.076800 0.730800
24.100100 0.702600
24.123400 0.678400
24.146600 0.693500
24.169900 0.659100
24.193200 0.597300
24.216500 0.563100
24.239800 0.542600
24.263000 0.523500
24.286300 0.506000
24.309600 0.489800
24.332900 0.475100
24.356200 0.461200
24.379400 0.448200
24.402700 0.436000
24.426000 0.424500
24.449300 0.413700
24.472600 0.403600
24.495800 0.394900
24.519100 0.387500
24.542400 0.381900
24.565700 0.378000
24.589000 0.375500
24.612200 0.371500
24.635500 0.371600
24.658800 0.371900
24.682100 0.372200
24.705400 0.371900
24.728600 0.371000
24.751900 0.369500
24.775200 0.374700
24.798500 0.368600
24.821800 0.363900
24.845000 0.331600
24.868300 0.342100
24.891600 0.356000
24.914900 0.373300
24.938200 0.394800
24.961400 0.426800
24.984700 0.463600
25.008000 0.503000
25.031300 0.543800
25.054600 0.577200
25.077800 0.615600
25.101100 0.649000
25.124400 0.693100
25.147700 0.742400
25.171000 0.779100
25.194200 0.790700
25.217500 0.737300
25.240800 0.638200
25.264100 0.511200
25.287400 0.355300
25.310600 0.195700
25.333900 0.100500
25.357200 0.041500
25.380500 0.008500
25.403800 0.000000
25.427000 0.000000
25.450300 0.000000
25.473600 0.000000
25.496900 0.000000
25.520200 0.000000
25.543400 0.000000
25.566700 0.000000
25.590000 0.000000
25.613300 0.000000
25.636600 0.000000
25.659800 0.000000
25.683100 0.000000
25.706400 0.000000
25.729700 0.000000
25.753000 0.000000
25.776200 0.000000
25.799500 0.000000
25.822800 0.000000
25.846100 0.000000
25.869400 0.000000
25.892600 0.000000
25.915900 0.000000
25.939200 0.000000
25.962500 0.000000
25.985800 0.000000
26.009000 0.000000
26.032300 0.000000
26.055600 0.000000
26.078900 0.000000
26.102200 0.000000
26.125400 0.000000
26.148700 0.000000
26.172000 0.000000
26.195300 0.000000
26.218600 0.000000
26.241800 0.000000
26.265100 0.000000
26.288400 0.000000
26.311700 0.000000
26.335000 0.000000
26.358200 0.000000
26.381500 0.000000
26.404800 0.000000
26.428100 0.000000
26.451400 0.000000
26.474600 0.000000
26.497900 0.000000
26.521200 0.000000
26.544500 0.000000
26.567800 0.000000
26.591000 0.000000
26.614300 0.000000
26.637600 0.000000
26.660900 0.000000
26.684200 0.000000
26.707400 0.000000
26.730700 0.000000
26.754000 0.000000
26.777300 0.000000
26.800600 0.000000
26.823800 0.000000
26.847100 0.000000
26.870400 0.000000
26.893700 0.000000
26.917000 0.000000
26.940200 0.000000
26.963500 0.000000
26.986800 0.000000
27.010100 0.000000
27.033400 0.000000
27.056600 0.000000
27.079900 0.000000
27.103200 0.000000
27.126500 0.000000
27.149800 0.000000
27.173000 0.000000
27.196300 0.000000
27.219600 0.000000
27.242900 0.000000
27.266200 0.000000
27.289400 0.000000
27.312700 0.000000
27.336000 0.000000
27.359300 0.000000
27.382600 0.000000
27.405800 0.000000
27.429100 0.000000
27.452400 0.000000
27.475700 0.000000
27.499000 0.000000
27.522200 0.000000
e
