set title 'mp-1183665 - Density of States'
set xlabel 'Energy (eV)'
set ylabel 'DOS (states/eV)'
set grid
set xrange [-10:10]
set yrange [0:53.612]
set xzeroaxis lt -1
set terminal png size 800,600
set output 'mp-1183665_dos_gnuplot.png'
plot '-' using 1:2 with lines title 'DOS'
-12.517000 0.000000
-12.498000 0.000000
-12.479100 0.000000
-12.460200 0.000000
-12.441300 0.000000
-12.422300 0.000000
-12.403400 0.000000
-12.384500 0.000000
-12.365600 0.000000
-12.346600 0.000000
-12.327700 0.000000
-12.308800 0.000000
-12.289900 0.000000
-12.270900 0.000000
-12.252000 0.000000
-12.233100 0.000000
-12.214200 0.000000
-12.195200 0.000000
-12.176300 0.000000
-12.157400 0.000000
-12.138500 0.000000
-12.119500 0.000000
-12.100600 0.000000
-12.081700 0.000000
-12.062800 0.000000
-12.043800 0.000000
-12.024900 0.000000
-12.006000 0.000000
-11.987100 0.000000
-11.968100 0.000000
-11.949200 0.000000
-11.930300 0.000000
-11.911400 0.000000
-11.892400 0.000000
-11.873500 0.000000
-11.854600 0.000000
-11.835700 0.000000
-11.816700 0.000000
-11.797800 0.000000
-11.778900 0.000000
-11.760000 0.000000
-11.741100 0.000000
-11.722100 0.000000
-11.703200 0.000000
-11.684300 0.000000
-11.665400 0.000000
-11.646400 0.000000
-11.627500 0.000000
-11.608600 0.000000
-11.589700 0.000000
-11.570700 0.000000
-11.551800 0.000000
-11.532900 0.000000
-11.514000 0.000000
-11.495000 0.000000
-11.476100 0.000000
-11.457200 0.000000
-11.438300 0.000000
-11.419300 0.000000
-11.400400 0.000000
-11.381500 0.000000
-11.362600 0.000000
-11.343600 0.000000
-11.324700 0.000000
-11.305800 0.000000
-11.286900 0.000000
-11.267900 0.000000
-11.249000 0.000000
-11.230100 0.000000
-11.211200 0.000000
-11.192200 0.000000
-11.173300 0.000000
-11.154400 0.000000
-11.135500 0.000000
-11.116500 0.000000
-11.097600 0.000000
-11.078700 0.000000
-11.059800 0.000000
-11.040800 0.000000
-11.021900 0.000000
-11.003000 0.000000
-10.984100 0.000000
-10.965100 0.000000
-10.946200 0.000000
-10.927300 0.000000
-10.908400 0.000300
-10.889400 0.001700
-10.870500 0.007700
-10.851600 0.028300
-10.832700 0.084100
-10.813700 0.207300
-10.794800 0.430100
-10.775900 0.759900
-10.757000 1.147700
-10.738000 1.484400
-10.719100 1.655500
-10.700200 1.643300
-10.681300 1.587000
-10.662400 1.698000
-10.643400 2.048600
-10.624500 2.442000
-10.605600 2.569100
-10.586700 2.336800
-10.567700 1.992400
-10.548800 1.891200
-10.529900 2.197800
-10.511000 2.810600
-10.492000 3.463900
-10.473100 3.888700
-10.454200 4.003500
-10.435300 4.057600
-10.416300 4.589500
-10.397400 6.080200
-10.378500 8.368600
-10.359600 10.389200
-10.340600 10.813700
-10.321700 9.172500
-10.302800 6.264200
-10.283900 3.417600
-10.264900 1.478800
-10.246000 0.503800
-10.227100 0.134200
-10.208200 0.027800
-10.189200 0.004400
-10.170300 0.000500
-10.151400 0.000100
-10.132500 0.000000
-10.113500 0.000000
-10.094600 0.000000
-10.075700 0.000000
-10.056800 0.000000
-10.037800 0.000000
-10.018900 0.000000
-10.000000 0.000000
-9.981100 0.000000
-9.962100 0.000000
-9.943200 0.000000
-9.924300 0.000000
-9.905400 0.000000
-9.886400 0.000000
-9.867500 0.000000
-9.848600 0.000000
-9.829700 0.000000
-9.810700 0.000000
-9.791800 0.000000
-9.772900 0.000000
-9.754000 0.000000
-9.735000 0.000000
-9.716100 0.000000
-9.697200 0.000000
-9.678300 0.000000
-9.659300 0.000000
-9.640400 0.000000
-9.621500 0.000000
-9.602600 0.000000
-9.583700 0.000000
-9.564700 0.000000
-9.545800 0.000000
-9.526900 0.000000
-9.508000 0.000000
-9.489000 0.000000
-9.470100 0.000000
-9.451200 0.000000
-9.432300 0.000000
-9.413300 0.000000
-9.394400 0.000000
-9.375500 0.000000
-9.356600 0.000000
-9.337600 0.000000
-9.318700 0.000000
-9.299800 0.000000
-9.280900 0.000000
-9.261900 0.000000
-9.243000 0.000000
-9.224100 0.000000
-9.205200 0.000000
-9.186200 0.000000
-9.167300 0.000000
-9.148400 0.000000
-9.129500 0.000000
-9.110500 0.000000
-9.091600 0.000000
-9.072700 0.000000
-9.053800 0.000000
-9.034800 0.000000
-9.015900 0.000000
-8.997000 0.000000
-8.978100 0.000000
-8.959100 0.000000
-8.940200 0.000000
-8.921300 0.000000
-8.902400 0.000000
-8.883400 0.000000
-8.864500 0.000000
-8.845600 0.000000
-8.826700 0.000000
-8.807700 0.000000
-8.788800 0.000000
-8.769900 0.000000
-8.751000 0.000000
-8.732000 0.000000
-8.713100 0.000000
-8.694200 0.000000
-8.675300 0.000000
-8.656300 0.000000
-8.637400 0.000000
-8.618500 0.000000
-8.599600 0.000000
-8.580600 0.000000
-8.561700 0.000000
-8.542800 0.000000
-8.523900 0.000000
-8.504900 0.000000
-8.486000 0.000000
-8.467100 0.000000
-8.448200 0.000000
-8.429300 0.000000
-8.410300 0.000000
-8.391400 0.000000
-8.372500 0.000000
-8.353600 0.000000
-8.334600 0.000000
-8.315700 0.000000
-8.296800 0.000000
-8.277900 0.000000
-8.258900 0.000000
-8.240000 0.000000
-8.221100 0.000000
-8.202200 0.000000
-8.183200 0.000000
-8.164300 0.000000
-8.145400 0.000000
-8.126500 0.000000
-8.107500 0.000000
-8.088600 0.000000
-8.069700 0.000000
-8.050800 0.000000
-8.031800 0.000000
-8.012900 0.000000
-7.994000 0.000000
-7.975100 0.000000
-7.956100 0.000000
-7.937200 0.000000
-7.918300 0.000000
-7.899400 0.000000
-7.880400 0.000000
-7.861500 0.000000
-7.842600 0.000000
-7.823700 0.000000
-7.804700 0.000000
-7.785800 0.000000
-7.766900 0.000000
-7.748000 0.000000
-7.729000 0.000000
-7.710100 0.000000
-7.691200 0.000000
-7.672300 0.000000
-7.653300 0.000000
-7.634400 0.000000
-7.615500 0.000000
-7.596600 0.000300
-7.577600 0.002100
-7.558700 0.010000
-7.539800 0.037200
-7.520900 0.111800
-7.501900 0.276300
-7.483000 0.570900
-7.464100 0.992000
-7.445200 1.442800
-7.426200 1.747000
-7.407300 1.791800
-7.388400 1.705800
-7.369500 1.826800
-7.350600 2.366300
-7.331600 3.086600
-7.312700 3.454000
-7.293800 3.210300
-7.274900 2.716100
-7.255900 2.651300
-7.237000 3.415400
-7.218100 4.831900
-7.199200 6.382000
-7.180200 7.623400
-7.161300 8.336700
-7.142400 8.474000
-7.123500 8.201000
-7.104500 7.849100
-7.085600 7.621800
-7.066700 7.470500
-7.047800 7.320600
-7.028800 7.209100
-7.009900 7.150100
-6.991000 7.058300
-6.972100 6.924100
-6.953100 7.003000
-6.934200 7.668000
-6.915300 8.973700
-6.896400 10.498600
-6.877400 11.760600
-6.858500 12.674100
-6.839600 13.507900
-6.820700 14.609900
-6.801700 16.295200
-6.782800 18.682600
-6.763900 21.375800
-6.745000 23.526800
-6.726000 24.436500
-6.707100 24.056400
-6.688200 23.000800
-6.669300 22.188800
-6.650300 22.266600
-6.631400 23.235300
-6.612500 24.839100
-6.593600 27.320900
-6.574600 31.360500
-6.555700 36.981100
-6.536800 42.850800
-6.517900 47.106900
-6.498900 48.737900
-6.480000 48.005300
-6.461100 45.938400
-6.442200 43.692400
-6.423200 42.011200
-6.404300 40.893400
-6.385400 39.776700
-6.366500 38.222400
-6.347500 36.404000
-6.328600 34.846500
-6.309700 33.806000
-6.290800 32.988100
-6.271800 31.754300
-6.252900 29.597800
-6.234000 26.653900
-6.215100 23.881100
-6.196200 22.572200
-6.177200 23.439900
-6.158300 25.994100
-6.139400 28.722800
-6.120500 29.999700
-6.101500 29.013200
-6.082600 26.000000
-6.063700 21.857900
-6.044800 17.687100
-6.025800 14.448800
-6.006900 12.602200
-5.988000 11.862600
-5.969100 11.430500
-5.950100 10.574800
-5.931200 9.021900
-5.912300 6.939200
-5.893400 4.758200
-5.874400 2.967400
-5.855500 1.854400
-5.836600 1.351000
-5.817700 1.178000
-5.798700 1.163000
-5.779800 1.354000
-5.760900 1.791600
-5.742000 2.269100
-5.723000 2.439800
-5.704100 2.141800
-5.685200 1.527200
-5.666300 0.897900
-5.647300 0.488700
-5.628400 0.384700
-5.609500 0.543000
-5.590600 0.829900
-5.571600 1.082700
-5.552700 1.214900
-5.533800 1.240400
-5.514900 1.176600
-5.495900 1.007300
-5.477000 0.763100
-5.458100 0.530400
-5.439200 0.358900
-5.420200 0.233900
-5.401300 0.134700
-5.382400 0.063100
-5.363500 0.023000
-5.344500 0.006400
-5.325600 0.001400
-5.306700 0.000200
-5.287800 0.000000
-5.268800 0.000000
-5.249900 0.000000
-5.231000 0.000000
-5.212100 0.000000
-5.193100 0.000000
-5.174200 0.000000
-5.155300 0.000000
-5.136400 0.000000
-5.117500 0.000000
-5.098500 0.000000
-5.079600 0.000000
-5.060700 0.000000
-5.041800 0.000000
-5.022800 0.000000
-5.003900 0.000000
-4.985000 0.000000
-4.966100 0.000000
-4.947100 0.000000
-4.928200 0.000000
-4.909300 0.000000
-4.890400 0.000000
-4.871400 0.000000
-4.852500 0.000000
-4.833600 0.000000
-4.814700 0.000000
-4.795700 0.000000
-4.776800 0.000000
-4.757900 0.000000
-4.739000 0.000000
-4.720000 0.000000
-4.701100 0.000000
-4.682200 0.000000
-4.663300 0.000000
-4.644300 0.000000
-4.625400 0.000000
-4.606500 0.000000
-4.587600 0.000000
-4.568600 0.000000
-4.549700 0.000000
-4.530800 0.000000
-4.511900 0.000000
-4.492900 0.000000
-4.474000 0.000100
-4.455100 0.000600
-4.436200 0.002600
-4.417200 0.008000
-4.398300 0.018800
-4.379400 0.033700
-4.360500 0.048000
-4.341500 0.059000
-4.322600 0.071700
-4.303700 0.095200
-4.284800 0.133200
-4.265800 0.183200
-4.246900 0.240400
-4.228000 0.293200
-4.209100 0.323600
-4.190100 0.319000
-4.171200 0.278700
-4.152300 0.215200
-4.133400 0.159000
-4.114400 0.150300
-4.095500 0.209500
-4.076600 0.309400
-4.057700 0.388100
-4.038800 0.403800
-4.019800 0.370200
-4.000900 0.324700
-3.982000 0.286000
-3.963100 0.267200
-3.944100 0.303300
-3.925200 0.425200
-3.906300 0.610100
-3.887400 0.777400
-3.868400 0.842500
-3.849500 0.777100
-3.830600 0.628800
-3.811700 0.489200
-3.792700 0.438900
-3.773800 0.495100
-3.754900 0.585200
-3.736000 0.598700
-3.717000 0.499100
-3.698100 0.364400
-3.679200 0.303000
-3.660300 0.363300
-3.641300 0.530800
-3.622400 0.756300
-3.603500 0.961000
-3.584600 1.062700
-3.565600 1.051000
-3.546700 1.015200
-3.527800 1.068500
-3.508900 1.258900
-3.489900 1.562700
-3.471000 1.926700
-3.452100 2.288300
-3.433200 2.576100
-3.414200 2.741400
-3.395300 2.798800
-3.376400 2.794900
-3.357500 2.733500
-3.338500 2.591400
-3.319600 2.398100
-3.300700 2.208600
-3.281800 2.003300
-3.262800 1.711000
-3.243900 1.332200
-3.225000 0.987600
-3.206100 0.860100
-3.187100 1.086300
-3.168200 1.622900
-3.149300 2.200200
-3.130400 2.507000
-3.111400 2.464000
-3.092500 2.249400
-3.073600 2.056100
-3.054700 1.904400
-3.035700 1.693100
-3.016800 1.362500
-2.997900 0.975600
-2.979000 0.660600
-2.960000 0.493600
-2.941100 0.440200
-2.922200 0.413500
-2.903300 0.378600
-2.884400 0.380500
-2.865400 0.471200
-2.846500 0.640700
-2.827600 0.823700
-2.808700 0.947300
-2.789700 0.976200
-2.770800 0.940900
-2.751900 0.926600
-2.733000 1.022900
-2.714000 1.268300
-2.695100 1.596000
-2.676200 1.827200
-2.657300 1.790100
-2.638300 1.496200
-2.619400 1.147800
-2.600500 0.930300
-2.581600 0.854900
-2.562600 0.831100
-2.543700 0.824900
-2.524800 0.884300
-2.505900 1.020400
-2.486900 1.128400
-2.468000 1.090100
-2.449100 0.928700
-2.430200 0.776800
-2.411200 0.703300
-2.392300 0.666900
-2.373400 0.636700
-2.354500 0.654700
-2.335500 0.753800
-2.316600 0.886800
-2.297700 0.966700
-2.278800 0.964800
-2.259800 0.964000
-2.240900 1.098000
-2.222000 1.397200
-2.203100 1.707000
-2.184100 1.812000
-2.165200 1.651400
-2.146300 1.367100
-2.127400 1.144200
-2.108400 1.058000
-2.089500 1.055600
-2.070600 1.024700
-2.051700 0.900100
-2.032700 0.743000
-2.013800 0.683900
-1.994900 0.761900
-1.976000 0.865300
-1.957000 0.869100
-1.938100 0.791800
-1.919200 0.766100
-1.900300 0.890000
-1.881300 1.152900
-1.862400 1.468600
-1.843500 1.739200
-1.824600 1.916800
-1.805700 2.027000
-1.786700 2.113400
-1.767800 2.178900
-1.748900 2.227600
-1.730000 2.339000
-1.711000 2.607300
-1.692100 2.967700
-1.673200 3.149400
-1.654300 2.907700
-1.635300 2.307800
-1.616400 1.678100
-1.597500 1.272700
-1.578600 1.090400
-1.559600 1.025200
-1.540700 1.041600
-1.521800 1.135300
-1.502900 1.226100
-1.483900 1.202300
-1.465000 1.064500
-1.446100 0.959800
-1.427200 1.046200
-1.408200 1.327700
-1.389300 1.648100
-1.370400 1.874000
-1.351500 2.048700
-1.332500 2.303500
-1.313600 2.641700
-1.294700 2.900600
-1.275800 2.944000
-1.256800 2.818200
-1.237900 2.669600
-1.219000 2.559000
-1.200100 2.430600
-1.181100 2.247600
-1.162200 2.078700
-1.143300 2.018600
-1.124400 2.059700
-1.105400 2.084200
-1.086500 1.977100
-1.067600 1.716400
-1.048700 1.379000
-1.029700 1.115200
-1.010800 1.075900
-0.991900 1.282300
-0.973000 1.580600
-0.954000 1.767800
-0.935100 1.757200
-0.916200 1.622600
-0.897300 1.506900
-0.878300 1.489700
-0.859400 1.514200
-0.840500 1.437200
-0.821600 1.181900
-0.802600 0.849200
-0.783700 0.649700
-0.764800 0.730200
-0.745900 1.084800
-0.726900 1.600200
-0.708000 2.137800
-0.689100 2.572900
-0.670200 2.812700
-0.651300 2.836500
-0.632300 2.731200
-0.613400 2.651400
-0.594500 2.708500
-0.575600 2.867000
-0.556600 2.953100
-0.537700 2.806500
-0.518800 2.435000
-0.499900 2.008300
-0.480900 1.720200
-0.462000 1.644200
-0.443100 1.678100
-0.424200 1.647400
-0.405200 1.489000
-0.386300 1.306400
-0.367400 1.225800
-0.348500 1.241500
-0.329500 1.240900
-0.310600 1.153600
-0.291700 1.031000
-0.272800 0.976400
-0.253800 1.039200
-0.234900 1.197100
-0.216000 1.395300
-0.197100 1.573100
-0.178100 1.709000
-0.159200 1.869000
-0.140300 2.137900
-0.121400 2.473800
-0.102400 2.709500
-0.083500 2.720200
-0.064600 2.513100
-0.045700 2.173500
-0.026700 1.824300
-0.007800 1.611500
0.011100 1.630600
0.030000 1.852500
0.049000 2.138200
0.067900 2.323700
0.086800 2.333200
0.105700 2.251200
0.124700 2.260800
0.143600 2.474800
0.162500 2.820500
0.181400 3.097800
0.200400 3.148200
0.219300 2.964700
0.238200 2.656400
0.257100 2.338900
0.276100 2.076900
0.295000 1.891700
0.313900 1.768700
0.332800 1.662700
0.351800 1.537500
0.370700 1.420600
0.389600 1.394600
0.408500 1.503200
0.427400 1.673100
0.446400 1.759700
0.465300 1.694700
0.484200 1.567100
0.503100 1.509500
0.522100 1.532300
0.541000 1.532400
0.559900 1.429300
0.578800 1.232300
0.597800 1.015300
0.616700 0.889600
0.635600 0.970900
0.654500 1.299700
0.673500 1.770500
0.692400 2.184100
0.711300 2.407700
0.730200 2.477300
0.749200 2.535300
0.768100 2.687100
0.787000 2.916900
0.805900 3.110300
0.824900 3.140900
0.843800 2.960800
0.862700 2.627100
0.881600 2.234500
0.900600 1.849800
0.919500 1.513400
0.938400 1.239800
0.957300 1.011100
0.976300 0.836600
0.995200 0.808400
1.014100 1.050000
1.033000 1.600500
1.052000 2.342600
1.070900 3.013000
1.089800 3.330600
1.108700 3.224000
1.127700 2.945900
1.146600 2.849300
1.165500 3.025300
1.184400 3.258700
1.203400 3.327100
1.222300 3.212400
1.241200 3.028000
1.260100 2.878500
1.279100 2.807500
1.298000 2.794100
1.316900 2.787200
1.335800 2.770600
1.354800 2.749700
1.373700 2.673800
1.392600 2.470700
1.411500 2.174100
1.430500 1.922100
1.449400 1.808400
1.468300 1.801600
1.487200 1.810000
1.506100 1.775800
1.525100 1.704100
1.544000 1.636400
1.562900 1.605900
1.581800 1.604000
1.600800 1.572600
1.619700 1.434000
1.638600 1.158400
1.657500 0.817400
1.676500 0.552200
1.695400 0.471500
1.714300 0.577500
1.733200 0.785300
1.752200 1.016900
1.771100 1.257500
1.790000 1.486100
1.808900 1.591100
1.827900 1.459800
1.846800 1.154800
1.865700 0.901900
1.884600 0.874500
1.903600 1.040500
1.922500 1.234700
1.941400 1.348600
1.960300 1.407500
1.979300 1.476900
1.998200 1.564600
2.017100 1.638300
2.036000 1.688100
2.055000 1.739100
2.073900 1.798500
2.092800 1.808700
2.111700 1.695200
2.130700 1.479200
2.149600 1.295100
2.168500 1.262300
2.187400 1.348800
2.206400 1.386500
2.225300 1.238400
2.244200 0.936400
2.263100 0.641400
2.282100 0.494600
2.301000 0.522900
2.319900 0.648700
2.338800 0.761600
2.357800 0.796600
2.376700 0.774700
2.395600 0.764000
2.414500 0.789200
2.433500 0.802100
2.452400 0.766700
2.471300 0.742300
2.490200 0.834700
2.509200 1.074900
2.528100 1.385500
2.547000 1.659800
2.565900 1.824900
2.584900 1.833300
2.603800 1.668200
2.622700 1.392200
2.641600 1.144200
2.660500 1.041600
2.679500 1.083000
2.698400 1.154500
2.717300 1.133600
2.736200 0.982100
2.755200 0.747300
2.774100 0.510600
2.793000 0.345500
2.811900 0.290200
2.830900 0.339200
2.849800 0.473600
2.868700 0.690400
2.887600 0.981200
2.906600 1.294500
2.925500 1.552800
2.944400 1.721100
2.963300 1.831700
2.982300 1.910800
3.001200 1.909700
3.020100 1.760800
3.039000 1.490700
3.058000 1.222900
3.076900 1.062600
3.095800 1.013000
3.114700 1.009600
3.133700 1.018700
3.152600 1.101700
3.171500 1.377800
3.190400 1.868900
3.209400 2.377300
3.228300 2.624000
3.247200 2.535800
3.266100 2.293700
3.285100 2.083000
3.304000 1.931800
3.322900 1.807000
3.341800 1.724500
3.360800 1.717500
3.379700 1.770800
3.398600 1.809900
3.417500 1.748600
3.436500 1.577300
3.455400 1.397100
3.474300 1.328900
3.493200 1.407300
3.512200 1.577400
3.531100 1.748300
3.550000 1.836800
3.568900 1.796800
3.587900 1.636400
3.606800 1.421300
3.625700 1.254000
3.644600 1.203000
3.663600 1.253900
3.682500 1.373500
3.701400 1.585500
3.720300 1.890000
3.739200 2.155000
3.758200 2.216300
3.777100 2.076300
3.796000 1.892800
3.814900 1.780100
3.833900 1.713700
3.852800 1.635300
3.871700 1.560100
3.890600 1.530000
3.909600 1.518700
3.928500 1.459400
3.947400 1.353100
3.966300 1.279000
3.985300 1.293300
4.004200 1.366500
4.023100 1.432000
4.042000 1.480500
4.061000 1.600900
4.079900 1.886500
4.098800 2.269900
4.117700 2.513700
4.136700 2.428300
4.155600 2.056200
4.174500 1.604200
4.193400 1.255900
4.212400 1.087700
4.231300 1.104400
4.250200 1.271200
4.269100 1.492700
4.288100 1.627100
4.307000 1.603100
4.325900 1.517500
4.344800 1.536200
4.363800 1.674300
4.382700 1.747400
4.401600 1.601700
4.420500 1.337600
4.439500 1.225400
4.458400 1.429700
4.477300 1.861500
4.496200 2.270300
4.515200 2.443900
4.534100 2.341800
4.553000 2.084900
4.571900 1.850700
4.590900 1.764000
4.609800 1.853100
4.628700 2.081400
4.647600 2.390000
4.666600 2.693300
4.685500 2.882900
4.704400 2.914800
4.723300 2.888200
4.742300 2.948300
4.761200 3.083500
4.780100 3.098200
4.799000 2.845900
4.817900 2.419700
4.836900 2.039400
4.855800 1.832800
4.874700 1.807600
4.893600 1.929700
4.912600 2.125500
4.931500 2.289100
4.950400 2.370800
4.969300 2.409500
4.988300 2.453000
5.007200 2.501900
5.026100 2.535200
5.045000 2.542400
5.064000 2.528900
5.082900 2.519900
5.101800 2.553300
5.120700 2.640900
5.139700 2.747200
5.158600 2.813100
5.177500 2.783100
5.196400 2.637800
5.215400 2.429400
5.234300 2.237400
5.253200 2.090500
5.272100 2.014300
5.291100 2.098000
5.310000 2.375400
5.328900 2.693300
5.347800 2.838300
5.366800 2.760700
5.385700 2.581000
5.404600 2.418700
5.423500 2.277400
5.442500 2.080400
5.461400 1.790800
5.480300 1.478400
5.499200 1.266600
5.518200 1.232000
5.537100 1.358200
5.556000 1.556800
5.574900 1.728100
5.593900 1.816100
5.612800 1.813900
5.631700 1.739800
5.650600 1.628700
5.669600 1.526600
5.688500 1.461200
5.707400 1.423300
5.726300 1.385700
5.745300 1.322800
5.764200 1.214700
5.783100 1.067500
5.802000 0.926000
5.821000 0.842900
5.839900 0.854100
5.858800 0.991800
5.877700 1.251900
5.896700 1.519500
5.915600 1.605000
5.934500 1.417200
5.953400 1.062900
5.972300 0.739100
5.991300 0.560900
6.010200 0.514100
6.029100 0.543700
6.048000 0.662700
6.067000 0.952900
6.085900 1.442500
6.104800 2.006400
6.123700 2.438800
6.142700 2.627600
6.161600 2.624000
6.180500 2.555000
6.199400 2.499800
6.218400 2.450700
6.237300 2.353900
6.256200 2.158000
6.275100 1.858400
6.294100 1.565200
6.313000 1.503000
6.331900 1.834200
6.350800 2.442700
6.369800 2.970400
6.388700 3.125100
6.407600 2.921300
6.426500 2.607500
6.445500 2.413100
6.464400 2.370400
6.483300 2.361300
6.502200 2.317800
6.521200 2.314900
6.540100 2.436800
6.559000 2.649400
6.577900 2.862700
6.596900 3.041400
6.615800 3.185100
6.634700 3.248700
6.653600 3.163000
6.672600 2.928200
6.691500 2.630000
6.710400 2.363400
6.729300 2.179400
6.748300 2.086400
6.767200 2.062000
6.786100 2.049100
6.805000 1.981400
6.824000 1.870700
6.842900 1.852200
6.861800 2.074800
6.880700 2.524000
6.899700 2.985700
6.918600 3.241600
6.937500 3.297900
6.956400 3.334000
6.975400 3.436300
6.994300 3.517100
7.013200 3.494200
7.032100 3.402400
7.051000 3.297500
7.070000 3.170300
7.088900 2.985900
7.107800 2.711800
7.126700 2.320700
7.145700 1.851800
7.164600 1.438300
7.183500 1.210500
7.202400 1.197200
7.221400 1.331800
7.240300 1.510200
7.259200 1.653100
7.278100 1.755200
7.297100 1.861500
7.316000 1.980900
7.334900 2.064400
7.353800 2.074900
7.372800 2.027100
7.391700 1.958800
7.410600 1.908000
7.429500 1.901200
7.448500 1.922500
7.467400 1.912900
7.486300 1.837000
7.505200 1.731300
7.524200 1.654100
7.543100 1.604300
7.562000 1.527500
7.580900 1.382800
7.599900 1.184500
7.618800 0.992500
7.637700 0.873200
7.656600 0.869500
7.675600 1.014900
7.694500 1.333400
7.713400 1.767900
7.732300 2.139700
7.751300 2.268300
7.770200 2.158600
7.789100 2.007000
7.808000 1.997200
7.827000 2.127800
7.845900 2.251000
7.864800 2.238900
7.883700 2.098100
7.902700 1.950100
7.921600 1.897200
7.940500 1.912600
7.959400 1.911400
7.978400 1.907500
7.997300 1.994600
8.016200 2.175600
8.035100 2.301500
8.054100 2.204500
8.073000 1.874400
8.091900 1.499200
8.110800 1.313500
8.129800 1.403000
8.148700 1.667900
8.167600 1.945500
8.186500 2.128900
8.205400 2.183000
8.224400 2.102400
8.243300 1.908600
8.262200 1.692400
8.281100 1.585800
8.300100 1.624700
8.319000 1.681500
8.337900 1.599200
8.356800 1.383900
8.375800 1.223200
8.394700 1.319100
8.413600 1.713000
8.432500 2.245600
8.451500 2.653400
8.470400 2.721100
8.489300 2.405100
8.508200 1.862100
8.527200 1.353800
8.546100 1.074500
8.565000 1.043800
8.583900 1.154000
8.602900 1.278900
8.621800 1.340300
8.640700 1.341400
8.659600 1.349300
8.678600 1.415200
8.697500 1.530300
8.716400 1.666700
8.735300 1.807500
8.754300 1.918100
8.773200 1.948400
8.792100 1.916200
8.811000 1.934800
8.830000 2.085300
8.848900 2.293100
8.867800 2.393700
8.886700 2.305600
8.905700 2.096100
8.924600 1.898700
8.943500 1.798400
8.962400 1.775500
8.981400 1.738300
9.000300 1.625100
9.019200 1.474600
9.038100 1.393600
9.057100 1.469100
9.076000 1.694000
9.094900 1.930400
9.113800 1.974200
9.132800 1.731500
9.151700 1.329100
9.170600 1.014600
9.189500 0.966500
9.208500 1.205400
9.227400 1.620800
9.246300 2.033100
9.265200 2.269200
9.284100 2.257300
9.303100 2.080600
9.322000 1.899300
9.340900 1.796600
9.359800 1.744100
9.378800 1.728800
9.397700 1.831000
9.416600 2.134700
9.435500 2.588500
9.454500 2.978600
9.473400 3.065900
9.492300 2.789400
9.511200 2.334100
9.530200 1.974900
9.549100 1.862100
9.568000 1.954500
9.586900 2.104900
9.605900 2.183700
9.624800 2.164100
9.643700 2.119700
9.662600 2.135600
9.681600 2.215200
9.700500 2.263600
9.719400 2.174000
9.738300 1.943500
9.757300 1.700000
9.776200 1.613700
9.795100 1.763200
9.814000 2.057200
9.833000 2.300900
9.851900 2.364900
9.870800 2.299000
9.889700 2.298100
9.908700 2.536700
9.927600 3.000700
9.946500 3.504700
9.965400 3.862400
9.984400 3.975200
10.003300 3.798100
10.022200 3.333100
10.041100 2.660800
10.060100 1.929600
10.079000 1.311200
10.097900 0.951800
10.116800 0.925200
10.135800 1.209100
10.154700 1.704600
10.173600 2.272400
10.192500 2.750500
10.211500 2.984700
10.230400 2.894600
10.249300 2.518700
10.268200 2.008700
10.287200 1.574300
10.306100 1.360800
10.325000 1.349800
10.343900 1.416400
10.362800 1.466600
10.381800 1.486700
10.400700 1.507600
10.419600 1.565300
10.438500 1.659300
10.457500 1.748000
10.476400 1.821100
10.495300 1.936800
10.514200 2.148400
10.533200 2.456400
10.552100 2.840000
10.571000 3.226900
10.589900 3.458700
10.608900 3.454700
10.627800 3.388600
10.646700 3.502300
10.665600 3.745000
10.684600 3.785100
10.703500 3.408800
10.722400 2.749400
10.741300 2.090100
10.760300 1.590100
10.779200 1.267600
10.798100 1.135500
10.817000 1.259000
10.836000 1.685200
10.854900 2.335300
10.873800 2.988900
10.892700 3.430900
10.911700 3.645900
10.930600 3.809900
10.949500 4.050100
10.968400 4.275000
10.987400 4.301000
11.006300 4.070500
11.025200 3.656700
11.044100 3.142500
11.063100 2.620400
11.082000 2.235700
11.100900 2.091900
11.119800 2.134300
11.138800 2.222900
11.157700 2.303200
11.176600 2.411400
11.195500 2.513400
11.214500 2.483200
11.233400 2.289000
11.252300 2.067600
11.271200 1.960900
11.290200 1.986200
11.309100 2.118600
11.328000 2.395300
11.346900 2.840200
11.365900 3.325300
11.384800 3.615200
11.403700 3.578000
11.422600 3.320100
11.441600 3.121000
11.460500 3.211700
11.479400 3.530500
11.498300 3.717500
11.517200 3.468500
11.536200 2.871700
11.555100 2.293800
11.574000 2.004300
11.592900 2.015000
11.611900 2.206400
11.630800 2.475700
11.649700 2.741700
11.668600 2.874200
11.687600 2.733000
11.706500 2.354200
11.725400 2.020700
11.744300 2.021400
11.763300 2.348700
11.782200 2.712200
11.801100 2.839200
11.820000 2.685800
11.839000 2.377900
11.857900 2.058200
11.876800 1.830900
11.895700 1.770300
11.914700 1.888500
11.933600 2.085400
11.952500 2.202900
11.971400 2.170400
11.990400 2.071700
12.009300 2.050300
12.028200 2.171700
12.047100 2.393800
12.066100 2.639500
12.085000 2.835300
12.103900 2.895500
12.122800 2.780500
12.141800 2.598500
12.160700 2.555100
12.179600 2.765300
12.198500 3.163900
12.217500 3.578600
12.236400 3.826900
12.255300 3.779400
12.274200 3.432400
12.293200 2.915400
12.312100 2.382800
12.331000 1.946400
12.349900 1.728300
12.368900 1.865400
12.387800 2.372700
12.406700 3.028000
12.425600 3.473000
12.444600 3.499500
12.463500 3.228100
12.482400 2.961800
12.501300 2.891200
12.520300 2.986700
12.539200 3.141400
12.558100 3.348400
12.577000 3.675700
12.595900 4.065300
12.614900 4.276500
12.633800 4.120900
12.652700 3.666800
12.671600 3.131300
12.690600 2.672700
12.709500 2.343000
12.728400 2.134900
12.747300 2.014500
12.766300 1.959200
12.785200 1.980000
12.804100 2.108200
12.823000 2.395500
12.842000 2.881000
12.860900 3.454900
12.879800 3.809500
12.898700 3.690700
12.917700 3.187100
12.936600 2.623100
12.955500 2.200600
12.974400 1.902700
12.993400 1.697200
13.012300 1.654500
13.031200 1.843200
13.050100 2.208800
13.069100 2.572100
13.088000 2.728900
13.106900 2.603600
13.125800 2.340700
13.144800 2.196600
13.163700 2.309700
13.182600 2.622100
13.201500 3.031700
13.220500 3.523000
13.239400 4.059600
13.258300 4.435900
13.277200 4.415200
13.296200 4.022100
13.315100 3.557800
13.334000 3.303600
13.352900 3.290400
13.371900 3.348200
13.390800 3.308600
13.409700 3.159000
13.428600 3.025100
13.447600 2.999500
13.466500 3.024300
13.485400 2.984500
13.504300 2.876800
13.523300 2.818400
13.542200 2.882700
13.561100 2.972100
13.580000 2.906900
13.599000 2.645000
13.617900 2.341400
13.636800 2.159400
13.655700 2.109400
13.674700 2.112900
13.693600 2.118300
13.712500 2.105800
13.731400 2.078300
13.750300 2.083100
13.769300 2.162800
13.788200 2.273500
13.807100 2.324700
13.826000 2.303400
13.845000 2.289000
13.863900 2.316800
13.882800 2.295900
13.901700 2.124900
13.920700 1.823200
13.939600 1.486200
13.958500 1.191000
13.977400 1.011200
13.996400 1.048600
14.015300 1.372600
14.034200 1.926400
14.053100 2.522300
14.072100 2.955900
14.091000 3.134700
14.109900 3.098800
14.128800 2.961600
14.147800 2.847400
14.166700 2.808700
14.185600 2.784300
14.204500 2.716100
14.223500 2.675700
14.242400 2.776900
14.261300 3.014400
14.280200 3.275300
14.299200 3.441700
14.318100 3.439700
14.337000 3.287400
14.355900 3.108100
14.374900 2.990700
14.393800 2.869200
14.412700 2.655500
14.431600 2.437600
14.450600 2.411700
14.469500 2.635700
14.488400 2.961400
14.507300 3.204900
14.526300 3.283500
14.545200 3.201500
14.564100 3.034000
14.583000 2.942500
14.602000 3.090700
14.620900 3.480900
14.639800 3.904600
14.658700 4.097400
14.677700 3.957900
14.696600 3.607400
14.715500 3.233000
14.734400 2.901800
14.753400 2.575800
14.772300 2.287600
14.791200 2.201300
14.810100 2.427600
14.829000 2.816200
14.848000 3.046200
14.866900 2.955700
14.885800 2.678400
14.904700 2.424200
14.923700 2.256900
14.942600 2.136700
14.961500 2.061100
14.980400 2.094600
14.999400 2.299100
15.018300 2.652900
15.037200 3.029700
15.056100 3.275900
15.075100 3.326500
15.094000 3.265400
15.112900 3.274600
15.131800 3.486600
15.150800 3.839000
15.169700 4.081200
15.188600 3.976900
15.207500 3.516800
15.226500 2.925400
15.245400 2.486800
15.264300 2.350000
15.283200 2.427900
15.302200 2.487500
15.321100 2.400100
15.340000 2.282900
15.358900 2.337900
15.377900 2.580600
15.396800 2.814900
15.415700 2.898000
15.434600 2.923800
15.453600 3.086900
15.472500 3.452500
15.491400 3.899500
15.510300 4.237200
15.529300 4.363000
15.548200 4.313500
15.567100 4.155900
15.586000 3.904000
15.605000 3.590400
15.623900 3.337200
15.642800 3.276800
15.661700 3.434200
15.680700 3.705500
15.699600 3.934100
15.718500 4.021400
15.737400 3.982500
15.756400 3.901500
15.775300 3.846700
15.794200 3.813200
15.813100 3.716900
15.832100 3.456200
15.851000 3.010700
15.869900 2.463100
15.888800 1.926400
15.907700 1.508800
15.926700 1.341500
15.945600 1.552500
15.964500 2.180100
15.983400 3.116300
16.002400 4.105900
16.021300 4.817700
16.040200 5.020500
16.059100 4.753800
16.078100 4.287600
16.097000 3.897600
16.115900 3.693300
16.134800 3.634500
16.153800 3.641400
16.172700 3.649900
16.191600 3.610000
16.210500 3.500100
16.229500 3.348900
16.248400 3.212600
16.267300 3.123900
16.286200 3.075400
16.305200 3.041300
16.324100 2.984300
16.343000 2.854300
16.361900 2.645200
16.380900 2.463300
16.399800 2.483700
16.418700 2.799600
16.437600 3.311200
16.456600 3.778800
16.475500 3.988300
16.494400 3.863900
16.513300 3.478300
16.532300 3.027400
16.551200 2.765200
16.570100 2.867100
16.589000 3.304100
16.608000 3.848800
16.626900 4.203300
16.645800 4.158800
16.664700 3.704600
16.683700 3.025800
16.702600 2.383400
16.721500 1.975400
16.740400 1.887800
16.759400 2.117400
16.778300 2.584400
16.797200 3.134700
16.816100 3.599900
16.835100 3.882600
16.854000 3.966100
16.872900 3.874200
16.891800 3.674000
16.910800 3.481400
16.929700 3.378900
16.948600 3.330700
16.967500 3.240400
16.986500 3.081000
17.005400 2.914600
17.024300 2.797300
17.043200 2.732200
17.062100 2.747300
17.081100 2.941800
17.100000 3.344600
17.118900 3.780500
17.137800 4.020000
17.156800 4.010600
17.175700 3.843000
17.194600 3.602900
17.213500 3.380200
17.232500 3.308500
17.251400 3.481600
17.270300 3.859000
17.289200 4.276500
17.308200 4.529200
17.327100 4.469300
17.346000 4.081200
17.364900 3.482500
17.383900 2.857600
17.402800 2.392200
17.421700 2.215900
17.440600 2.346700
17.459600 2.697400
17.478500 3.112700
17.497400 3.400400
17.516300 3.430000
17.535300 3.255100
17.554200 3.073100
17.573100 3.042000
17.592000 3.170700
17.611000 3.348400
17.629900 3.427300
17.648800 3.346600
17.667700 3.248300
17.686700 3.388300
17.705600 3.851100
17.724500 4.404700
17.743400 4.681700
17.762400 4.485900
17.781300 3.931800
17.800200 3.305700
17.819100 2.818500
17.838100 2.520900
17.857000 2.398100
17.875900 2.429300
17.894800 2.541200
17.913800 2.621500
17.932700 2.653900
17.951600 2.768900
17.970500 3.063000
17.989500 3.410900
18.008400 3.583400
18.027300 3.545200
18.046200 3.493200
18.065200 3.560600
18.084100 3.638400
18.103000 3.561000
18.121900 3.327100
18.140800 3.050400
18.159800 2.799600
18.178700 2.579900
18.197600 2.410800
18.216500 2.352600
18.235500 2.451100
18.254400 2.663400
18.273300 2.839100
18.292200 2.823800
18.311200 2.621100
18.330100 2.416300
18.349000 2.409200
18.367900 2.635700
18.386900 2.955000
18.405800 3.204100
18.424700 3.353900
18.443600 3.491700
18.462600 3.671200
18.481500 3.843600
18.500400 3.938400
18.519300 3.942300
18.538300 3.882900
18.557200 3.779800
18.576100 3.627900
18.595000 3.422000
18.614000 3.198300
18.632900 3.041000
18.651800 3.020400
18.670700 3.110500
18.689700 3.197100
18.708600 3.176900
18.727500 3.017100
18.746400 2.742800
18.765400 2.436200
18.784300 2.233100
18.803200 2.262600
18.822100 2.558200
18.841100 3.022100
18.860000 3.500100
18.878900 3.900500
18.897800 4.188200
18.916800 4.282100
18.935700 4.097000
18.954600 3.720000
18.973500 3.418900
18.992500 3.393600
19.011400 3.581900
19.030300 3.761700
19.049200 3.776200
19.068200 3.614800
19.087100 3.362400
19.106000 3.144400
19.124900 3.082300
19.143900 3.218800
19.162800 3.451000
19.181700 3.583200
19.200600 3.503800
19.219600 3.279400
19.238500 3.051800
19.257400 2.918200
19.276300 2.929000
19.295200 3.086600
19.314200 3.295300
19.333100 3.392000
19.352000 3.287500
19.370900 3.053500
19.389900 2.833700
19.408800 2.711000
19.427700 2.717600
19.446600 2.916200
19.465600 3.362900
19.484500 3.994900
19.503400 4.620400
19.522300 5.025500
19.541300 5.108100
19.560200 4.934800
19.579100 4.633000
19.598000 4.242600
19.617000 3.750600
19.635900 3.227300
19.654800 2.833400
19.673700 2.717900
19.692700 2.931600
19.711600 3.371900
19.730500 3.797300
19.749400 3.988000
19.768400 3.940600
19.787300 3.848000
19.806200 3.852800
19.825100 3.884400
19.844100 3.786100
19.863000 3.533000
19.881900 3.259400
19.900800 3.114500
19.919800 3.161200
19.938700 3.407300
19.957600 3.832200
19.976500 4.315600
19.995500 4.648100
20.014400 4.719000
20.033300 4.607800
20.052200 4.423800
20.071200 4.171100
20.090100 3.838500
20.109000 3.487900
20.127900 3.169300
20.146900 2.852000
20.165800 2.517600
20.184700 2.252100
20.203600 2.200900
20.222600 2.454000
20.241500 2.944800
20.260400 3.429200
20.279300 3.635600
20.298300 3.497500
20.317200 3.195000
20.336100 2.960400
20.355000 2.884600
20.373900 2.898100
20.392900 2.891000
20.411800 2.825500
20.430700 2.730400
20.449600 2.630300
20.468600 2.527200
20.487500 2.419700
20.506400 2.301500
20.525300 2.186100
20.544300 2.168500
20.563200 2.405700
20.582100 2.977300
20.601000 3.761300
20.620000 4.448300
20.638900 4.717500
20.657800 4.479500
20.676700 3.954400
20.695700 3.459100
20.714600 3.143700
20.733500 2.960700
20.752400 2.809800
20.771400 2.645100
20.790300 2.478400
20.809200 2.350000
20.828100 2.332300
20.847100 2.530000
20.866000 2.998000
20.884900 3.620400
20.903800 4.128900
20.922800 4.303800
20.941700 4.132400
20.960600 3.759200
20.979500 3.366000
20.998500 3.115500
21.017400 3.111900
21.036300 3.362800
21.055200 3.798700
21.074200 4.307900
21.093100 4.730500
21.112000 4.930300
21.130900 4.960500
21.149900 5.034200
21.168800 5.242900
21.187700 5.403000
21.206600 5.242300
21.225600 4.692900
21.244500 3.961700
21.263400 3.318400
21.282300 2.899000
21.301300 2.749400
21.320200 2.885100
21.339100 3.190900
21.358000 3.407800
21.377000 3.354400
21.395900 3.088000
21.414800 2.795600
21.433700 2.628600
21.452600 2.681700
21.471600 3.001200
21.490500 3.504800
21.509400 3.966000
21.528300 4.192200
21.547300 4.180600
21.566200 4.026000
21.585100 3.771700
21.604000 3.446100
21.623000 3.141900
21.641900 2.950300
21.660800 2.849800
21.679700 2.752600
21.698700 2.672900
21.717600 2.747400
21.736500 3.023900
21.755400 3.343200
21.774400 3.518600
21.793300 3.527000
21.812200 3.457200
21.831100 3.378400
21.850100 3.329000
21.869000 3.348900
21.887900 3.438200
21.906800 3.504400
21.925800 3.419300
21.944700 3.152400
21.963600 2.810900
21.982500 2.534600
22.001500 2.385300
22.020400 2.351000
22.039300 2.425300
22.058200 2.644500
22.077200 3.011600
22.096100 3.380600
22.115000 3.495700
22.133900 3.211200
22.152900 2.624300
22.171800 1.977800
22.190700 1.503100
22.209600 1.350500
22.228600 1.571000
22.247500 2.099800
22.266400 2.762500
22.285300 3.331200
22.304300 3.639900
22.323200 3.695400
22.342100 3.653100
22.361000 3.635500
22.380000 3.595800
22.398900 3.402300
22.417800 3.036500
22.436700 2.677100
22.455700 2.577400
22.474600 2.826700
22.493500 3.241100
22.512400 3.544800
22.531400 3.631900
22.550300 3.582000
22.569200 3.472500
22.588100 3.293800
22.607000 3.041400
22.626000 2.787000
22.644900 2.624900
22.663800 2.580500
22.682700 2.582800
22.701700 2.521500
22.720600 2.350400
22.739500 2.147300
22.758400 2.046000
22.777400 2.084800
22.796300 2.153600
22.815200 2.109500
22.834100 1.909000
22.853100 1.615700
22.872000 1.333600
22.890900 1.150200
22.909800 1.096100
22.928800 1.137000
22.947700 1.214300
22.966600 1.275200
22.985500 1.271400
23.004500 1.169100
23.023400 0.973600
23.042300 0.730600
23.061200 0.496900
23.080200 0.312800
23.099100 0.201900
23.118000 0.179600
23.136900 0.237900
23.155900 0.323600
23.174800 0.359800
23.193700 0.311400
23.212600 0.219000
23.231600 0.154200
23.250500 0.152200
23.269400 0.191500
23.288300 0.225400
23.307300 0.222600
23.326200 0.183500
23.345100 0.127000
23.364000 0.073200
23.383000 0.034300
23.401900 0.012800
23.420800 0.004200
23.439700 0.003300
23.458700 0.010200
23.477600 0.031300
23.496500 0.073200
23.515400 0.130800
23.534400 0.180900
23.553300 0.202400
23.572200 0.201700
23.591100 0.201200
23.610100 0.203000
23.629000 0.185200
23.647900 0.137900
23.666800 0.079700
23.685700 0.035200
23.704700 0.011800
23.723600 0.003000
23.742500 0.000600
23.761400 0.000100
23.780400 0.000000
23.799300 0.000000
23.818200 0.000000
23.837100 0.000000
23.856100 0.000000
23.875000 0.000000
23.893900 0.000000
23.912800 0.000000
23.931800 0.000000
23.950700 0.000000
23.969600 0.000000
23.988500 0.000000
24.007500 0.000000
24.026400 0.000000
24.045300 0.000000
24.064200 0.000000
24.083200 0.000000
24.102100 0.000000
24.121000 0.000000
24.139900 0.000000
24.158900 0.000000
24.177800 0.000000
24.196700 0.000000
24.215600 0.000000
24.234600 0.000000
24.253500 0.000000
24.272400 0.000000
24.291300 0.000000
24.310300 0.000000
24.329200 0.000000
24.348100 0.000000
24.367000 0.000000
24.386000 0.000000
24.404900 0.000000
24.423800 0.000000
24.442700 0.000000
24.461700 0.000000
24.480600 0.000000
24.499500 0.000000
24.518400 0.000000
24.537400 0.000000
24.556300 0.000000
24.575200 0.000000
24.594100 0.000000
24.613100 0.000000
24.632000 0.000000
24.650900 0.000000
24.669800 0.000000
24.688800 0.000000
24.707700 0.000000
24.726600 0.000000
24.745500 0.000000
24.764500 0.000000
24.783400 0.000000
24.802300 0.000000
24.821200 0.000000
24.840100 0.000000
24.859100 0.000000
24.878000 0.000000
24.896900 0.000000
24.915800 0.000000
24.934800 0.000000
24.953700 0.000000
24.972600 0.000000
24.991500 0.000000
25.010500 0.000000
25.029400 0.000000
25.048300 0.000000
25.067200 0.000000
25.086200 0.000000
25.105100 0.000000
25.124000 0.000000
25.142900 0.000000
25.161900 0.000000
25.180800 0.000000
25.199700 0.000000
25.218600 0.000000
25.237600 0.000000
25.256500 0.000000
25.275400 0.000000
25.294300 0.000000
25.313300 0.000000
25.332200 0.000000
e
