set title 'mp-1147625 - Density of States'
set xlabel 'Energy (eV)'
set ylabel 'DOS (states/eV)'
set grid
set xrange [-10:10]
set yrange [0:160.006]
set xzeroaxis lt -1
set terminal png size 800,600
set output 'mp-1147625_dos_gnuplot.png'
plot '-' using 1:2 with lines title 'DOS'
-10.211700 0.000000
-10.194800 0.000000
-10.177800 0.000000
-10.160900 0.000000
-10.143900 0.000000
-10.127000 0.000000
-10.110000 0.000000
-10.093100 0.000000
-10.076100 0.000000
-10.059200 0.000000
-10.042200 0.000000
-10.025300 0.000000
-10.008300 0.000000
-9.991400 0.000000
-9.974400 0.000000
-9.957500 0.000000
-9.940500 0.000000
-9.923600 0.000000
-9.906600 0.000000
-9.889700 0.000000
-9.872700 0.000000
-9.855800 0.000000
-9.838800 0.000000
-9.821900 0.000000
-9.804900 0.000000
-9.788000 0.000000
-9.771000 0.000000
-9.754100 0.000000
-9.737100 0.000000
-9.720200 0.000000
-9.703200 0.000000
-9.686300 0.000000
-9.669300 0.000000
-9.652400 0.000000
-9.635400 0.000000
-9.618500 0.000000
-9.601500 0.000000
-9.584600 0.000000
-9.567600 0.000000
-9.550700 0.000000
-9.533700 0.000000
-9.516800 0.000000
-9.499800 0.000000
-9.482900 0.000000
-9.465900 0.000000
-9.449000 0.000000
-9.432000 0.000000
-9.415100 0.000000
-9.398100 0.000000
-9.381200 0.000000
-9.364200 0.000000
-9.347300 0.000000
-9.330300 0.000000
-9.313400 0.000000
-9.296400 0.000000
-9.279500 0.000000
-9.262500 0.000000
-9.245600 0.000000
-9.228600 0.000000
-9.211700 0.000000
-9.194700 0.000000
-9.177800 0.000000
-9.160800 0.000000
-9.143900 0.000000
-9.126900 0.000000
-9.110000 0.000000
-9.093000 0.000000
-9.076100 0.000000
-9.059100 0.000000
-9.042200 0.000000
-9.025200 0.000000
-9.008300 0.000000
-8.991300 0.000000
-8.974400 0.000000
-8.957400 0.000000
-8.940500 0.000000
-8.923500 0.000000
-8.906600 0.000000
-8.889600 0.000000
-8.872700 0.000000
-8.855700 0.000000
-8.838800 0.000000
-8.821800 0.000000
-8.804900 0.000000
-8.787900 0.000000
-8.771000 0.000000
-8.754000 0.000000
-8.737100 0.000000
-8.720100 0.000000
-8.703200 0.000000
-8.686200 0.000000
-8.669300 0.002500
-8.652300 0.257700
-8.635400 0.588700
-8.618400 0.914300
-8.601500 0.887200
-8.584500 0.783900
-8.567600 0.691700
-8.550600 0.731700
-8.533700 0.779300
-8.516700 0.827000
-8.499800 0.874600
-8.482800 3.526900
-8.465900 4.744900
-8.448900 5.937700
-8.432000 5.085800
-8.415000 5.158600
-8.398100 5.603700
-8.381100 6.106900
-8.364200 5.890800
-8.347200 6.104800
-8.330300 6.394500
-8.313300 6.771800
-8.296400 7.341300
-8.279400 10.676800
-8.262500 11.730900
-8.245500 13.052000
-8.228600 18.595300
-8.211600 17.533900
-8.194700 18.378300
-8.177700 18.817700
-8.160800 17.996600
-8.143800 14.451200
-8.126900 12.801300
-8.109900 12.007200
-8.093000 10.971700
-8.076000 4.020200
-8.059100 7.265900
-8.042100 11.361700
-8.025200 51.233700
-8.008200 66.640900
-7.991300 129.875100
-7.974300 119.174000
-7.957400 51.205300
-7.940400 83.848400
-7.923500 145.460000
-7.906500 142.425600
-7.889600 26.025700
-7.872600 31.871400
-7.855700 29.917200
-7.838700 20.466000
-7.821800 15.988400
-7.804800 13.226000
-7.787900 11.358300
-7.770900 1.163300
-7.754000 1.160600
-7.737000 1.158000
-7.720100 1.088300
-7.703100 1.006600
-7.686200 0.924900
-7.669200 0.885500
-7.652300 0.872200
-7.635300 0.859000
-7.618400 0.845900
-7.601400 0.835100
-7.584500 0.824200
-7.567500 0.813300
-7.550600 0.802400
-7.533600 0.792100
-7.516700 0.793600
-7.499700 0.795600
-7.482800 0.797600
-7.465800 0.799700
-7.448900 0.801700
-7.431900 0.803800
-7.415000 0.805800
-7.398000 0.807900
-7.381100 0.809900
-7.364100 0.812000
-7.347200 0.814000
-7.330200 0.816100
-7.313300 0.818100
-7.296300 0.817900
-7.279400 0.808800
-7.262400 0.799700
-7.245500 0.794000
-7.228500 0.793900
-7.211600 0.793800
-7.194600 0.793600
-7.177700 0.793500
-7.160700 0.793400
-7.143800 0.793300
-7.126800 0.793100
-7.109900 0.793100
-7.092900 0.794700
-7.076000 0.796300
-7.059000 0.797900
-7.042100 0.799400
-7.025100 0.801000
-7.008200 0.802600
-6.991200 0.969400
-6.974300 1.222400
-6.957300 1.316900
-6.940400 1.396500
-6.923400 1.529600
-6.906500 1.709200
-6.889500 1.876900
-6.872600 1.941300
-6.855600 1.904300
-6.838700 1.885500
-6.821700 1.888900
-6.804800 1.903800
-6.787800 1.909200
-6.770900 2.506100
-6.753900 2.875600
-6.737000 2.809600
-6.720000 2.097500
-6.703100 2.089300
-6.686100 2.071700
-6.669200 2.048800
-6.652200 2.024900
-6.635300 2.002900
-6.618300 1.978000
-6.601400 1.962100
-6.584400 1.822400
-6.567500 1.814200
-6.550500 1.812000
-6.533600 1.811000
-6.516600 1.810100
-6.499700 1.804300
-6.482700 1.799000
-6.465800 1.792600
-6.448800 1.784800
-6.431900 1.776600
-6.414900 1.768800
-6.398000 1.719900
-6.381000 1.715600
-6.364100 1.713000
-6.347100 1.712300
-6.330200 1.713000
-6.313200 1.713800
-6.296300 1.714500
-6.279300 1.715400
-6.262400 1.839700
-6.245400 2.097300
-6.228500 2.673700
-6.211500 3.143100
-6.194600 3.633500
-6.177600 3.474800
-6.160700 3.064600
-6.143700 2.523000
-6.126800 2.332100
-6.109800 2.232800
-6.092900 2.193900
-6.075900 2.352300
-6.059000 2.599300
-6.042000 2.738200
-6.025100 2.842600
-6.008100 2.991500
-5.991200 3.144000
-5.974200 3.345700
-5.957300 3.778300
-5.940300 3.979700
-5.923400 4.307500
-5.906400 4.636000
-5.889500 5.113500
-5.872500 5.202500
-5.855600 5.493100
-5.838600 5.560000
-5.821700 5.690800
-5.804700 5.792000
-5.787800 5.970500
-5.770800 6.272800
-5.753900 6.068700
-5.736900 5.274100
-5.720000 4.657100
-5.703000 4.373000
-5.686100 4.301800
-5.669100 4.256400
-5.652200 4.199200
-5.635200 3.943100
-5.618300 3.821400
-5.601300 3.710500
-5.584400 3.574800
-5.567400 3.440300
-5.550500 3.390500
-5.533500 3.351100
-5.516600 3.311600
-5.499600 3.270500
-5.482700 3.231700
-5.465700 3.204300
-5.448800 3.339300
-5.431800 3.119700
-5.414900 2.828400
-5.397900 2.780900
-5.381000 2.778500
-5.364000 2.727500
-5.347100 2.940600
-5.330100 3.375000
-5.313200 3.133200
-5.296200 2.657500
-5.279300 2.384600
-5.262300 2.264900
-5.245400 2.207200
-5.228400 2.180500
-5.211500 2.157300
-5.194500 2.123000
-5.177600 2.074800
-5.160600 2.058700
-5.143700 2.154200
-5.126700 2.315200
-5.109800 2.429000
-5.092800 2.447100
-5.075900 2.421200
-5.058900 2.395500
-5.042000 2.369800
-5.025000 2.329100
-5.008100 2.214300
-4.991100 2.099800
-4.974200 1.986500
-4.957200 2.046200
-4.940300 2.023200
-4.923300 2.012000
-4.906400 2.001400
-4.889400 2.032800
-4.872500 1.920700
-4.855500 1.808500
-4.838600 1.696400
-4.821600 1.530600
-4.804700 3.666900
-4.787700 1.061500
-4.770800 0.610600
-4.753800 0.610200
-4.736900 0.608700
-4.719900 0.604700
-4.703000 0.599200
-4.686000 0.591600
-4.669100 0.584200
-4.652100 0.576800
-4.635200 0.569400
-4.618200 0.562000
-4.601300 0.554500
-4.584300 0.547100
-4.567400 0.539700
-4.550400 0.532300
-4.533500 0.524900
-4.516500 0.517500
-4.499600 0.510100
-4.482600 0.502600
-4.465700 0.495200
-4.448700 0.487800
-4.431800 0.484400
-4.414800 0.482100
-4.397900 0.479800
-4.380900 0.477500
-4.364000 0.475200
-4.347000 0.472900
-4.330100 0.470700
-4.313100 0.468400
-4.296200 0.466100
-4.279200 0.463800
-4.262300 0.461500
-4.245300 0.459200
-4.228400 0.457000
-4.211400 0.454700
-4.194500 0.452400
-4.177500 0.414200
-4.160600 0.414600
-4.143600 0.415000
-4.126700 0.415300
-4.109700 0.415700
-4.092800 0.416100
-4.075800 0.416500
-4.058900 0.416800
-4.041900 0.417700
-4.025000 0.420100
-4.008000 0.422600
-3.991100 0.418800
-3.974100 0.413300
-3.957200 0.407800
-3.940200 0.402300
-3.923300 0.396700
-3.906300 0.391200
-3.889400 0.385700
-3.872400 0.380100
-3.855500 0.374600
-3.838500 0.369100
-3.821600 0.363600
-3.804600 0.358000
-3.787700 0.352500
-3.770700 0.347000
-3.753800 0.341500
-3.736800 0.337600
-3.719900 0.336100
-3.702900 0.334600
-3.686000 0.333100
-3.669000 0.331700
-3.652100 0.330200
-3.635100 0.328700
-3.618200 0.327300
-3.601200 0.325800
-3.584300 0.324300
-3.567300 0.322900
-3.550400 0.321400
-3.533400 0.319900
-3.516500 0.318400
-3.499500 0.317000
-3.482600 0.315500
-3.465600 0.289300
-3.448700 0.296600
-3.431700 0.303900
-3.414800 0.311200
-3.397800 0.318500
-3.380900 0.325800
-3.363900 0.320700
-3.347000 0.314800
-3.330000 0.309000
-3.313100 0.303100
-3.296100 0.297300
-3.279200 0.291400
-3.262200 0.285500
-3.245300 0.279700
-3.228300 0.273800
-3.211400 0.268000
-3.194400 0.262100
-3.177500 0.256300
-3.160500 0.250400
-3.143600 0.244600
-3.126600 0.238700
-3.109700 0.232900
-3.092700 0.227000
-3.075800 0.221200
-3.058800 0.228800
-3.041900 0.240200
-3.024900 0.251600
-3.008000 0.263000
-2.991000 0.274400
-2.974100 0.285900
-2.957100 0.297300
-2.940200 0.308700
-2.923200 0.283200
-2.906300 0.253800
-2.889300 0.224400
-2.872400 0.195000
-2.855400 0.165500
-2.838500 0.136100
-2.821500 0.106700
-2.804600 0.077300
-2.787600 0.047900
-2.770700 0.018500
-2.753700 0.000000
-2.736800 0.000000
-2.719800 0.000000
-2.702900 0.000000
-2.685900 0.000000
-2.669000 0.000000
-2.652000 0.000000
-2.635100 0.000000
-2.618100 0.000000
-2.601200 0.000000
-2.584200 0.000000
-2.567300 0.000000
-2.550300 0.000000
-2.533400 0.000000
-2.516400 0.000000
-2.499500 0.000000
-2.482500 0.000000
-2.465600 0.000000
-2.448600 0.000000
-2.431700 0.000000
-2.414700 0.000000
-2.397800 0.000000
-2.380800 0.000000
-2.363900 0.000000
-2.346900 0.000000
-2.330000 0.000000
-2.313000 0.000000
-2.296100 0.000000
-2.279100 0.000000
-2.262200 0.000000
-2.245200 0.000000
-2.228300 0.000000
-2.211300 0.000000
-2.194400 0.000000
-2.177400 0.000000
-2.160500 0.000000
-2.143500 0.000000
-2.126600 0.000000
-2.109600 0.000000
-2.092700 0.000000
-2.075700 0.000000
-2.058800 0.000000
-2.041800 0.000000
-2.024900 0.000000
-2.007900 0.000000
-1.991000 0.000000
-1.974000 0.000000
-1.957100 0.000000
-1.940100 0.000000
-1.923200 0.000000
-1.906200 0.000000
-1.889300 0.000000
-1.872300 0.000000
-1.855400 0.000000
-1.838400 0.000000
-1.821500 0.000000
-1.804500 0.000000
-1.787600 0.000000
-1.770600 0.000000
-1.753700 0.000000
-1.736700 0.000000
-1.719800 0.000000
-1.702800 0.000000
-1.685900 0.000000
-1.668900 0.000000
-1.652000 0.000000
-1.635000 0.000000
-1.618100 0.000000
-1.601100 0.000000
-1.584200 0.000000
-1.567200 0.000000
-1.550300 0.000000
-1.533300 0.000000
-1.516400 0.000000
-1.499400 0.000000
-1.482500 0.000000
-1.465500 0.000000
-1.448600 0.000000
-1.431600 0.000000
-1.414700 0.000000
-1.397700 0.000000
-1.380800 0.000000
-1.363800 0.000000
-1.346900 0.000000
-1.329900 0.000000
-1.313000 0.000000
-1.296000 0.000000
-1.279100 0.000000
-1.262100 0.000000
-1.245200 0.000000
-1.228200 0.000000
-1.211300 0.000000
-1.194300 0.000000
-1.177400 0.000000
-1.160400 0.000000
-1.143500 0.000000
-1.126500 0.000000
-1.109600 0.000000
-1.092600 0.000000
-1.075700 0.000000
-1.058700 0.000000
-1.041800 0.000000
-1.024800 0.000000
-1.007900 0.000000
-0.990900 0.000000
-0.974000 0.000000
-0.957000 0.000000
-0.940100 0.000000
-0.923100 0.000000
-0.906200 0.000000
-0.889200 0.000000
-0.872300 0.000000
-0.855300 0.000000
-0.838400 0.000000
-0.821400 0.000000
-0.804500 0.000000
-0.787500 0.000000
-0.770600 0.000000
-0.753600 0.000000
-0.736700 0.000000
-0.719700 0.000000
-0.702800 0.000000
-0.685800 0.000000
-0.668900 0.000000
-0.651900 0.000000
-0.635000 0.000000
-0.618000 0.000000
-0.601100 0.000000
-0.584100 0.000000
-0.567200 0.000000
-0.550200 0.000000
-0.533300 0.000000
-0.516300 0.000000
-0.499400 0.000000
-0.482400 0.000000
-0.465500 0.000000
-0.448500 0.000000
-0.431600 0.000000
-0.414600 0.000000
-0.397700 0.000000
-0.380700 0.000000
-0.363800 0.024700
-0.346800 0.226000
-0.329900 0.475000
-0.312900 0.696800
-0.296000 0.845400
-0.279000 0.958800
-0.262100 1.235700
-0.245100 1.286200
-0.228200 1.291300
-0.211200 1.151300
-0.194300 1.155700
-0.177300 1.258800
-0.160400 2.282200
-0.143400 2.202500
-0.126500 2.577900
-0.109500 2.489000
-0.092600 2.381300
-0.075600 2.235500
-0.058700 2.286100
-0.041700 3.386000
-0.024800 2.611000
-0.007800 2.947600
0.009100 3.045400
0.026100 2.784300
0.043000 2.763300
0.060000 2.797600
0.076900 2.810300
0.093900 2.882600
0.110800 2.957600
0.127800 3.037200
0.144700 3.341400
0.161700 4.178300
0.178600 4.629900
0.195600 4.471600
0.212500 4.363400
0.229500 4.274300
0.246400 4.113600
0.263400 3.955400
0.280300 3.795100
0.297300 3.640000
0.314200 3.503300
0.331200 3.379400
0.348100 2.644700
0.365100 2.641200
0.382000 2.652300
0.399000 2.697800
0.415900 2.739100
0.432900 2.859500
0.449800 3.004500
0.466800 3.185000
0.483700 3.268900
0.500700 3.361300
0.517600 3.497000
0.534600 3.690600
0.551500 3.833000
0.568500 4.143200
0.585400 5.330100
0.602400 3.986800
0.619300 3.349000
0.636300 2.846100
0.653200 2.518100
0.670200 2.316600
0.687100 2.481500
0.704100 1.303000
0.721000 1.313900
0.738000 1.325000
0.754900 1.342900
0.771900 1.364700
0.788800 1.831300
0.805800 1.982500
0.822700 1.877900
0.839700 1.795000
0.856600 1.662500
0.873600 1.450000
0.890500 1.403900
0.907500 1.373100
0.924400 1.360700
0.941400 1.403700
0.958300 1.460800
0.975300 1.619900
0.992200 1.701100
1.009200 1.791800
1.026100 1.885000
1.043100 2.116900
1.060000 2.337700
1.077000 2.533500
1.093900 2.759900
1.110900 4.021000
1.127800 3.258100
1.144800 3.290900
1.161700 5.505600
1.178700 3.368700
1.195600 3.150700
1.212600 3.021100
1.229500 2.900300
1.246500 2.712900
1.263400 2.589100
1.280400 2.478500
1.297300 2.375200
1.314300 2.355300
1.331200 2.509000
1.348200 1.855900
1.365100 1.772700
1.382100 1.706200
1.399000 1.653300
1.416000 1.564000
1.432900 1.571200
1.449900 1.584000
1.466800 1.625300
1.483800 1.675500
1.500700 1.735300
1.517700 1.803800
1.534600 1.823100
1.551600 1.824900
1.568500 1.815000
1.585500 1.802400
1.602400 1.803800
1.619400 1.834800
1.636300 1.885800
1.653300 1.940600
1.670200 1.990000
1.687200 2.034000
1.704100 2.078500
1.721100 2.209700
1.738000 2.317900
1.755000 2.444100
1.771900 2.551000
1.788900 2.671500
1.805800 2.828600
1.822800 2.756900
1.839700 2.740000
1.856700 2.712900
1.873600 2.685000
1.890600 2.787300
1.907500 2.774200
1.924500 2.781300
1.941400 2.735300
1.958400 2.736500
1.975300 2.710100
1.992300 2.599000
2.009200 2.631000
2.026200 2.709800
2.043100 2.846700
2.060100 2.940300
2.077000 3.024100
2.094000 3.043200
2.110900 3.063800
2.127900 3.091400
2.144800 3.120300
2.161800 3.182500
2.178700 3.368000
2.195700 3.631200
2.212600 3.898700
2.229600 3.858000
2.246500 4.257800
2.263500 3.844800
2.280400 4.133700
2.297400 4.447200
2.314300 4.332600
2.331300 3.994300
2.348200 3.737800
2.365200 3.685700
2.382100 3.660000
2.399100 3.623300
2.416000 3.690600
2.433000 3.840000
2.449900 4.167300
2.466900 4.259200
2.483800 4.286000
2.500800 4.186300
2.517700 4.110200
2.534700 4.051600
2.551600 3.926700
2.568600 3.826500
2.585500 3.760900
2.602500 3.681700
2.619400 3.598800
2.636400 3.508300
2.653300 3.795200
2.670300 3.816000
2.687200 3.456500
2.704200 3.395000
2.721100 3.314100
2.738100 3.104600
2.755000 2.964500
2.772000 2.861300
2.788900 2.537000
2.805900 2.424100
2.822800 2.585000
2.839800 2.528300
2.856700 2.518100
2.873700 2.485600
2.890600 2.366300
2.907600 2.370700
2.924500 2.393300
2.941500 2.430400
2.958400 2.477400
2.975400 2.533100
2.992300 2.596400
3.009300 2.700100
3.026200 2.805200
3.043200 2.893100
3.060100 2.884000
3.077100 2.843200
3.094000 2.847700
3.111000 2.860200
3.127900 2.885000
3.144900 2.924800
3.161900 2.930900
3.178800 2.944200
3.195800 2.985700
3.212700 3.071400
3.229700 3.138000
3.246600 3.109800
3.263600 3.733900
3.280500 3.076200
3.297500 3.073900
3.314400 3.072400
3.331400 3.072700
3.348300 3.322600
3.365300 3.143000
3.382200 3.178000
3.399200 3.217800
3.416100 3.223900
3.433100 3.232400
3.450000 3.237300
3.467000 3.289500
3.483900 3.329100
3.500900 3.359000
3.517800 3.458700
3.534800 3.473200
3.551700 3.497000
3.568700 3.636000
3.585600 3.633300
3.602600 3.669200
3.619500 3.718600
3.636500 3.741600
3.653400 3.759900
3.670400 3.776000
3.687300 3.787800
3.704300 3.800200
3.721200 4.000200
3.738200 4.115200
3.755100 4.498000
3.772100 5.139300
3.789000 5.019300
3.806000 4.648100
3.822900 4.391600
3.839900 4.297300
3.856800 4.210400
3.873800 4.026000
3.890700 3.735900
3.907700 3.485800
3.924600 3.405600
3.941600 3.417100
3.958500 3.408100
3.975500 3.303300
3.992400 3.302400
4.009400 3.297200
4.026300 3.280400
4.043300 3.247000
4.060200 3.218900
4.077200 3.202500
4.094100 3.194500
4.111100 3.320000
4.128000 3.347500
4.145000 3.382200
4.161900 3.644500
4.178900 3.693200
4.195800 3.546600
4.212800 3.712800
4.229700 3.995300
4.246700 4.068700
4.263600 4.138200
4.280600 4.058900
4.297500 4.177200
4.314500 4.190600
4.331400 4.326200
4.348400 5.041100
4.365300 5.347200
4.382300 5.643000
4.399200 5.860500
4.416200 5.909600
4.433100 5.450100
4.450100 5.082800
4.467000 5.029700
4.484000 4.970900
4.500900 4.963100
4.517900 4.954200
4.534800 4.828700
4.551800 4.911700
4.568700 5.038400
4.585700 4.914100
4.602600 5.170000
4.619600 5.283800
4.636500 5.523300
4.653500 5.591400
4.670400 5.573800
4.687400 5.643800
4.704300 5.735600
4.721300 5.644300
4.738200 5.696300
4.755200 5.714400
4.772100 4.961700
4.789100 5.385800
4.806000 5.179400
4.823000 5.222000
4.839900 5.064700
4.856900 5.111700
4.873800 4.483800
4.890800 4.909400
4.907700 5.093900
4.924700 5.721900
4.941600 5.586200
4.958600 5.023500
4.975500 5.259200
4.992500 5.260000
5.009400 4.727400
5.026400 4.856200
5.043300 5.144000
5.060300 5.065400
5.077200 4.920800
5.094200 4.787700
5.111100 4.809300
5.128100 5.061700
5.145000 5.004900
5.162000 5.636300
5.178900 5.134600
5.195900 5.146000
5.212800 5.141600
5.229800 5.117000
5.246700 4.958900
5.263700 4.735700
5.280600 4.508100
5.297600 4.270900
5.314500 3.642800
5.331500 3.408400
5.348400 3.393700
5.365400 3.560900
5.382300 3.644900
5.399300 3.819900
5.416200 4.024800
5.433200 4.477300
5.450100 5.139300
5.467100 5.191800
5.484000 3.310200
5.501000 3.094500
5.517900 2.940600
5.534900 2.784800
5.551800 2.696200
5.568800 2.618100
5.585700 2.609300
5.602700 2.614400
5.619600 2.601500
5.636600 2.637100
5.653500 2.697300
5.670500 2.734500
5.687400 2.659400
5.704400 2.598500
5.721300 2.537800
5.738300 2.471200
5.755200 2.372600
5.772200 2.257300
5.789100 2.213100
5.806100 2.171300
5.823000 2.104600
5.840000 2.080300
5.856900 2.067800
5.873900 2.053700
5.890800 2.040200
5.907800 2.027600
5.924700 2.011000
5.941700 2.003900
5.958600 1.998700
5.975600 1.969300
5.992500 1.938200
6.009500 1.937800
6.026400 1.938500
6.043400 1.941000
6.060300 1.947100
6.077300 1.955800
6.094200 1.969400
6.111200 1.989600
6.128100 2.013400
6.145100 2.050300
6.162000 2.101100
6.179000 2.165800
6.195900 2.232400
6.212900 2.274700
6.229800 2.193900
6.246800 2.135600
6.263700 2.090900
6.280700 2.046300
6.297600 2.001900
6.314600 1.957500
6.331500 1.913200
6.348500 1.869900
6.365400 1.830600
6.382400 1.796600
6.399300 1.768000
6.416300 1.744900
6.433200 1.728500
6.450200 1.714000
6.467100 1.725400
6.484100 1.791700
6.501000 1.909400
6.518000 2.334600
6.534900 2.255800
6.551900 2.114300
6.568800 1.957000
6.585800 1.783900
6.602700 1.715500
6.619700 1.686000
6.636600 1.657500
6.653600 1.633500
6.670500 1.612700
6.687500 1.594800
6.704400 1.579800
6.721400 1.567800
6.738300 1.598400
6.755300 1.581100
6.772200 1.563200
6.789200 1.543900
6.806100 1.525900
6.823100 1.507000
6.840000 1.487000
6.857000 1.465900
6.873900 1.446900
6.890900 1.421600
6.907800 1.397000
6.924800 1.050800
6.941700 1.050600
6.958700 1.050000
6.975600 1.049100
6.992600 1.047900
7.009500 1.047900
7.026500 1.056600
7.043400 1.082200
7.060400 1.119400
7.077300 1.166400
7.094300 1.213400
7.111200 1.245500
7.128200 1.277600
7.145100 1.310700
7.162100 1.343800
7.179000 1.371500
7.196000 1.386800
7.212900 1.399300
7.229900 1.411100
7.246800 1.424600
7.263800 1.443900
7.280700 1.493900
7.297700 1.565900
7.314600 1.640900
7.331600 1.704700
7.348500 1.767900
7.365500 1.835200
7.382400 1.901100
7.399400 1.919600
7.416300 1.968800
7.433300 2.050400
7.450200 2.216800
7.467200 2.396400
7.484100 2.772800
7.501100 3.382100
7.518000 3.557900
7.535000 3.654500
7.551900 3.737400
7.568900 3.773700
7.585800 3.829000
7.602800 3.801600
7.619700 3.702900
7.636700 3.616300
7.653600 3.640700
7.670600 2.297600
7.687500 1.844900
7.704500 1.519900
7.721400 1.300900
7.738400 1.271600
7.755300 1.346200
7.772300 1.399700
7.789200 1.501500
7.806200 1.618600
7.823100 1.752300
7.840100 1.867300
7.857000 1.984700
7.874000 2.111600
7.890900 2.241800
7.907900 2.373500
7.924800 2.478000
7.941800 2.572000
7.958700 2.658600
7.975700 2.738000
7.992600 3.016800
8.009600 3.017200
8.026500 3.124100
8.043500 2.845900
8.060400 2.827300
8.077400 2.808900
8.094300 2.759000
8.111300 2.666900
8.128200 2.652200
8.145200 2.636800
8.162100 2.608800
8.179100 2.577200
8.196000 2.562300
8.213000 2.554700
8.229900 2.543700
8.246900 2.516200
8.263800 2.475300
8.280800 2.424100
8.297700 2.362600
8.314700 2.273500
8.331600 2.217200
8.348600 2.114300
8.365500 2.063500
8.382500 2.020800
8.399400 2.133800
8.416400 2.180000
8.433300 2.226500
8.450300 2.269700
8.467200 2.286900
8.484200 2.238300
8.501100 2.111200
8.518100 1.924200
8.535000 1.798300
8.552000 1.831000
8.568900 1.854100
8.585900 1.865500
8.602800 1.863600
8.619800 1.852900
8.636700 1.834200
8.653700 1.807300
8.670600 1.773100
8.687600 1.734900
8.704500 1.742200
8.721500 1.671300
8.738400 1.669800
8.755400 1.813200
8.772300 1.682500
8.789300 1.524000
8.806200 1.420500
8.823200 1.374500
8.840100 1.330800
8.857100 1.289700
8.874000 1.251200
8.891000 1.215000
8.907900 1.181100
8.924900 1.149200
8.941800 1.119400
8.958800 1.091700
8.975700 1.066100
8.992700 1.042600
9.009600 1.021200
9.026600 1.073400
9.043500 1.121400
9.060500 1.138200
9.077400 1.155800
9.094400 1.174200
9.111300 1.266600
9.128300 1.269500
9.145200 1.272000
9.162200 1.298000
9.179100 1.306100
9.196100 1.511200
9.213000 1.403700
9.230000 1.361400
9.246900 1.436000
9.263900 1.426900
9.280800 1.418900
9.297800 1.455200
9.314700 1.504400
9.331700 1.535200
9.348600 1.529900
9.365600 1.527800
9.382500 1.537600
9.399500 1.559700
9.416400 1.449700
9.433400 1.468500
9.450300 1.479700
9.467300 1.444200
9.484200 1.662800
9.501200 1.582400
9.518100 1.543700
9.535100 1.506200
9.552000 1.470000
9.569000 1.435100
9.585900 1.434300
9.602900 1.458100
9.619800 1.516400
9.636800 1.563900
9.653700 1.614000
9.670700 1.666700
9.687600 1.723600
9.704600 1.798500
9.721500 2.332300
9.738500 2.606300
9.755400 2.487800
9.772400 2.453400
9.789300 2.455800
9.806300 2.500100
9.823200 2.678500
9.840200 2.673500
9.857100 2.614100
9.874100 2.515300
9.891000 2.514900
9.908000 2.575800
9.924900 2.664400
9.941900 2.804900
9.958800 2.939200
9.975800 3.053800
9.992700 3.110800
10.009700 3.108300
10.026600 3.097700
10.043600 3.075700
10.060500 3.020100
10.077500 3.018500
10.094400 3.158900
10.111400 3.267300
10.128300 3.406100
10.145300 3.499300
10.162200 3.547200
10.179200 3.580200
10.196100 3.588700
10.213100 4.039100
10.230000 3.809500
10.247000 3.736000
10.263900 3.623200
10.280900 3.428400
10.297800 3.361300
10.314800 3.349800
10.331700 3.318900
10.348700 3.277800
10.365600 3.225700
10.382600 3.195800
10.399500 3.168200
10.416500 3.163500
10.433400 3.176500
10.450400 3.248900
10.467300 3.345600
10.484300 3.488200
10.501200 3.928900
10.518200 3.848300
10.535100 3.667800
10.552100 3.578100
10.569000 3.495900
10.586000 3.365600
10.602900 3.238600
10.619900 2.977800
10.636800 2.910900
10.653800 2.887800
10.670700 2.749600
10.687700 2.672400
10.704600 2.582100
10.721600 2.478100
10.738500 2.384500
10.755500 2.293700
10.772400 2.189800
10.789400 1.939300
10.806300 1.830700
10.823300 1.756500
10.840200 1.678200
10.857200 1.636500
10.874100 1.623900
10.891100 1.614900
10.908000 1.609800
10.925000 1.626300
10.941900 1.689300
10.958900 1.824900
10.975800 1.993200
10.992800 2.207200
11.009700 2.416500
11.026700 2.603700
11.043600 2.757700
11.060600 2.900200
11.077500 2.974200
11.094500 2.987500
11.111400 3.020700
11.128400 3.039600
11.145300 3.029800
11.162300 2.980700
11.179200 2.935700
11.196200 2.916800
11.213100 2.740900
11.230100 2.703900
11.247000 2.680300
11.264000 2.667500
11.280900 2.675200
11.297900 2.663600
11.314800 2.689200
11.331800 2.740900
11.348700 2.846200
11.365700 2.874200
11.382600 2.899900
11.399600 2.897200
11.416500 2.883600
11.433500 2.878000
11.450400 2.881300
11.467400 2.862400
11.484300 2.878000
11.501300 2.880000
11.518200 2.891100
11.535200 2.915300
11.552100 2.926300
11.569100 2.962700
11.586000 3.002400
11.603000 2.919400
11.619900 2.949000
11.636900 2.904200
11.653800 2.968100
11.670800 3.031200
11.687700 3.102200
11.704700 3.216800
11.721600 3.302400
11.738600 3.404600
11.755500 3.490700
11.772500 3.531200
11.789400 3.560900
11.806400 3.633300
11.823300 3.624800
11.840300 3.625700
11.857200 3.658100
11.874200 3.688500
11.891100 3.727000
11.908100 3.706500
11.925000 3.690600
11.942000 3.639500
11.958900 3.637200
11.975900 3.635300
11.992800 3.638200
12.009800 3.645100
12.026700 3.646800
12.043700 3.682900
12.060600 3.736200
12.077600 3.802600
12.094500 3.926400
12.111500 4.016300
12.128400 4.039300
12.145400 4.365900
12.162300 4.325100
12.179300 4.137200
12.196200 3.918800
12.213200 3.821400
12.230100 3.587200
12.247100 3.446700
12.264000 3.386700
12.281000 3.315400
12.297900 3.241700
12.314900 3.232400
12.331800 3.307100
12.348800 3.285800
12.365700 3.200800
12.382700 2.655000
12.399600 2.498200
12.416600 2.358000
12.433500 2.214400
12.450500 2.195600
12.467400 2.017300
12.484400 1.888900
12.501300 1.686600
12.518300 1.691400
12.535200 1.733400
12.552200 1.850700
12.569100 2.019700
12.586100 3.455900
12.603000 2.936000
12.620000 3.346100
12.636900 3.616000
12.653900 3.762900
12.670800 3.882100
12.687800 4.039100
12.704700 4.157500
12.721700 4.209400
12.738600 4.220800
12.755600 4.203000
12.772500 4.240000
12.789500 4.213200
12.806400 4.244300
12.823400 4.724000
12.840300 4.748300
12.857300 4.812900
12.874200 4.908000
12.891200 4.888200
12.908100 4.777200
12.925100 4.827000
12.942000 4.868400
12.959000 4.862900
12.975900 4.814900
12.992900 4.765000
13.009800 4.807200
13.026800 4.819800
13.043700 4.759100
13.060700 4.862900
13.077600 5.017200
13.094600 5.507900
13.111500 5.352800
13.128500 5.741600
13.145400 6.033600
13.162400 6.212100
13.179300 6.109400
13.196300 5.893800
13.213200 5.663300
13.230200 5.359100
13.247100 4.464800
13.264100 3.904600
13.281000 3.414800
13.298000 2.937300
13.314900 2.649200
13.331900 2.417400
13.348800 2.065400
13.365800 1.958600
13.382700 1.969300
13.399700 1.999200
13.416600 2.025600
13.433600 2.075900
13.450500 2.285500
13.467500 2.582400
13.484400 2.501900
13.501400 2.498000
13.518300 2.430100
13.535300 2.420000
13.552200 2.402000
13.569200 2.370200
13.586100 2.314600
13.603100 2.192400
13.620000 2.066100
13.637000 1.922400
13.653900 1.808100
13.670900 1.743500
13.687800 1.671500
13.704800 1.601100
13.721700 1.541700
13.738700 1.525500
13.755600 1.541600
13.772600 1.556500
13.789500 1.536200
13.806500 1.532500
13.823400 1.524700
13.840400 1.565800
13.857300 1.599800
13.874300 1.636400
13.891200 1.683800
13.908200 1.826000
13.925100 1.985400
13.942100 2.426800
13.959000 2.245000
13.976000 2.284800
13.992900 2.313800
14.009900 2.370600
14.026800 2.452300
14.043800 2.529100
14.060700 2.542400
14.077700 2.518600
14.094600 2.508800
14.111600 2.523100
14.128500 2.581200
14.145500 2.629800
14.162400 2.677400
14.179400 2.733000
14.196300 2.785900
14.213300 2.841000
14.230200 2.940600
14.247200 3.060000
14.264100 3.336900
14.281100 3.461500
14.298000 3.578300
14.315000 3.841200
14.331900 3.938500
14.348900 3.961000
14.365800 3.994000
14.382800 4.065500
14.399700 4.094800
14.416700 4.136000
14.433600 4.160800
14.450600 4.181300
14.467500 4.204400
14.484500 4.245500
14.501400 4.263200
14.518400 4.309300
14.535300 4.246400
14.552300 4.250900
14.569200 4.341200
14.586200 4.418800
14.603100 4.344000
14.620100 4.367100
14.637000 4.783700
14.654000 4.591700
14.670900 4.520100
14.687900 4.487300
14.704800 4.521700
14.721800 4.716000
14.738700 5.125100
14.755700 4.819900
14.772600 4.494300
14.789600 4.124700
14.806500 3.808100
14.823500 3.667500
14.840400 3.521800
14.857400 3.399100
14.874300 3.286100
14.891300 3.040100
14.908200 2.936700
14.925200 3.668100
14.942100 2.968800
14.959100 2.883200
14.976000 2.807200
14.993000 2.744500
15.009900 2.710700
15.026900 2.688600
15.043800 2.666000
15.060800 2.645500
15.077700 2.637400
15.094700 2.798700
15.111600 2.585300
15.128600 2.532600
15.145500 2.509800
15.162500 2.483100
15.179400 2.453600
15.196400 2.419400
15.213300 2.415500
15.230300 2.416200
15.247200 2.427400
15.264200 2.438300
15.281100 2.451000
15.298100 2.628000
15.315000 2.674600
15.332000 2.725400
15.348900 2.798200
15.365900 2.856700
15.382800 2.990700
15.399800 3.056400
15.416700 3.079800
15.433700 3.188600
15.450600 3.330000
15.467600 3.488000
15.484500 3.661500
15.501500 3.869100
15.518400 4.162400
15.535400 4.753900
15.552300 5.142400
15.569300 5.367400
15.586200 4.814600
15.603200 4.773200
15.620100 4.536500
15.637100 4.126200
15.654000 3.743700
15.671000 3.430400
15.687900 3.220700
15.704900 3.060900
15.721800 2.958600
15.738800 2.915100
15.755700 2.884900
15.772700 2.847300
15.789600 2.794800
15.806600 2.754400
15.823500 2.714700
15.840500 2.677700
15.857400 2.638700
15.874400 2.596300
15.891300 2.563300
15.908300 2.533200
15.925200 2.502300
15.942200 2.503800
15.959100 2.586600
15.976100 2.626700
15.993000 2.651700
16.010000 2.759200
16.026900 2.827900
16.043900 3.142400
16.060800 3.345800
16.077800 3.414700
16.094700 3.534600
16.111700 3.636000
16.128600 3.679700
16.145600 3.645700
16.162500 3.402600
16.179500 3.323300
16.196400 3.106100
16.213400 3.042100
16.230300 2.683900
16.247300 2.655700
16.264200 2.644500
16.281200 2.656300
16.298100 2.674400
16.315100 2.708500
16.332000 2.833000
16.349000 3.291100
16.365900 3.477300
16.382900 3.566000
16.399800 3.661500
16.416800 3.702100
16.433700 3.669400
16.450700 3.453700
16.467600 3.184500
16.484600 3.015000
16.501500 2.815600
16.518500 2.710800
16.535400 2.735800
16.552400 2.810900
16.569300 2.904200
16.586300 3.025400
16.603200 3.066900
16.620200 3.167800
16.637100 3.299900
16.654100 3.309400
16.671100 3.344100
16.688000 3.379300
16.705000 3.436400
16.721900 3.411100
16.738900 3.430800
16.755800 3.468000
16.772800 3.492100
16.789700 3.503900
16.806700 3.508300
16.823600 3.510700
16.840600 3.478400
16.857500 3.435600
16.874500 3.391800
16.891400 3.391200
16.908400 3.389800
16.925300 3.387500
16.942300 3.380400
16.959200 3.391100
16.976200 3.403800
16.993100 3.434800
17.010100 3.524700
17.027000 3.638100
17.044000 3.744100
17.060900 3.684500
17.077900 3.527700
17.094800 3.417700
17.111800 3.355100
17.128700 3.492500
17.145700 3.574800
17.162600 3.295600
17.179600 3.445100
17.196500 3.512500
17.213500 3.279100
17.230400 3.219000
17.247400 3.154600
17.264300 3.089600
17.281300 3.070100
17.298200 3.052000
17.315200 3.037500
17.332100 2.879800
17.349100 2.968300
17.366000 2.852100
17.383000 2.866800
17.399900 2.886800
17.416900 2.898000
17.433800 2.925500
17.450800 2.993600
17.467700 3.177900
17.484700 3.421000
17.501600 3.661100
17.518600 3.796100
17.535500 3.884700
17.552500 3.923100
17.569400 3.868800
17.586400 4.043800
17.603300 3.613200
17.620300 3.506400
17.637200 3.376700
17.654200 3.325000
17.671100 3.291900
17.688100 3.319800
17.705000 3.393900
17.722000 3.476600
17.738900 3.531200
17.755900 3.592400
17.772800 3.656300
17.789800 3.804900
17.806700 3.814800
17.823700 3.831800
17.840600 3.954200
17.857600 4.145400
17.874500 4.360500
17.891500 4.243600
17.908400 4.136000
17.925400 4.051600
17.942300 3.985500
17.959300 3.912300
17.976200 3.838400
17.993200 3.718200
18.010100 3.689200
18.027100 3.665400
18.044000 3.640600
18.061000 3.615700
18.077900 3.603300
18.094900 3.596200
18.111800 3.592600
18.128800 3.632500
18.145700 3.650400
18.162700 3.678000
18.179600 3.703900
18.196600 3.733800
18.213500 3.751600
18.230500 3.768500
18.247400 3.756700
18.264400 3.770300
18.281300 3.727500
18.298300 3.757400
18.315200 3.816100
18.332200 3.855500
18.349100 3.886300
18.366100 4.039100
18.383000 3.991900
18.400000 3.940800
18.416900 3.893400
18.433900 3.747000
18.450800 3.595600
18.467800 3.597300
18.484700 3.603400
18.501700 3.615700
18.518600 3.634500
18.535600 3.658400
18.552500 3.688300
18.569500 3.709900
18.586400 3.658400
18.603400 3.828600
18.620300 4.023100
18.637300 4.209500
18.654200 4.110100
18.671200 4.263600
18.688100 4.388100
18.705100 4.530800
18.722000 4.626200
18.739000 4.821500
18.755900 4.947100
18.772900 5.109900
18.789800 5.256100
18.806800 5.265800
18.823700 5.366600
18.840700 5.399200
18.857600 5.347300
18.874600 5.230800
18.891500 5.008300
18.908500 4.939400
18.925400 4.798400
18.942400 4.993500
18.959300 4.899000
18.976300 4.856000
18.993200 4.814800
19.010200 4.815300
19.027100 5.138100
19.044100 5.019600
19.061000 5.093100
19.078000 5.208600
19.094900 5.225900
19.111900 5.026900
19.128800 4.962600
19.145800 4.914300
19.162700 4.883000
19.179700 4.469900
19.196600 4.328700
19.213600 4.241900
19.230500 4.225800
19.247500 4.251800
19.264400 4.308400
19.281400 4.591400
19.298300 4.614700
19.315300 4.647200
19.332200 4.497200
19.349200 4.523800
19.366100 4.529300
19.383100 4.556200
19.400000 4.592600
19.417000 4.660600
19.433900 4.735900
19.450900 4.836200
19.467800 4.951100
19.484800 5.091500
19.501700 5.288900
19.518700 5.541600
19.535600 5.631100
19.552600 5.423400
19.569500 5.038100
19.586500 4.823600
19.603400 4.677300
19.620400 4.545900
19.637300 4.869600
19.654300 4.520900
19.671200 5.558800
19.688200 9.302000
19.705100 5.021400
19.722100 5.059100
19.739000 5.056900
19.756000 5.055900
19.772900 5.060400
19.789900 5.095000
19.806800 5.181300
19.823800 5.218400
19.840700 4.993200
19.857700 4.906200
19.874600 4.781500
19.891600 4.665400
19.908500 4.735600
19.925500 4.744400
19.942400 4.757500
19.959400 4.774600
19.976300 4.887100
19.993300 5.089200
20.010200 5.675200
20.027200 6.274600
20.044100 6.698800
20.061100 5.041800
20.078000 5.129600
20.095000 5.074400
20.111900 5.045700
20.128900 4.656900
20.145800 4.499800
20.162800 4.270500
20.179700 4.226600
20.196700 4.289100
20.213600 4.492100
20.230600 5.187500
20.247500 5.394400
20.264500 4.500100
20.281400 4.341500
20.298400 4.154900
20.315300 4.047100
20.332300 3.993600
20.349200 3.962900
20.366200 3.978300
20.383100 3.849100
20.400100 3.783100
20.417000 3.744200
20.434000 4.001600
20.450900 3.619300
20.467900 3.580600
20.484800 3.543900
20.501800 3.538000
20.518700 3.514400
20.535700 3.953500
20.552600 3.670700
20.569600 3.719400
20.586500 4.032800
20.603500 4.195900
20.620400 4.134000
20.637400 3.980500
20.654300 3.816700
20.671300 3.627800
20.688200 3.338700
20.705200 3.151900
20.722100 3.033400
20.739100 2.955900
20.756000 2.754100
20.773000 2.543800
20.789900 2.731600
20.806900 2.319500
20.823800 2.218200
20.840800 2.101000
20.857700 1.989600
20.874700 1.907600
20.891600 1.835200
20.908600 1.767200
20.925500 1.706600
20.942500 1.686100
20.959400 1.699800
20.976400 1.710700
20.993300 1.710000
21.010300 1.721100
21.027200 1.675200
21.044200 1.738700
21.061100 1.771200
21.078100 1.722700
21.095000 1.686000
21.112000 1.879000
21.128900 1.683800
21.145900 1.459400
21.162800 1.393600
21.179800 1.338400
21.196700 1.342800
21.213700 1.267700
21.230600 1.197300
21.247600 1.131700
21.264500 1.070800
21.281500 1.025800
21.298400 1.033000
21.315400 0.988800
21.332300 0.918400
21.349300 0.855700
21.366200 0.805700
21.383200 0.767900
21.400100 0.740100
21.417100 0.720100
21.434000 0.656900
21.451000 0.654000
21.467900 0.759300
21.484900 0.835000
21.501800 0.802900
21.518800 0.688100
21.535700 0.631700
21.552700 0.576200
21.569600 0.521600
21.586600 0.328800
21.603500 0.313700
21.620500 0.298700
21.637400 0.283700
21.654400 0.268700
21.671300 0.253700
21.688300 0.238700
21.705200 0.223700
21.722200 0.208800
21.739100 0.193800
21.756100 0.179100
21.773000 0.165400
21.790000 0.152400
21.806900 0.139300
21.823900 0.127300
21.840800 0.116400
21.857800 0.106600
21.874700 0.097400
21.891700 0.088600
21.908600 0.080100
21.925600 0.072000
21.942500 0.064300
21.959500 0.056900
21.976400 0.049900
21.993400 0.043300
22.010300 0.037100
22.027300 0.031200
22.044200 0.025600
22.061200 0.020500
22.078100 0.015700
22.095100 0.011300
22.112000 0.007300
22.129000 0.003600
22.145900 0.000300
22.162900 0.000000
22.179800 0.000000
22.196800 0.000000
22.213700 0.000000
22.230700 0.000000
22.247600 0.000000
22.264600 0.000000
22.281500 0.000000
22.298500 0.000000
22.315400 0.000000
22.332400 0.000000
22.349300 0.000000
22.366300 0.000000
22.383200 0.000000
22.400200 0.000000
22.417100 0.000000
22.434100 0.000000
22.451000 0.000000
22.468000 0.000000
22.484900 0.000000
22.501900 0.000000
22.518800 0.000000
22.535800 0.000000
22.552700 0.000000
22.569700 0.000000
22.586600 0.000000
22.603600 0.000000
22.620500 0.000000
22.637500 0.000000
22.654400 0.000000
22.671400 0.000000
22.688300 0.000000
22.705300 0.000000
22.722200 0.000000
22.739200 0.000000
22.756100 0.000000
22.773100 0.000000
22.790000 0.000000
22.807000 0.000000
22.823900 0.000000
22.840900 0.000000
22.857800 0.000000
22.874800 0.000000
22.891700 0.000000
22.908700 0.000000
22.925600 0.000000
22.942600 0.000000
22.959500 0.000000
22.976500 0.000000
22.993400 0.000000
23.010400 0.000000
23.027300 0.000000
23.044300 0.000000
23.061200 0.000000
23.078200 0.000000
23.095100 0.000000
23.112100 0.000000
23.129000 0.000000
23.146000 0.000000
23.162900 0.000000
23.179900 0.000000
23.196800 0.000000
23.213800 0.000000
23.230700 0.000000
23.247700 0.000000
23.264600 0.000000
23.281600 0.000000
23.298500 0.000000
23.315500 0.000000
23.332400 0.000000
23.349400 0.000000
23.366300 0.000000
23.383300 0.000000
23.400200 0.000000
23.417200 0.000000
23.434100 0.000000
23.451100 0.000000
23.468000 0.000000
23.485000 0.000000
23.501900 0.000000
23.518900 0.000000
23.535800 0.000000
23.552800 0.000000
23.569700 0.000000
23.586700 0.000000
23.603600 0.000000
23.620600 0.000000
23.637500 0.000000
23.654500 0.000000
23.671400 0.000000
23.688400 0.000000
e
