set title 'mp-1058887 - Density of States'
set xlabel 'Energy (eV)'
set ylabel 'DOS (states/eV)'
set grid
set xrange [-10:10]
set yrange [0:17.913]
set xzeroaxis lt -1
set terminal png size 800,600
set output 'mp-1058887_dos_gnuplot.png'
plot '-' using 1:2 with lines title 'DOS'
-10.710300 0.000000
-10.673300 0.000000
-10.636400 0.000000
-10.599400 0.000000
-10.562500 0.000000
-10.525500 0.000000
-10.488600 0.000000
-10.451600 0.000000
-10.414700 0.000000
-10.377800 0.000000
-10.340800 0.000000
-10.303900 0.000000
-10.266900 0.000000
-10.230000 0.000000
-10.193000 0.000000
-10.156100 0.000000
-10.119100 0.000000
-10.082200 0.000000
-10.045200 0.000000
-10.008300 0.000000
-9.971300 0.000000
-9.934400 0.000000
-9.897400 0.000000
-9.860500 0.000000
-9.823600 0.000000
-9.786600 0.000000
-9.749700 0.000000
-9.712700 0.000000
-9.675800 0.000000
-9.638800 0.000000
-9.601900 0.000000
-9.564900 0.000000
-9.528000 0.000000
-9.491000 0.000000
-9.454100 0.000000
-9.417100 0.000000
-9.380200 0.000000
-9.343200 0.000000
-9.306300 0.000000
-9.269400 0.000000
-9.232400 0.000000
-9.195500 0.000000
-9.158500 0.000000
-9.121600 0.000000
-9.084600 0.000000
-9.047700 0.000000
-9.010700 0.000000
-8.973800 0.000000
-8.936800 0.000000
-8.899900 0.000000
-8.862900 0.000000
-8.826000 0.000000
-8.789000 0.000000
-8.752100 0.000000
-8.715200 0.000000
-8.678200 0.000000
-8.641300 0.000000
-8.604300 0.000000
-8.567400 0.000000
-8.530400 0.000000
-8.493500 0.000000
-8.456500 0.000000
-8.419600 0.000000
-8.382600 0.000000
-8.345700 0.000000
-8.308700 0.000000
-8.271800 0.000000
-8.234800 0.000000
-8.197900 0.000000
-8.160900 0.000000
-8.124000 0.000000
-8.087100 0.000000
-8.050100 0.000000
-8.013200 0.000000
-7.976200 0.000000
-7.939300 0.000000
-7.902300 0.000000
-7.865400 0.000000
-7.828400 0.000000
-7.791500 0.000000
-7.754500 0.000000
-7.717600 0.000000
-7.680600 0.000000
-7.643700 0.000000
-7.606700 0.000000
-7.569800 0.000000
-7.532900 0.000000
-7.495900 0.000000
-7.459000 0.000000
-7.422000 0.000000
-7.385100 0.000000
-7.348100 0.000800
-7.311200 0.081000
-7.274200 0.187200
-7.237300 0.275900
-7.200300 0.556700
-7.163400 0.702600
-7.126400 0.889500
-7.089500 1.085200
-7.052500 1.321200
-7.015600 1.570700
-6.978700 1.621200
-6.941700 1.673200
-6.904800 1.742700
-6.867800 1.785200
-6.830900 1.837300
-6.793900 1.924500
-6.757000 2.047800
-6.720000 2.176100
-6.683100 2.433100
-6.646100 2.680100
-6.609200 2.638800
-6.572200 2.572700
-6.535300 2.517800
-6.498300 2.479200
-6.461400 2.528700
-6.424500 2.457700
-6.387500 2.379000
-6.350600 2.121700
-6.313600 1.640000
-6.276700 1.479200
-6.239700 1.927900
-6.202800 2.858200
-6.165800 2.892500
-6.128900 2.896400
-6.091900 2.689900
-6.055000 2.891900
-6.018000 5.803700
-5.981100 7.720800
-5.944100 10.814300
-5.907200 12.058500
-5.870200 11.832500
-5.833300 9.593700
-5.796400 11.145000
-5.759400 11.256900
-5.722500 15.559400
-5.685500 16.284600
-5.648600 16.252100
-5.611600 15.817800
-5.574700 11.667000
-5.537700 10.115900
-5.500800 12.219900
-5.463800 9.014100
-5.426900 3.522200
-5.389900 3.317300
-5.353000 3.130200
-5.316000 3.110300
-5.279100 2.840300
-5.242200 2.069400
-5.205200 1.769600
-5.168300 0.939700
-5.131300 0.403900
-5.094400 0.411600
-5.057400 0.421300
-5.020500 0.430900
-4.983500 0.438400
-4.946600 0.444700
-4.909600 0.452800
-4.872700 0.463400
-4.835700 0.473200
-4.798800 0.483300
-4.761800 0.494000
-4.724900 0.505100
-4.688000 0.517400
-4.651000 0.534600
-4.614100 0.554400
-4.577100 0.575900
-4.540200 0.599900
-4.503200 0.623100
-4.466300 0.638900
-4.429300 0.650900
-4.392400 0.662600
-4.355400 0.673700
-4.318500 0.682500
-4.281500 0.691000
-4.244600 0.700900
-4.207600 0.711100
-4.170700 0.722300
-4.133800 0.734300
-4.096800 0.745500
-4.059900 0.758000
-4.022900 0.792700
-3.986000 0.832200
-3.949000 0.872800
-3.912100 0.912600
-3.875100 0.953800
-3.838200 0.997300
-3.801200 1.687700
-3.764300 1.299000
-3.727300 1.082200
-3.690400 0.939300
-3.653400 0.820600
-3.616500 0.725600
-3.579500 0.664400
-3.542600 0.631500
-3.505700 0.600200
-3.468700 0.573200
-3.431800 0.551400
-3.394800 0.530200
-3.357900 0.509700
-3.320900 0.489800
-3.284000 0.470800
-3.247000 0.451700
-3.210100 0.436000
-3.173100 0.423000
-3.136200 0.412400
-3.099200 0.402100
-3.062300 0.391700
-3.025300 0.381500
-2.988400 0.371400
-2.951500 0.361200
-2.914500 0.351800
-2.877600 0.343900
-2.840600 0.336200
-2.803700 0.328600
-2.766700 0.320900
-2.729800 0.313100
-2.692800 0.305300
-2.655900 0.297800
-2.618900 0.290800
-2.582000 0.284400
-2.545000 0.278200
-2.508100 0.272000
-2.471100 0.267000
-2.434200 0.261900
-2.397300 0.256900
-2.360300 0.252000
-2.323400 0.247000
-2.286400 0.242000
-2.249500 0.237200
-2.212500 0.232400
-2.175600 0.227500
-2.138600 0.222600
-2.101700 0.217700
-2.064700 0.218900
-2.027800 0.235300
-1.990800 0.249800
-1.953900 0.262400
-1.916900 0.276900
-1.880000 0.292900
-1.843100 0.307800
-1.806100 0.320600
-1.769200 0.333400
-1.732200 0.341000
-1.695300 0.342800
-1.658300 0.346700
-1.621400 0.351900
-1.584400 0.356700
-1.547500 0.360500
-1.510500 0.364100
-1.473600 0.367900
-1.436600 0.372400
-1.399700 0.376800
-1.362700 0.381200
-1.325800 0.385900
-1.288800 0.391400
-1.251900 0.397600
-1.215000 0.403300
-1.178000 0.406400
-1.141100 0.408100
-1.104100 0.408800
-1.067200 0.408900
-1.030200 0.408300
-0.993300 0.407300
-0.956300 0.405300
-0.919400 0.403500
-0.882400 0.403400
-0.845500 0.403700
-0.808500 0.403900
-0.771600 0.403500
-0.734600 0.401100
-0.697700 0.398400
-0.660800 0.397100
-0.623800 0.397200
-0.586900 0.398700
-0.549900 0.402000
-0.513000 0.407200
-0.476000 0.414900
-0.439100 0.424300
-0.402100 0.433800
-0.365200 0.443600
-0.328200 0.454700
-0.291300 0.466800
-0.254300 0.479500
-0.217400 0.492800
-0.180400 0.506600
-0.143500 0.520700
-0.106600 0.536000
-0.069600 0.561600
-0.032700 0.597700
0.004300 0.622700
0.041200 0.639700
0.078200 0.661300
0.115100 0.681900
0.152100 0.681400
0.189000 0.680000
0.226000 0.683900
0.262900 0.685700
0.299900 0.700600
0.336800 0.703600
0.373800 0.677200
0.410700 0.668200
0.447600 0.660800
0.484600 0.666000
0.521500 0.669500
0.558500 0.649000
0.595400 0.638800
0.632400 0.628800
0.669300 0.617500
0.706300 0.608400
0.743200 0.599800
0.780200 0.592900
0.817100 0.584700
0.854100 0.577000
0.891000 0.570200
0.928000 0.563700
0.964900 0.557200
1.001900 0.550500
1.038800 0.543500
1.075700 0.543600
1.112700 0.549800
1.149600 0.538300
1.186600 0.527800
1.223500 0.519900
1.260500 0.511300
1.297400 0.505100
1.334400 0.499800
1.371300 0.493700
1.408300 0.490000
1.445200 0.490200
1.482200 0.502800
1.519100 0.525100
1.556100 0.546300
1.593000 0.549800
1.629900 0.563000
1.666900 0.570500
1.703800 0.581100
1.740800 0.593200
1.777700 0.586500
1.814700 0.592300
1.851600 0.604800
1.888600 0.622500
1.925500 0.644100
1.962500 0.650700
1.999400 0.643000
2.036400 0.647000
2.073300 0.637900
2.110300 0.606200
2.147200 0.576300
2.184100 0.537500
2.221100 0.501600
2.258000 0.468400
2.295000 0.444300
2.331900 0.436800
2.368900 0.424300
2.405800 0.438200
2.442800 0.430900
2.479700 0.419300
2.516700 0.431200
2.553600 0.446400
2.590600 0.457200
2.627500 0.484100
2.664500 0.516500
2.701400 0.510000
2.738300 0.521000
2.775300 0.532400
2.812200 0.545500
2.849200 0.559800
2.886100 0.573000
2.923100 0.585700
2.960000 0.600100
2.997000 0.615200
3.033900 0.629700
3.070900 0.643000
3.107800 0.646800
3.144800 0.660600
3.181700 0.675000
3.218700 0.690800
3.255600 0.705400
3.292600 0.770600
3.329500 0.750900
3.366400 0.785700
3.403400 0.792400
3.440300 0.793800
3.477300 0.794400
3.514200 0.790300
3.551200 0.767600
3.588100 0.770200
3.625100 0.779400
3.662000 0.793700
3.699000 0.809200
3.735900 0.819300
3.772900 0.827100
3.809800 0.832500
3.846800 0.819700
3.883700 0.879400
3.920600 0.877400
3.957600 0.923400
3.994500 0.976300
4.031500 1.044000
4.068400 1.077300
4.105400 1.080400
4.142300 1.080400
4.179300 1.069800
4.216200 1.090800
4.253200 1.114800
4.290100 1.160800
4.327100 1.249100
4.364000 1.340300
4.401000 1.427400
4.437900 1.493400
4.474800 1.565200
4.511800 1.427400
4.548700 1.317700
4.585700 1.267800
4.622600 1.297500
4.659600 1.335800
4.696500 1.334600
4.733500 1.342700
4.770400 1.333800
4.807400 1.339300
4.844300 1.351400
4.881300 1.357600
4.918200 1.333200
4.955200 1.259800
4.992100 1.190000
5.029000 1.146900
5.066000 1.148700
5.102900 1.103600
5.139900 1.087100
5.176800 1.073900
5.213800 1.059400
5.250700 1.043800
5.287700 1.032600
5.324600 1.029600
5.361600 1.029900
5.398500 1.033000
5.435500 1.047800
5.472400 1.042200
5.509400 1.039700
5.546300 1.043400
5.583300 1.052300
5.620200 1.061800
5.657100 1.071900
5.694100 1.080400
5.731000 1.088600
5.768000 1.100400
5.804900 1.111200
5.841900 1.110300
5.878800 1.107200
5.915800 1.126700
5.952700 1.154400
5.989700 1.174200
6.026600 1.201900
6.063600 1.226700
6.100500 1.223200
6.137500 1.235800
6.174400 1.215100
6.211300 1.232500
6.248300 1.251100
6.285200 1.267200
6.322200 1.255300
6.359100 1.250700
6.396100 1.244600
6.433000 1.235300
6.470000 1.238100
6.506900 1.219400
6.543900 1.240100
6.580800 1.261200
6.617800 1.286000
6.654700 1.314900
6.691700 1.332700
6.728600 1.317900
6.765500 1.298400
6.802500 1.282300
6.839400 1.267400
6.876400 1.341100
6.913300 1.544700
6.950300 1.493600
6.987200 1.403300
7.024200 1.270300
7.061100 0.805600
7.098100 0.710600
7.135000 0.686700
7.172000 0.669500
7.208900 0.631400
7.245900 0.624900
7.282800 0.624200
7.319700 0.624800
7.356700 0.627400
7.393600 0.632600
7.430600 0.637900
7.467500 0.643700
7.504500 0.649800
7.541400 0.656300
7.578400 0.663500
7.615300 0.671900
7.652300 0.683800
7.689200 0.707000
7.726200 0.728400
7.763100 0.750100
7.800100 0.774700
7.837000 0.804400
7.874000 0.836400
7.910900 0.871800
7.947800 0.904600
7.984800 0.936600
8.021700 0.866500
8.058700 0.858100
8.095600 0.860900
8.132600 0.799900
8.169500 0.756700
8.206500 0.727600
8.243400 0.715200
8.280400 0.714200
8.317300 0.710500
8.354300 0.723400
8.391200 0.739800
8.428200 0.780800
8.465100 0.856000
8.502000 0.872600
8.539000 0.834600
8.575900 0.801400
8.612900 0.767300
8.649800 0.788300
8.686800 0.764400
8.723700 0.690200
8.760700 0.579400
8.797600 0.533100
8.834600 0.494700
8.871500 0.460000
8.908500 0.436000
8.945400 0.430800
8.982400 0.420500
9.019300 0.406200
9.056200 0.392500
9.093200 0.386500
9.130100 0.383300
9.167100 0.380500
9.204000 0.392300
9.241000 0.422200
9.277900 0.400500
9.314900 0.378300
9.351800 0.367700
9.388800 0.364300
9.425700 0.362200
9.462700 0.360800
9.499600 0.359500
9.536600 0.358900
9.573500 0.364600
9.610400 0.372900
9.647400 0.385300
9.684300 0.403100
9.721300 0.437200
9.758200 0.466000
9.795200 0.485700
9.832100 0.502300
9.869100 0.516700
9.906000 0.526100
9.943000 0.534400
9.979900 0.547800
10.016900 0.553300
10.053800 0.549800
10.090800 0.559300
10.127700 0.561100
10.164700 0.554600
10.201600 0.547900
10.238500 0.544600
10.275500 0.545200
10.312400 0.546700
10.349400 0.549800
10.386300 0.557800
10.423300 0.571300
10.460200 0.589800
10.497200 0.596600
10.534100 0.604300
10.571100 0.613300
10.608000 0.622800
10.645000 0.628900
10.681900 0.631300
10.718900 0.633000
10.755800 0.633300
10.792700 0.630000
10.829700 0.619900
10.866600 0.602800
10.903600 0.573100
10.940500 0.540100
10.977500 0.518000
11.014400 0.507400
11.051400 0.499000
11.088300 0.490400
11.125300 0.477500
11.162200 0.460300
11.199200 0.452600
11.236100 0.450400
11.273100 0.450900
11.310000 0.456000
11.346900 0.464600
11.383900 0.476700
11.420800 0.498100
11.457800 0.537600
11.494700 0.576600
11.531700 0.627100
11.568600 0.626900
11.605600 0.645500
11.642500 0.663300
11.679500 0.680000
11.716400 0.689800
11.753400 0.678200
11.790300 0.661600
11.827300 0.647500
11.864200 0.631400
11.901100 0.622000
11.938100 0.612400
11.975000 0.606300
12.012000 0.603500
12.048900 0.604600
12.085900 0.607200
12.122800 0.612500
12.159800 0.617200
12.196700 0.628700
12.233700 0.641300
12.270600 0.651000
12.307600 0.658500
12.344500 0.666400
12.381500 0.675100
12.418400 0.684200
12.455400 0.694200
12.492300 0.704600
12.529200 0.714900
12.566200 0.747400
12.603100 0.790200
12.640100 0.823600
12.677000 0.857800
12.714000 0.898100
12.750900 0.932300
12.787900 0.976800
12.824800 1.025700
12.861800 1.095500
12.898700 1.138200
12.935700 1.183200
12.972600 1.258000
13.009600 1.343000
13.046500 1.452500
13.083400 1.584400
13.120400 1.675800
13.157300 1.792800
13.194300 1.755800
13.231200 1.744100
13.268200 1.664700
13.305100 1.654300
13.342100 1.651700
13.379000 1.698100
13.416000 2.253900
13.452900 1.851700
13.489900 1.634200
13.526800 1.500100
13.563800 1.371000
13.600700 0.961800
13.637600 0.842500
13.674600 0.835500
13.711500 0.818700
13.748500 0.812500
13.785400 0.816700
13.822400 0.826400
13.859300 0.839400
13.896300 0.856800
13.933200 0.883100
13.970200 0.917500
14.007100 0.936800
14.044100 0.965700
14.081000 1.007100
14.118000 1.056200
14.154900 1.222200
14.191800 1.230400
14.228800 1.262000
14.265700 1.284200
14.302700 1.315500
14.339600 1.394000
14.376600 1.543800
14.413500 1.652700
14.450500 1.692800
14.487400 1.661900
14.524400 1.656300
14.561300 1.629300
14.598300 1.590000
14.635200 1.538200
14.672200 1.500300
14.709100 1.451800
14.746100 1.408200
14.783000 1.376900
14.819900 1.353600
14.856900 1.333800
14.893800 1.311200
14.930800 1.280400
14.967700 1.236600
15.004700 1.170700
15.041600 1.110500
15.078600 1.050300
15.115500 1.020300
15.152500 0.993300
15.189400 0.975500
15.226400 0.958300
15.263300 0.930000
15.300300 0.894500
15.337200 0.788400
15.374100 0.690700
15.411100 0.611500
15.448000 0.617100
15.485000 0.607400
15.521900 0.597500
15.558900 0.614400
15.595800 0.661700
15.632800 0.692600
15.669700 0.726100
15.706700 0.738700
15.743600 0.782300
15.780600 0.817800
15.817500 0.861700
15.854500 0.905700
15.891400 0.941900
15.928300 0.966000
15.965300 0.979400
16.002200 0.984700
16.039200 0.997600
16.076100 1.022100
16.113100 1.052900
16.150000 1.096600
16.187000 1.089600
16.223900 1.142900
16.260900 1.226600
16.297800 1.446900
16.334800 1.365100
16.371700 1.348200
16.408700 1.355100
16.445600 1.451700
16.482500 1.402700
16.519500 1.294200
16.556400 1.262400
16.593400 1.256600
16.630300 1.252400
16.667300 1.238600
16.704200 1.231800
16.741200 1.249400
16.778100 1.271000
16.815100 1.288900
16.852000 1.282800
16.889000 1.264500
16.925900 1.264000
16.962900 1.285800
16.999800 1.311700
17.036800 1.322700
17.073700 1.333900
17.110600 1.335800
17.147600 1.316500
17.184500 1.289000
17.221500 1.209000
17.258400 1.162500
17.295400 1.122100
17.332300 1.110600
17.369300 1.104900
17.406200 1.097600
17.443200 1.087100
17.480100 1.084900
17.517100 1.102100
17.554000 1.145200
17.591000 1.120200
17.627900 1.098200
17.664800 1.061500
17.701800 0.984300
17.738700 0.961900
17.775700 0.928200
17.812600 0.872800
17.849600 0.831800
17.886500 0.788400
17.923500 0.746700
17.960400 0.708500
17.997400 0.677500
18.034300 0.657800
18.071300 0.662200
18.108200 0.665600
18.145200 0.727600
18.182100 0.548200
18.219000 0.533900
18.256000 0.529300
18.292900 0.532400
18.329900 0.547600
18.366800 0.561300
18.403800 0.573800
18.440700 0.591700
18.477700 0.619400
18.514600 0.654600
18.551600 0.748800
18.588500 1.007300
18.625500 1.110300
18.662400 0.982700
18.699400 1.023800
18.736300 1.069500
18.773200 1.130100
18.810200 1.174900
18.847100 1.206500
18.884100 1.288200
18.921000 1.453500
18.958000 1.556700
18.994900 1.428900
19.031900 1.276000
19.068800 1.117600
19.105800 0.990700
19.142700 0.920700
19.179700 0.888800
19.216600 0.888000
19.253600 0.903700
19.290500 0.922500
19.327500 0.939000
19.364400 0.955600
19.401300 0.975800
19.438300 1.015500
19.475200 1.055600
19.512200 1.096100
19.549100 1.132800
19.586100 1.164800
19.623000 1.229000
19.660000 1.278500
19.696900 1.320700
19.733900 1.403600
19.770800 1.469600
19.807800 1.501900
19.844700 1.571600
19.881700 1.596200
19.918600 1.582100
19.955500 1.601200
19.992500 1.607700
20.029400 1.652400
20.066400 1.616300
20.103300 1.457000
20.140300 1.378600
20.177200 1.316300
20.214200 1.264100
20.251100 1.208000
20.288100 1.153900
20.325000 1.106600
20.362000 1.064200
20.398900 1.000200
20.435900 0.955100
20.472800 0.915600
20.509700 0.894100
20.546700 0.882400
20.583600 0.860700
20.620600 0.847000
20.657500 0.840500
20.694500 0.836900
20.731400 0.838000
20.768400 0.844800
20.805300 0.853800
20.842300 0.851100
20.879200 0.841400
20.916200 0.842000
20.953100 0.841200
20.990100 0.840400
21.027000 0.847600
21.063900 0.888900
21.100900 0.874700
21.137800 0.850400
21.174800 0.875800
21.211700 0.892300
21.248700 0.940900
21.285600 1.058700
21.322600 1.077100
21.359500 1.067600
21.396500 1.047400
21.433400 1.000000
21.470400 0.923400
21.507300 0.876200
21.544300 0.837600
21.581200 0.798600
21.618200 0.769600
21.655100 0.749400
21.692000 0.722500
21.729000 0.693600
21.765900 0.631500
21.802900 0.616400
21.839800 0.606200
21.876800 0.594100
21.913700 0.596700
21.950700 0.614700
21.987600 0.642900
22.024600 0.676100
22.061500 0.720600
22.098500 0.771400
22.135400 0.812100
22.172400 0.846900
22.209300 0.887400
22.246200 0.932200
22.283200 0.982300
22.320100 1.035600
22.357100 1.115300
22.394000 1.187900
22.431000 1.240600
22.467900 1.250700
22.504900 1.252600
22.541800 1.255800
22.578800 1.245300
22.615700 1.215800
22.652700 1.180800
22.689600 1.174800
22.726600 1.145100
22.763500 1.074000
22.800400 1.005300
22.837400 0.969400
22.874300 0.912500
22.911300 0.897100
22.948200 0.897200
22.985200 0.899700
23.022100 0.904900
23.059100 0.913400
23.096000 0.923500
23.133000 0.936200
23.169900 0.952500
23.206900 0.970500
23.243800 0.994900
23.280800 1.007600
23.317700 1.021200
23.354600 1.033400
23.391600 1.049400
23.428500 1.064800
23.465500 1.082300
23.502400 1.099600
23.539400 1.103000
23.576300 1.101600
23.613300 1.094300
23.650200 1.072100
23.687200 1.063000
23.724100 1.075400
23.761100 1.076900
23.798000 1.088700
23.835000 1.138300
23.871900 1.215500
23.908900 1.315300
23.945800 1.412600
23.982700 1.513400
24.019700 1.599400
24.056600 1.621000
24.093600 1.639700
24.130500 1.640300
24.167500 1.644200
24.204400 1.650100
24.241400 1.714400
24.278300 1.783700
24.315300 1.394300
24.352200 1.299000
24.389200 1.254100
24.426100 1.234500
24.463100 1.213600
24.500000 1.200200
24.536900 1.186700
24.573900 1.207900
24.610800 1.264100
24.647800 1.327900
24.684700 1.394800
24.721700 1.464900
24.758600 1.544600
24.795600 1.586000
24.832500 1.666400
24.869500 1.765400
24.906400 1.882600
24.943400 2.012700
24.980300 2.080200
25.017300 2.134200
25.054200 2.117900
25.091100 1.999400
25.128100 1.860300
25.165000 1.731400
25.202000 1.677300
25.238900 1.780400
25.275900 1.521500
25.312800 1.450100
25.349800 1.408700
25.386700 1.373800
25.423700 1.354800
25.460600 1.343900
25.497600 1.339600
25.534500 1.374200
25.571500 1.411500
25.608400 1.438000
25.645300 1.340000
25.682300 1.317600
25.719200 1.302500
25.756200 1.289700
25.793100 1.293400
25.830100 1.329200
25.867000 1.380600
25.904000 1.430900
25.940900 1.471000
25.977900 1.508500
26.014800 1.542400
26.051800 1.553600
26.088700 1.557700
26.125700 1.583300
26.162600 1.599000
26.199600 1.638900
26.236500 1.701400
26.273400 1.752900
26.310400 1.801100
26.347300 1.834300
26.384300 1.820700
26.421200 1.775500
26.458200 1.731300
26.495100 1.681100
26.532100 1.639100
26.569000 1.589300
26.606000 1.558700
26.642900 1.543600
26.679900 1.529700
26.716800 1.515100
26.753800 1.499800
26.790700 1.492400
26.827600 1.499400
26.864600 1.475100
26.901500 1.459200
26.938500 1.436800
26.975400 1.403300
27.012400 1.381000
27.049300 1.362500
27.086300 1.332800
27.123200 1.292400
27.160200 1.264800
27.197100 1.256700
27.234100 1.258400
27.271000 1.289500
27.308000 1.322000
27.344900 1.301500
27.381800 1.284900
27.418800 1.273500
27.455700 1.285100
27.492700 1.285400
27.529600 1.324300
27.566600 1.394900
27.603500 1.399200
27.640500 1.408500
27.677400 1.416200
27.714400 1.470900
27.751300 1.463900
27.788300 1.456400
27.825200 1.450700
27.862200 1.427300
27.899100 1.389300
27.936000 1.376400
27.973000 1.410500
28.009900 1.431300
28.046900 1.441500
28.083800 1.477800
28.120800 1.526400
28.157700 1.646400
28.194700 1.775200
28.231600 1.868500
28.268600 1.965600
28.305500 2.009900
28.342500 1.923800
28.379400 1.918900
28.416400 1.959700
28.453300 1.996200
28.490300 2.046900
28.527200 2.079900
28.564100 2.081100
28.601100 2.019200
28.638000 2.025200
28.675000 2.131600
28.711900 2.266300
28.748900 2.117000
28.785800 2.008500
28.822800 1.964000
28.859700 1.944100
28.896700 1.936400
28.933600 1.925900
28.970600 1.932700
29.007500 1.945300
29.044500 1.991300
29.081400 2.156900
29.118300 2.041400
29.155300 1.953700
29.192200 1.881800
29.229200 1.812300
29.266100 1.814900
29.303100 1.864800
29.340000 1.749400
29.377000 1.697400
29.413900 1.667700
29.450900 1.611900
29.487800 1.553400
29.524800 1.507000
29.561700 1.473200
29.598700 1.399000
29.635600 1.294800
29.672500 1.242500
29.709500 1.218600
29.746400 1.191700
29.783400 1.160500
29.820300 1.131900
29.857300 1.150900
29.894200 1.209800
29.931200 1.290300
29.968100 1.332600
30.005100 1.367500
30.042000 1.407200
30.079000 1.440000
30.115900 1.517600
30.152900 1.577100
30.189800 1.626100
30.226700 1.681200
30.263700 1.710200
30.300600 1.729100
30.337600 1.762000
30.374500 1.778800
30.411500 1.757800
30.448400 1.756200
30.485400 1.750000
30.522300 1.808900
30.559300 1.939000
30.596200 1.952300
30.633200 1.946900
30.670100 1.982900
30.707100 1.971900
30.744000 1.815100
30.781000 1.772000
30.817900 1.693700
30.854800 1.693600
30.891800 1.695700
30.928700 1.704600
30.965700 1.718900
31.002600 1.738300
31.039600 1.766000
31.076500 1.826600
31.113500 1.928200
31.150400 1.947700
31.187400 1.977300
31.224300 2.075500
31.261300 1.905900
31.298200 1.879500
31.335200 1.982300
31.372100 2.063900
31.409000 2.000300
31.446000 1.966600
31.482900 1.985000
31.519900 1.856700
31.556800 1.866200
31.593800 1.911800
31.630700 2.020200
31.667700 2.125800
31.704600 2.144500
31.741600 2.191200
31.778500 2.267600
31.815500 2.255600
31.852400 2.177900
31.889400 2.096700
31.926300 2.042700
31.963200 2.034400
32.000200 2.038100
32.037100 2.043700
32.074100 2.003500
32.111000 2.014000
32.148000 2.041700
32.184900 2.037100
32.221900 2.018900
32.258800 2.050800
32.295800 2.105300
32.332700 2.252200
32.369700 2.183000
32.406600 2.106700
32.443600 1.997300
32.480500 1.932300
32.517400 1.894800
32.554400 1.864200
32.591300 1.843000
32.628300 1.824500
32.665200 1.809200
32.702200 1.799500
32.739100 1.827100
32.776100 1.870100
32.813000 1.917300
32.850000 1.952100
32.886900 1.978000
32.923900 2.005800
32.960800 2.205400
32.997800 2.089100
33.034700 2.067100
33.071700 2.032200
33.108600 1.988800
33.145500 1.962800
33.182500 1.926400
33.219400 1.888000
33.256400 1.838200
33.293300 1.783000
33.330300 1.740200
33.367200 1.693300
33.404200 1.636000
33.441100 1.565200
33.478100 1.493100
33.515000 1.463600
33.552000 1.425500
33.588900 1.384100
33.625900 1.368200
33.662800 1.362100
33.699700 1.366500
33.736700 1.389100
33.773600 1.440400
33.810600 1.445100
33.847500 1.459000
33.884500 1.466000
33.921400 1.471400
33.958400 1.477200
33.995300 1.524300
34.032300 1.589900
34.069200 1.621600
34.106200 1.617400
34.143100 1.616900
34.180100 1.646900
34.217000 1.651400
34.253900 1.653200
34.290900 1.559800
34.327800 1.440200
34.364800 1.413300
34.401700 1.404000
34.438700 1.390500
34.475600 1.407800
34.512600 1.411000
34.549500 1.420400
34.586500 1.416400
34.623400 1.290800
34.660400 1.204600
34.697300 1.166000
34.734300 1.133400
34.771200 1.112200
34.808100 1.098000
34.845100 1.103000
34.882000 1.104500
34.919000 1.106000
34.955900 1.104800
34.992900 1.128400
35.029800 1.119200
35.066800 1.155100
35.103700 1.214400
35.140700 1.210500
35.177600 1.242500
35.214600 1.281900
35.251500 1.324300
35.288500 1.205800
35.325400 1.222100
35.362400 1.244100
35.399300 1.272100
35.436200 1.307800
35.473200 1.369500
35.510100 1.440600
35.547100 1.492100
35.584000 1.568300
35.621000 1.655700
35.657900 1.670400
35.694900 1.697200
35.731800 1.692200
35.768800 1.656700
35.805700 1.634800
35.842700 1.628800
35.879600 1.605300
35.916600 1.597400
35.953500 1.595100
35.990400 1.605000
36.027400 1.625600
36.064300 1.654100
36.101300 1.687300
36.138200 1.706200
36.175200 1.706000
36.212100 1.694900
36.249100 1.671200
36.286000 1.679700
36.323000 1.719000
36.359900 1.750500
36.396900 1.712700
36.433800 1.603400
36.470800 1.434100
36.507700 1.379400
36.544600 1.349200
36.581600 1.341800
36.618500 1.352200
36.655500 1.377900
36.692400 1.410200
36.729400 1.440000
36.766300 1.430800
36.803300 1.451800
36.840200 1.475600
36.877200 1.512900
36.914100 1.553300
36.951100 1.594800
36.988000 1.689600
37.025000 1.751000
37.061900 1.810100
37.098800 1.898900
37.135800 1.953000
37.172700 2.014300
37.209700 2.074000
37.246600 2.155900
37.283600 2.219000
37.320500 2.245000
37.357500 2.187300
37.394400 2.092800
37.431400 1.996500
37.468300 1.917200
37.505300 1.860800
37.542200 1.817000
37.579200 1.787100
37.616100 1.703200
37.653100 1.660600
37.690000 1.670400
37.726900 1.763800
37.763900 1.879500
37.800800 1.836500
37.837800 1.850300
37.874700 1.861800
37.911700 1.854400
37.948600 1.839500
37.985600 1.784000
38.022500 1.781100
38.059500 1.804100
38.096400 1.845000
38.133400 1.900000
38.170300 1.958800
38.207300 1.974900
38.244200 1.943900
38.281100 1.903200
38.318100 1.948100
38.355000 1.962000
38.392000 1.970700
38.428900 1.953500
38.465900 1.927900
38.502800 1.900200
38.539800 1.874600
38.576700 1.832200
38.613700 1.794600
38.650600 1.745000
38.687600 1.721000
38.724500 1.703600
38.761500 1.698100
38.798400 1.709100
38.835300 1.725500
38.872300 1.747400
38.909200 1.773500
38.946200 1.818800
38.983100 1.882700
39.020100 1.929800
39.057000 1.985100
39.094000 2.022600
39.130900 2.037800
39.167900 2.017700
39.204800 1.964200
39.241800 1.953300
39.278700 1.935100
39.315700 1.937100
39.352600 1.951300
39.389500 1.948300
39.426500 1.900300
39.463400 1.868900
39.500400 1.855800
39.537300 1.896800
39.574300 1.908800
39.611200 1.959700
39.648200 2.044000
39.685100 1.938200
39.722100 1.930600
39.759000 1.953600
39.796000 1.897300
39.832900 1.896200
39.869900 1.904500
39.906800 1.938200
39.943800 1.950800
39.980700 1.924900
40.017600 1.868600
40.054600 1.806400
40.091500 1.788500
40.128500 1.797900
40.165400 1.783400
40.202400 1.733100
40.239300 1.734000
40.276300 1.770700
40.313200 1.825700
40.350200 1.875800
40.387100 1.939500
40.424100 2.020200
40.461000 2.051500
40.498000 2.188100
40.534900 2.145200
40.571800 2.022700
40.608800 1.900900
40.645700 1.785000
40.682700 1.663300
40.719600 1.590000
40.756600 1.568100
40.793500 1.553600
40.830500 1.549100
40.867400 1.532500
40.904400 1.540000
40.941300 1.571100
40.978300 1.585600
41.015200 1.612100
41.052200 1.662400
41.089100 1.732100
41.126000 1.829200
41.163000 1.940500
41.199900 2.092600
41.236900 2.183600
41.273800 2.228900
41.310800 2.253000
41.347700 2.214700
41.384700 2.203800
41.421600 2.200700
41.458600 2.220000
41.495500 2.277000
41.532500 2.252600
41.569400 2.212900
41.606400 2.136700
41.643300 2.055700
41.680200 1.981200
41.717200 2.031600
41.754100 1.834100
41.791100 1.822400
41.828000 1.802200
41.865000 1.774000
41.901900 1.768700
41.938900 1.756900
41.975800 1.795600
42.012800 1.868800
42.049700 1.986400
42.086700 2.101900
42.123600 2.070000
42.160600 2.069500
42.197500 2.092800
42.234500 2.116400
42.271400 2.138600
42.308300 2.152200
42.345300 2.154500
42.382200 2.061000
42.419200 1.964100
42.456100 1.879900
42.493100 1.794900
42.530000 1.687200
42.567000 1.545000
42.603900 1.502900
42.640900 1.587400
42.677800 1.622900
42.714800 1.662000
42.751700 1.703400
42.788700 1.756500
42.825600 1.794200
42.862500 1.845700
42.899500 2.017700
42.936400 2.011400
42.973400 1.927000
43.010300 1.840700
43.047300 1.727800
43.084200 1.669100
43.121200 1.645400
43.158100 1.637500
43.195100 1.664100
43.232000 1.698500
43.269000 1.713400
43.305900 1.736100
43.342900 1.769300
43.379800 1.777600
43.416700 1.786200
43.453700 1.783100
43.490600 1.802300
43.527600 1.730800
43.564500 1.677900
43.601500 1.645500
43.638400 1.642800
43.675400 1.634000
43.712300 1.655100
43.749300 1.721800
43.786200 1.748900
43.823200 1.788900
43.860100 1.812800
43.897100 1.747900
43.934000 1.686600
43.970900 1.650900
44.007900 1.632800
44.044800 1.540200
44.081800 1.530300
44.118700 1.569600
44.155700 1.610100
44.192600 1.688900
44.229600 1.625700
44.266500 1.596200
44.303500 1.611100
44.340400 1.669600
44.377400 1.774100
44.414300 1.861700
44.451300 1.993200
44.488200 2.087500
44.525200 2.081800
44.562100 2.019200
44.599000 1.955900
44.636000 1.918600
44.672900 1.894800
44.709900 1.862600
44.746800 1.808000
44.783800 1.778000
44.820700 1.726800
44.857700 1.681600
44.894600 1.691700
44.931600 1.716100
44.968500 1.757500
45.005500 1.790900
45.042400 1.868300
45.079400 1.897300
45.116300 1.909800
45.153200 1.922300
45.190200 1.946900
45.227100 1.954000
45.264100 1.967900
45.301000 1.937500
45.338000 1.906100
45.374900 1.881200
45.411900 1.859000
45.448800 1.837900
45.485800 1.801900
45.522700 1.789900
45.559700 1.783000
45.596600 1.788800
45.633600 1.850300
45.670500 1.740400
45.707400 1.718800
45.744400 1.692100
45.781300 1.655000
45.818300 1.579500
45.855200 1.559000
45.892200 1.559000
45.929100 1.584500
45.966100 1.670700
46.003000 1.739900
46.040000 1.755300
46.076900 1.775500
46.113900 1.808000
46.150800 1.823300
46.187800 1.827200
46.224700 1.771200
46.261600 1.700600
46.298600 1.659700
46.335500 1.625100
46.372500 1.586400
46.409400 1.633300
46.446400 1.619900
46.483300 1.604300
46.520300 1.640800
46.557200 1.682500
46.594200 1.718700
46.631100 1.739700
46.668100 1.777300
46.705000 1.811900
46.742000 1.833100
46.778900 1.848500
46.815900 1.845100
46.852800 1.858200
46.889700 1.891700
46.926700 2.009100
46.963600 1.987300
47.000600 2.025800
47.037500 2.046000
47.074500 2.039600
47.111400 2.019900
47.148400 2.017000
47.185300 2.040600
47.222300 2.002600
47.259200 1.966500
47.296200 1.930400
47.333100 1.893400
47.370100 1.880400
47.407000 1.882200
47.443900 1.901300
47.480900 1.924700
47.517800 1.941100
47.554800 1.979700
47.591700 2.008000
47.628700 2.039800
47.665600 2.084300
47.702600 2.054100
47.739500 2.050400
47.776500 2.037200
47.813400 2.011300
47.850400 1.996400
47.887300 1.992400
47.924300 1.985300
47.961200 2.000400
47.998100 1.981100
48.035100 1.957400
48.072000 1.963000
48.109000 1.958400
48.145900 1.944400
48.182900 1.951300
48.219800 1.958600
48.256800 1.953200
48.293700 1.952000
48.330700 1.975100
48.367600 2.027100
48.404600 2.022700
48.441500 2.035900
48.478500 2.018500
48.515400 2.030500
48.552300 2.086300
48.589300 2.102500
48.626200 2.082900
48.663200 2.038100
48.700100 2.013700
48.737100 1.951000
48.774000 1.928600
48.811000 1.885600
48.847900 1.838800
48.884900 1.762000
48.921800 1.729200
48.958800 1.700200
48.995700 1.694000
49.032700 1.701700
49.069600 1.743400
49.106600 1.684300
49.143500 1.665000
49.180400 1.665200
49.217400 1.659000
49.254300 1.687300
49.291300 1.720500
49.328200 1.754900
49.365200 1.788800
49.402100 1.869300
49.439100 1.930500
49.476000 2.015100
49.513000 2.083300
49.549900 2.142300
49.586900 2.196100
49.623800 2.229000
49.660800 2.237500
49.697700 2.222800
49.734600 2.291200
49.771600 2.229100
49.808500 2.158700
49.845500 2.170000
49.882400 2.014200
49.919400 1.955100
49.956300 1.864000
49.993300 1.819800
50.030200 1.779900
50.067200 1.727700
50.104100 1.685300
50.141100 1.659300
50.178000 1.647900
50.215000 1.643400
50.251900 1.652500
50.288800 1.694300
50.325800 1.753900
50.362700 1.820000
50.399700 1.955000
50.436600 2.121900
50.473600 2.073100
50.510500 2.044500
50.547500 1.984200
50.584400 2.015400
50.621400 2.073100
50.658300 2.137000
50.695300 2.204200
50.732200 2.288300
50.769200 2.367100
50.806100 2.398500
50.843000 2.427400
50.880000 2.459500
50.916900 2.407600
50.953900 2.315100
50.990800 2.223700
51.027800 2.203100
51.064700 2.080600
51.101700 1.978500
51.138600 1.897400
51.175600 1.853200
51.212500 1.817900
51.249500 1.788900
51.286400 1.765400
51.323400 1.741300
51.360300 1.731500
51.397300 1.721400
51.434200 1.753100
51.471100 1.792400
51.508100 1.819900
51.545000 1.865800
51.582000 1.902100
51.618900 1.937400
51.655900 1.976300
51.692800 2.008300
51.729800 2.024700
51.766700 2.050700
51.803700 2.085900
51.840600 2.063500
51.877600 1.976200
51.914500 1.906400
51.951500 1.858400
51.988400 1.910700
52.025300 1.932500
52.062300 1.957100
52.099200 1.939500
52.136200 1.930600
52.173100 1.921300
52.210100 1.907200
52.247000 1.917400
52.284000 1.944800
52.320900 1.975200
52.357900 1.993900
52.394800 2.028200
52.431800 2.068600
52.468700 2.092600
52.505700 2.135700
52.542600 2.137800
52.579500 2.166000
52.616500 2.175600
52.653400 2.162800
52.690400 2.156200
52.727300 2.173600
52.764300 2.108700
52.801200 2.076400
52.838200 2.017200
52.875100 1.974500
52.912100 1.891500
52.949000 1.814500
52.986000 1.757300
53.022900 1.718900
53.059900 1.704700
53.096800 1.696000
53.133700 1.702400
53.170700 1.722600
53.207600 1.749300
53.244600 1.774100
53.281500 1.797900
53.318500 1.832300
53.355400 1.858600
53.392400 1.894100
53.429300 1.925600
53.466300 1.983400
53.503200 1.963000
53.540200 2.002600
53.577100 2.044100
53.614100 2.075200
53.651000 2.110100
53.688000 2.160900
53.724900 2.166800
53.761800 2.217100
53.798800 2.190900
53.835700 2.210700
53.872700 2.220100
53.909600 2.208400
53.946600 2.183300
53.983500 2.210200
54.020500 2.164200
54.057400 2.147700
54.094400 2.156100
54.131300 2.200500
54.168300 2.217400
54.205200 2.200300
54.242200 2.184500
54.279100 2.169500
54.316000 2.134800
54.353000 2.110100
54.389900 2.100700
54.426900 2.065300
54.463800 2.094300
54.500800 2.210900
54.537700 2.177000
54.574700 2.172200
54.611600 2.149100
54.648600 2.120300
54.685500 2.113500
54.722500 2.099600
54.759400 2.088600
54.796400 2.075900
54.833300 2.103000
54.870200 2.108500
54.907200 2.124700
54.944100 2.119500
54.981100 2.106000
55.018000 2.100400
55.055000 2.109800
55.091900 2.117500
55.128900 2.131700
55.165800 2.129600
55.202800 2.170000
55.239700 2.228200
55.276700 2.207800
55.313600 2.119100
55.350600 2.087500
55.387500 2.090000
55.424400 2.054000
55.461400 2.046600
55.498300 2.085800
55.535300 2.098400
55.572200 2.103200
55.609200 2.091300
55.646100 2.107800
55.683100 2.123600
55.720000 2.089200
55.757000 2.100900
55.793900 2.110200
55.830900 2.110300
55.867800 2.102400
55.904800 2.115600
55.941700 2.158200
55.978700 2.253700
56.015600 2.340800
56.052500 2.406900
56.089500 2.521200
56.126400 2.671000
56.163400 2.717600
56.200300 2.785600
56.237300 2.911600
56.274200 2.935700
56.311200 2.882500
56.348100 2.887500
56.385100 2.901300
56.422000 2.892500
56.459000 2.945000
56.495900 2.996900
56.532900 2.976500
56.569800 2.978100
56.606700 3.007500
56.643700 3.192300
56.680600 3.232200
56.717600 3.149900
56.754500 3.137500
56.791500 3.138100
56.828400 2.964700
56.865400 2.659000
56.902300 2.503200
56.939300 2.334400
56.976200 2.162800
57.013200 2.035900
57.050100 1.908300
57.087100 1.782300
57.124000 1.669900
57.160900 1.642400
57.197900 1.511500
57.234800 1.226300
57.271800 1.103800
57.308700 1.037200
57.345700 0.981600
57.382600 0.920600
57.419600 0.853500
57.456500 0.789000
57.493500 0.742800
57.530400 0.678300
57.567400 0.650400
57.604300 0.642600
57.641300 0.607600
57.678200 0.559800
57.715100 0.528200
57.752100 0.497500
57.789000 0.468100
57.826000 0.432400
57.862900 0.415500
57.899900 0.400200
57.936800 0.391700
57.973800 0.386600
58.010700 0.363700
58.047700 0.343000
58.084600 0.329600
58.121600 0.315000
58.158500 0.299100
58.195500 0.279300
58.232400 0.259100
58.269400 0.241400
58.306300 0.226400
58.343200 0.214100
58.380200 0.202300
58.417100 0.193100
58.454100 0.183900
58.491000 0.173600
58.528000 0.162300
58.564900 0.150000
58.601900 0.137500
58.638800 0.126700
58.675800 0.117900
58.712700 0.109700
58.749700 0.102200
58.786600 0.095300
58.823600 0.090200
58.860500 0.085500
58.897400 0.081600
58.934400 0.078500
58.971300 0.075900
59.008300 0.073600
59.045200 0.070800
59.082200 0.067500
59.119100 0.064400
59.156100 0.061500
59.193000 0.058800
59.230000 0.056400
59.266900 0.054300
59.303900 0.052200
59.340800 0.050100
59.377800 0.048000
59.414700 0.045400
59.451600 0.042500
59.488600 0.039600
59.525500 0.036700
59.562500 0.034000
59.599400 0.032100
59.636400 0.030800
59.673300 0.030300
59.710300 0.028100
59.747200 0.003100
59.784200 0.000700
59.821100 0.000000
59.858100 0.000000
59.895000 0.000000
59.932000 0.000000
59.968900 0.000000
60.005800 0.000000
60.042800 0.000000
60.079700 0.000000
60.116700 0.000000
60.153600 0.000000
60.190600 0.000000
60.227500 0.000000
60.264500 0.000000
60.301400 0.000000
60.338400 0.000000
60.375300 0.000000
60.412300 0.000000
60.449200 0.000000
60.486200 0.000000
60.523100 0.000000
60.560100 0.000000
60.597000 0.000000
60.633900 0.000000
60.670900 0.000000
60.707800 0.000000
60.744800 0.000000
60.781700 0.000000
60.818700 0.000000
60.855600 0.000000
60.892600 0.000000
60.929500 0.000000
60.966500 0.000000
61.003400 0.000000
61.040400 0.000000
61.077300 0.000000
61.114300 0.000000
61.151200 0.000000
61.188100 0.000000
61.225100 0.000000
61.262000 0.000000
61.299000 0.000000
61.335900 0.000000
61.372900 0.000000
61.409800 0.000000
61.446800 0.000000
61.483700 0.000000
61.520700 0.000000
61.557600 0.000000
61.594600 0.000000
61.631500 0.000000
61.668500 0.000000
61.705400 0.000000
61.742300 0.000000
61.779300 0.000000
61.816200 0.000000
61.853200 0.000000
61.890100 0.000000
61.927100 0.000000
61.964000 0.000000
62.001000 0.000000
62.037900 0.000000
62.074900 0.000000
62.111800 0.000000
62.148800 0.000000
62.185700 0.000000
62.222700 0.000000
62.259600 0.000000
62.296500 0.000000
62.333500 0.000000
62.370400 0.000000
62.407400 0.000000
62.444300 0.000000
62.481300 0.000000
62.518200 0.000000
62.555200 0.000000
62.592100 0.000000
62.629100 0.000000
62.666000 0.000000
62.703000 0.000000
62.739900 0.000000
62.776900 0.000000
62.813800 0.000000
62.850800 0.000000
62.887700 0.000000
62.924600 0.000000
62.961600 0.000000
62.998500 0.000000
63.035500 0.000000
63.072400 0.000000
63.109400 0.000000
63.146300 0.000000
63.183300 0.000000
e
