set title 'mp-570002 - Density of States'
set xlabel 'Energy (eV)'
set ylabel 'DOS (states/eV)'
set grid
set xrange [-10:10]
set yrange [0:6.540]
set xzeroaxis lt -1
set terminal png size 800,600
set output 'mp-570002_dos_gnuplot.png'
plot '-' using 1:2 with lines title 'DOS'
-16.760600 0.000000
-16.732400 0.000000
-16.704200 0.000000
-16.676100 0.000000
-16.647900 0.000000
-16.619700 0.000000
-16.591500 0.000000
-16.563300 0.000000
-16.535100 0.000000
-16.506900 0.000000
-16.478800 0.000000
-16.450600 0.000000
-16.422400 0.000000
-16.394200 0.000000
-16.366000 0.000000
-16.337800 0.000000
-16.309600 0.000000
-16.281500 0.000000
-16.253300 0.000000
-16.225100 0.000000
-16.196900 0.000000
-16.168700 0.000000
-16.140500 0.000000
-16.112300 0.000000
-16.084200 0.000000
-16.056000 0.000000
-16.027800 0.000000
-15.999600 0.000000
-15.971400 0.000000
-15.943200 0.000000
-15.915000 0.000000
-15.886900 0.000000
-15.858700 0.000000
-15.830500 0.000000
-15.802300 0.000000
-15.774100 0.000000
-15.745900 0.000000
-15.717700 0.000000
-15.689600 0.000000
-15.661400 0.000000
-15.633200 0.000000
-15.605000 0.000000
-15.576800 0.000000
-15.548600 0.000000
-15.520400 0.000000
-15.492300 0.000000
-15.464100 0.000000
-15.435900 0.000000
-15.407700 0.000000
-15.379500 0.000000
-15.351300 0.000000
-15.323100 0.000000
-15.295000 0.000000
-15.266800 0.000000
-15.238600 0.000000
-15.210400 0.000000
-15.182200 0.000000
-15.154000 0.000000
-15.125800 0.000000
-15.097700 0.000000
-15.069500 0.000000
-15.041300 0.000000
-15.013100 0.000000
-14.984900 0.000000
-14.956700 0.000000
-14.928500 0.000000
-14.900400 0.000000
-14.872200 0.000000
-14.844000 0.000000
-14.815800 0.000000
-14.787600 0.000000
-14.759400 0.000000
-14.731200 0.000000
-14.703100 0.000000
-14.674900 0.000000
-14.646700 0.000000
-14.618500 0.000000
-14.590300 0.000000
-14.562100 0.000000
-14.533900 0.000000
-14.505800 0.000000
-14.477600 0.000000
-14.449400 0.000000
-14.421200 0.000000
-14.393000 0.000000
-14.364800 0.000000
-14.336600 0.000000
-14.308500 0.000000
-14.280300 0.000000
-14.252100 0.000000
-14.223900 0.000000
-14.195700 0.000100
-14.167500 0.019500
-14.139300 0.071600
-14.111200 0.156400
-14.083000 0.273900
-14.054800 0.362500
-14.026600 0.408300
-13.998400 0.461000
-13.970200 0.520500
-13.942000 0.586600
-13.913900 0.651000
-13.885700 0.710000
-13.857500 0.763600
-13.829300 0.850900
-13.801100 0.887200
-13.772900 0.933800
-13.744700 0.990500
-13.716600 1.057200
-13.688400 1.133600
-13.660200 1.219600
-13.632000 1.315200
-13.603800 1.395800
-13.575600 1.497600
-13.547400 1.611800
-13.519300 1.743300
-13.491100 1.892100
-13.462900 2.231100
-13.434700 2.526700
-13.406500 2.883600
-13.378300 3.357400
-13.350100 3.831000
-13.322000 4.221700
-13.293800 5.886300
-13.265600 5.393900
-13.237400 3.209600
-13.209200 2.164900
-13.181000 1.849700
-13.152800 1.570200
-13.124700 1.326400
-13.096500 1.162100
-13.068300 1.057800
-13.040100 0.959000
-13.011900 0.865700
-12.983700 0.752800
-12.955500 0.672300
-12.927400 0.593600
-12.899200 0.516700
-12.871000 0.441600
-12.842800 0.368300
-12.814600 0.326600
-12.786400 0.291600
-12.758200 0.248700
-12.730100 0.197900
-12.701900 0.139200
-12.673700 0.000000
-12.645500 0.000000
-12.617300 0.000000
-12.589100 0.000000
-12.560900 0.000000
-12.532800 0.000000
-12.504600 0.000000
-12.476400 0.000000
-12.448200 0.000000
-12.420000 0.000000
-12.391800 0.000000
-12.363600 0.000000
-12.335500 0.000000
-12.307300 0.000000
-12.279100 0.000000
-12.250900 0.000000
-12.222700 0.000000
-12.194500 0.000000
-12.166300 0.000000
-12.138200 0.000000
-12.110000 0.000000
-12.081800 0.000000
-12.053600 0.000000
-12.025400 0.000000
-11.997200 0.000000
-11.969000 0.000000
-11.940900 0.000000
-11.912700 0.000000
-11.884500 0.000000
-11.856300 0.000000
-11.828100 0.000000
-11.799900 0.000000
-11.771700 0.000000
-11.743600 0.000000
-11.715400 0.000000
-11.687200 0.000000
-11.659000 0.000000
-11.630800 0.000000
-11.602600 0.000000
-11.574400 0.000000
-11.546300 0.000000
-11.518100 0.000000
-11.489900 0.000000
-11.461700 0.000000
-11.433500 0.000000
-11.405300 0.000000
-11.377100 0.000000
-11.349000 0.000000
-11.320800 0.000000
-11.292600 0.000000
-11.264400 0.000000
-11.236200 0.000000
-11.208000 0.000000
-11.179800 0.000000
-11.151700 0.000000
-11.123500 0.000000
-11.095300 0.000000
-11.067100 0.000000
-11.038900 0.000000
-11.010700 0.000000
-10.982500 0.000000
-10.954400 0.000000
-10.926200 0.000000
-10.898000 0.000000
-10.869800 0.000000
-10.841600 0.000000
-10.813400 0.000000
-10.785200 0.000000
-10.757100 0.000000
-10.728900 0.000000
-10.700700 0.000000
-10.672500 0.000000
-10.644300 0.000000
-10.616100 0.000000
-10.587900 0.000000
-10.559800 0.000000
-10.531600 0.000000
-10.503400 0.000000
-10.475200 0.000000
-10.447000 0.000000
-10.418800 0.000000
-10.390600 0.000000
-10.362500 0.000000
-10.334300 0.000000
-10.306100 0.000000
-10.277900 0.000000
-10.249700 0.000000
-10.221500 0.000000
-10.193300 0.000000
-10.165200 0.000000
-10.137000 0.000000
-10.108800 0.000000
-10.080600 0.000000
-10.052400 0.000000
-10.024200 0.000000
-9.996000 0.000000
-9.967900 0.000000
-9.939700 0.000000
-9.911500 0.000000
-9.883300 0.000000
-9.855100 0.000000
-9.826900 0.000000
-9.798700 0.000000
-9.770600 0.000000
-9.742400 0.000000
-9.714200 0.000000
-9.686000 0.000000
-9.657800 0.000000
-9.629600 0.727100
-9.601400 1.002200
-9.573300 1.170800
-9.545100 1.353900
-9.516900 1.625600
-9.488700 2.001000
-9.460500 2.521300
-9.432300 2.949700
-9.404100 3.279900
-9.376000 3.512000
-9.347800 4.032600
-9.319600 3.843300
-9.291400 3.918500
-9.263200 3.614500
-9.235000 3.151500
-9.206800 2.475500
-9.178700 2.137400
-9.150500 2.004500
-9.122300 1.867400
-9.094100 1.586900
-9.065900 1.512600
-9.037700 1.471300
-9.009500 1.442300
-8.981400 1.425100
-8.953200 1.418200
-8.925000 1.434600
-8.896800 1.494200
-8.868600 1.571500
-8.840400 2.184100
-8.812200 2.451600
-8.784100 2.241400
-8.755900 2.050700
-8.727700 2.038200
-8.699500 2.025300
-8.671300 2.009600
-8.643100 2.073100
-8.614900 2.020700
-8.586800 1.979300
-8.558600 1.941300
-8.530400 1.906400
-8.502200 1.887700
-8.474000 1.882200
-8.445800 1.883200
-8.417600 1.937200
-8.389500 2.000800
-8.361300 2.050600
-8.333100 2.086600
-8.304900 1.872000
-8.276700 1.883100
-8.248500 1.932800
-8.220300 2.131500
-8.192200 2.114500
-8.164000 2.092000
-8.135800 2.063800
-8.107600 2.030000
-8.079400 1.990600
-8.051200 1.945700
-8.023000 1.895100
-7.994900 1.892600
-7.966700 1.887800
-7.938500 1.809700
-7.910300 1.721700
-7.882100 1.634800
-7.853900 1.561300
-7.825700 1.504500
-7.797600 1.488300
-7.769400 1.477100
-7.741200 1.466400
-7.713000 1.456100
-7.684800 1.446200
-7.656600 1.436800
-7.628400 1.392700
-7.600300 1.393900
-7.572100 1.392000
-7.543900 1.387100
-7.515700 1.379200
-7.487500 1.387400
-7.459300 1.417400
-7.431100 1.440800
-7.403000 1.511000
-7.374800 1.607600
-7.346600 1.797800
-7.318400 1.565600
-7.290200 1.573000
-7.262000 1.632100
-7.233800 1.714900
-7.205700 1.821400
-7.177500 1.716800
-7.149300 1.742200
-7.121100 1.760400
-7.092900 1.771300
-7.064700 1.779400
-7.036500 1.785100
-7.008400 1.788600
-6.980200 1.789900
-6.952000 1.788800
-6.923800 1.785500
-6.895600 1.717100
-6.867400 1.671400
-6.839200 1.623900
-6.811100 1.543800
-6.782900 1.497000
-6.754700 1.448400
-6.726500 1.397900
-6.698300 1.345500
-6.670100 1.169400
-6.641900 1.180600
-6.613800 1.121000
-6.585600 1.069300
-6.557400 1.025400
-6.529200 0.960400
-6.501000 0.913900
-6.472800 0.867600
-6.444600 0.821600
-6.416500 0.775900
-6.388300 0.730400
-6.360100 0.685300
-6.331900 0.640400
-6.303700 0.595800
-6.275500 0.551500
-6.247300 0.507500
-6.219200 0.463800
-6.191000 0.420300
-6.162800 0.377100
-6.134600 0.350300
-6.106400 0.621400
-6.078200 0.130100
-6.050000 0.086100
-6.021900 0.053200
-5.993700 0.031400
-5.965500 0.016400
-5.937300 0.005700
-5.909100 0.000000
-5.880900 0.000000
-5.852700 0.000000
-5.824600 0.000000
-5.796400 0.000000
-5.768200 0.000000
-5.740000 0.011600
-5.711800 0.053200
-5.683600 0.111700
-5.655400 0.187000
-5.627300 0.279200
-5.599100 0.388200
-5.570900 0.522000
-5.542700 0.708400
-5.514500 0.949700
-5.486300 1.246000
-5.458100 1.715100
-5.430000 2.193500
-5.401800 2.420400
-5.373600 2.574700
-5.345400 2.606600
-5.317200 2.463400
-5.289000 2.346600
-5.260800 2.257000
-5.232700 2.195600
-5.204500 2.152900
-5.176300 2.129000
-5.148100 2.128400
-5.119900 2.151900
-5.091700 2.008400
-5.063500 1.959900
-5.035400 1.907600
-5.007200 1.851500
-4.979000 1.791700
-4.950800 1.728300
-4.922600 1.681700
-4.894400 1.584600
-4.866200 1.395000
-4.838100 1.233200
-4.809900 1.227400
-4.781700 1.222800
-4.753500 1.219300
-4.725300 1.216900
-4.697100 1.215700
-4.668900 1.215600
-4.640800 1.216600
-4.612600 1.218800
-4.584400 1.222100
-4.556200 1.226600
-4.528000 1.232200
-4.499800 1.238900
-4.471600 1.246800
-4.443500 1.255800
-4.415300 1.266000
-4.387100 1.277200
-4.358900 1.289200
-4.330700 1.300200
-4.302500 1.409200
-4.274300 1.418200
-4.246200 1.563900
-4.218000 1.589400
-4.189800 1.840000
-4.161600 2.083900
-4.133400 2.431500
-4.105200 2.220700
-4.077000 2.151000
-4.048900 2.075200
-4.020700 1.936000
-3.992500 1.719100
-3.964300 1.629900
-3.936100 1.542400
-3.907900 1.459400
-3.879700 1.375900
-3.851600 1.218600
-3.823400 1.174100
-3.795200 1.176100
-3.767000 1.179200
-3.738800 1.183100
-3.710600 1.185600
-3.682400 1.186400
-3.654300 1.185500
-3.626100 1.225800
-3.597900 1.213800
-3.569700 1.201000
-3.541500 1.187500
-3.513300 1.173200
-3.485100 1.158200
-3.457000 1.149100
-3.428800 1.144300
-3.400600 1.140400
-3.372400 1.137000
-3.344200 1.133700
-3.316000 1.130500
-3.287800 1.127300
-3.259700 1.124200
-3.231500 1.121200
-3.203300 1.118300
-3.175100 1.115400
-3.146900 1.112700
-3.118700 1.110000
-3.090500 1.107400
-3.062400 1.104800
-3.034200 1.102400
-3.006000 1.100000
-2.977800 1.097700
-2.949600 1.095500
-2.921400 1.058500
-2.893200 1.061800
-2.865100 1.065200
-2.836900 1.068700
-2.808700 1.072300
-2.780500 1.075900
-2.752300 1.263800
-2.724100 1.349400
-2.695900 1.428600
-2.667800 1.639700
-2.639600 1.744200
-2.611400 2.283400
-2.583200 2.602400
-2.555000 2.912100
-2.526800 3.820200
-2.498600 3.289400
-2.470500 2.322700
-2.442300 1.368800
-2.414100 1.497200
-2.385900 1.587300
-2.357700 1.682600
-2.329500 1.780200
-2.301300 1.880200
-2.273200 2.069100
-2.245000 2.156600
-2.216800 2.227200
-2.188600 2.280800
-2.160400 2.134200
-2.132200 2.134300
-2.104000 2.147700
-2.075900 2.174300
-2.047700 2.214100
-2.019500 2.267200
-1.991300 2.363500
-1.963100 2.389400
-1.934900 2.396200
-1.906700 2.334200
-1.878600 2.241000
-1.850400 2.132700
-1.822200 1.971300
-1.794000 1.899000
-1.765800 1.883500
-1.737600 1.868700
-1.709400 1.854700
-1.681300 1.843100
-1.653100 1.837600
-1.624900 1.838300
-1.596700 1.845300
-1.568500 1.864100
-1.540300 1.878600
-1.512100 1.884700
-1.484000 1.897000
-1.455800 1.915500
-1.427600 1.940000
-1.399400 1.970700
-1.371200 2.055700
-1.343000 2.094500
-1.314800 2.136100
-1.286700 2.180300
-1.258500 2.227300
-1.230300 2.282300
-1.202100 2.858300
-1.173900 2.914400
-1.145700 3.167800
-1.117500 3.395300
-1.089400 3.547500
-1.061200 3.534500
-1.033000 3.539900
-1.004800 3.549200
-0.976600 3.640200
-0.948400 4.138300
-0.920200 3.857900
-0.892100 3.544300
-0.863900 3.149300
-0.835700 3.043800
-0.807500 2.945300
-0.779300 2.854100
-0.751100 2.772400
-0.722900 2.825800
-0.694800 2.855900
-0.666600 3.225000
-0.638400 3.396400
-0.610200 3.848100
-0.582000 4.181400
-0.553800 4.680700
-0.525600 4.625400
-0.497500 4.726500
-0.469300 4.933000
-0.441100 4.870300
-0.412900 4.728000
-0.384700 4.620800
-0.356500 4.548500
-0.328300 5.602200
-0.300200 5.945500
-0.272000 5.681900
-0.243800 5.152400
-0.215600 4.198100
-0.187400 3.180800
-0.159200 2.348500
-0.131000 1.887400
-0.102900 1.459800
-0.074700 1.124200
-0.046500 1.050200
-0.018300 0.980100
0.009900 0.913900
0.038100 0.851700
0.066300 0.773500
0.094400 0.722200
0.122600 0.674200
0.150800 0.629600
0.179000 0.588400
0.207200 0.550500
0.235400 0.592700
0.263600 0.573700
0.291700 0.551900
0.319900 0.527200
0.348100 0.499800
0.376300 0.469500
0.404500 0.381700
0.432700 0.335700
0.460900 0.292600
0.489000 0.252400
0.517200 0.214900
0.545400 0.180400
0.573600 0.148600
0.601800 0.119800
0.630000 0.093700
0.658200 0.070500
0.686300 0.050200
0.714500 0.032700
0.742700 0.018000
0.770900 0.006700
0.799100 0.000800
0.827300 0.000200
0.855500 0.001600
0.883600 0.073100
0.911800 0.093300
0.940000 0.116000
0.968200 0.141400
0.996400 0.169200
1.024600 0.199700
1.052800 0.232700
1.080900 0.268300
1.109100 0.306400
1.137300 0.347100
1.165500 0.390400
1.193700 0.683800
1.221900 0.760100
1.250100 1.303000
1.278200 0.826100
1.306400 0.883600
1.334600 0.941400
1.362800 0.999400
1.391000 1.057700
1.419200 1.116400
1.447400 1.179500
1.475500 1.178500
1.503700 1.231700
1.531900 1.308700
1.560100 1.393000
1.588300 1.479200
1.616500 1.602700
1.644700 1.734400
1.672800 1.874200
1.701000 2.023000
1.729200 2.184900
1.757400 2.248600
1.785600 2.472300
1.813800 2.769600
1.842000 3.133600
1.870100 3.564300
1.898300 3.952400
1.926500 4.293200
1.954700 4.690600
1.982900 5.055700
2.011100 4.946600
2.039300 4.329200
2.067400 3.879900
2.095600 3.550900
2.123800 4.806100
2.152000 4.445100
2.180200 4.520800
2.208400 4.696400
2.236600 4.668300
2.264700 4.757500
2.292900 4.353100
2.321100 4.246400
2.349300 4.117300
2.377500 4.189100
2.405700 4.062000
2.433900 3.878200
2.462000 3.580800
2.490200 2.280300
2.518400 1.953300
2.546600 1.673500
2.574800 1.440800
2.603000 1.255300
2.631200 1.078700
2.659300 0.987700
2.687500 0.942500
2.715700 0.872700
2.743900 0.813100
2.772100 0.763800
2.800300 0.724800
2.828500 0.696000
2.856600 0.677400
2.884800 0.669200
2.913000 0.668000
2.941200 0.670800
2.969400 0.677400
2.997600 0.688200
3.025800 0.641000
3.053900 0.677900
3.082100 1.765700
3.110300 2.495000
3.138500 3.539500
3.166700 4.108100
3.194900 4.419800
3.223100 4.285300
3.251200 4.269900
3.279400 4.198600
3.307600 4.127600
3.335800 4.285900
3.364000 5.470500
3.392200 3.710200
3.420400 3.306800
3.448500 2.976100
3.476700 2.708800
3.504900 2.689800
3.533100 2.677100
3.561300 2.683000
3.589500 2.707700
3.617700 2.751000
3.645800 2.706300
3.674000 2.415700
3.702200 2.237800
3.730400 2.068600
3.758600 1.908000
3.786800 1.835300
3.815000 1.811900
3.843100 1.734800
3.871300 1.745600
3.899500 1.829400
3.927700 1.853700
3.955900 1.879400
3.984100 1.908400
4.012300 1.941800
4.040400 2.117200
4.068600 2.200400
4.096800 2.388600
4.125000 2.488500
4.153200 2.473200
4.181400 2.471300
4.209600 2.507500
4.237700 2.673800
4.265900 2.724000
4.294100 2.792400
4.322300 2.856700
4.350500 2.901600
4.378700 2.919000
4.406900 2.966800
4.435000 3.013300
4.463200 3.082600
4.491400 3.143300
4.519600 3.206400
4.547800 3.264600
4.576000 3.456500
4.604200 3.527300
4.632300 3.565800
4.660500 3.299100
4.688700 3.300700
4.716900 3.349900
4.745100 3.376500
4.773300 3.386700
4.801500 3.392800
4.829600 3.395000
4.857800 3.387900
4.886000 3.356800
4.914200 3.343500
4.942400 3.307400
4.970600 3.477700
4.998800 3.244600
5.026900 3.193100
5.055100 3.171200
5.083300 3.142000
5.111500 3.105400
5.139700 3.420600
5.167900 2.742700
5.196100 2.636700
5.224200 2.534600
5.252400 2.436600
5.280600 2.311300
5.308800 2.217300
5.337000 2.126300
5.365200 2.050500
5.393400 1.973100
5.421500 1.900200
5.449700 1.828100
5.477900 1.778700
5.506100 1.715900
5.534300 1.662500
5.562500 1.693000
5.590700 1.544100
5.618800 1.416300
5.647000 1.340900
5.675200 1.266500
5.703400 1.194900
5.731600 1.134500
5.759800 1.075800
5.788000 1.029700
5.816100 0.977100
5.844300 0.925200
5.872500 0.874100
5.900700 0.788600
5.928900 0.730900
5.957100 0.675400
5.985300 0.622000
6.013400 0.570800
6.041600 0.521800
6.069800 0.490800
6.098000 0.410400
6.126200 0.343500
6.154400 0.295700
6.182600 0.257200
6.210700 0.228200
6.238900 0.207400
6.267100 0.122100
6.295300 0.108500
6.323500 0.092900
6.351700 0.075400
6.379900 0.000000
6.408000 0.000000
6.436200 0.000000
6.464400 0.000000
6.492600 0.000000
6.520800 0.000000
6.549000 0.000000
6.577200 0.000000
6.605300 0.000000
6.633500 0.000000
6.661700 0.000000
6.689900 0.000000
6.718100 0.000000
6.746300 0.000000
6.774500 0.000000
6.802600 0.000000
6.830800 0.000000
6.859000 0.000000
6.887200 0.000000
6.915400 0.000000
6.943600 0.000000
6.971800 0.000000
6.999900 0.000000
7.028100 0.000000
7.056300 0.000000
7.084500 0.000000
7.112700 0.000000
7.140900 0.000000
7.169100 0.000000
7.197200 0.000000
7.225400 0.000000
7.253600 0.000000
7.281800 0.000000
7.310000 0.000000
7.338200 0.000000
7.366400 0.000000
7.394500 0.000000
7.422700 0.000000
7.450900 0.000000
7.479100 0.000000
7.507300 0.000000
7.535500 0.000000
7.563700 0.000000
7.591800 0.000000
7.620000 0.000000
7.648200 0.000000
7.676400 0.000000
7.704600 0.000000
7.732800 0.000000
7.761000 0.000000
7.789100 0.000000
7.817300 0.000000
7.845500 0.000000
7.873700 0.000000
7.901900 0.000000
7.930100 0.000000
7.958300 0.000000
7.986400 0.000000
8.014600 0.000000
8.042800 0.000000
8.071000 0.000000
8.099200 0.000000
8.127400 0.000000
8.155600 0.000000
8.183700 0.000000
8.211900 0.000000
8.240100 0.000000
8.268300 0.000000
8.296500 0.000000
8.324700 0.000000
8.352900 0.000000
8.381000 0.000000
8.409200 0.000000
8.437400 0.000000
8.465600 0.000000
8.493800 0.000000
8.522000 0.000000
8.550200 0.000000
8.578300 0.000000
8.606500 0.000000
8.634700 0.000000
8.662900 0.000000
8.691100 0.000000
8.719300 0.000000
8.747500 0.000000
8.775600 0.000000
8.803800 0.000000
8.832000 0.000000
8.860200 0.000000
8.888400 0.000000
8.916600 0.000000
8.944800 0.000000
8.972900 0.000000
9.001100 0.000000
9.029300 0.000000
9.057500 0.000000
9.085700 0.000000
9.113900 0.000000
9.142100 0.000000
9.170200 0.000000
9.198400 0.000000
9.226600 0.000000
9.254800 0.000000
9.283000 0.000000
9.311200 0.000000
9.339400 0.000000
9.367500 0.000000
9.395700 0.000000
9.423900 0.000000
9.452100 0.000000
9.480300 0.000000
9.508500 0.000000
9.536700 0.000000
9.564800 0.000000
9.593000 0.004900
9.621200 0.026100
9.649400 0.064100
9.677600 0.119000
9.705800 0.190800
9.734000 0.279400
9.762100 0.384800
9.790300 0.507100
9.818500 0.798600
9.846700 0.969900
9.874900 1.147000
9.903100 2.325600
9.931300 2.689200
9.959400 2.872300
9.987600 2.999400
10.015800 2.554800
10.044000 2.488800
10.072200 2.409100
10.100400 2.315700
10.128600 2.208500
10.156700 2.087500
10.184900 1.850500
10.213100 1.718700
10.241300 1.647600
10.269500 1.618800
10.297700 1.531300
10.325900 1.455900
10.354000 1.392700
10.382200 1.341700
10.410400 1.264700
10.438600 1.214700
10.466800 1.168200
10.495000 1.495600
10.523200 1.406100
10.551300 1.354100
10.579500 1.339500
10.607700 1.352300
10.635900 1.384800
10.664100 1.437100
10.692300 1.509100
10.720500 1.636600
10.748600 1.804300
10.776800 1.945700
10.805000 2.047900
10.833200 2.110100
10.861400 2.162300
10.889600 2.231800
10.917800 2.291600
10.945900 2.341400
10.974100 2.459700
11.002300 2.575500
11.030500 2.688600
11.058700 2.799000
11.086900 2.906500
11.115100 2.953200
11.143200 3.047500
11.171400 3.145000
11.199600 3.249100
11.227800 3.387800
11.256000 3.525400
11.284200 3.649600
11.312400 3.777000
11.340500 3.896400
11.368700 4.069200
11.396900 4.057300
11.425100 4.094200
11.453300 3.989700
11.481500 3.691000
11.509700 3.511800
11.537800 3.381100
11.566000 3.272600
11.594200 3.213400
11.622400 3.151600
11.650600 3.087200
11.678800 3.020300
11.707000 3.182700
11.735100 3.263500
11.763300 3.427600
11.791500 3.442900
11.819700 3.271400
11.847900 3.066100
11.876100 2.758400
11.904300 2.143300
11.932400 2.113900
11.960600 2.095000
11.988800 2.086500
12.017000 2.088500
12.045200 2.110300
12.073400 2.290200
12.101600 2.431200
12.129700 4.029200
12.157900 2.151800
12.186100 1.240600
12.214300 0.546300
12.242500 0.446400
12.270700 0.354700
12.298900 0.271300
12.327000 0.196200
12.355200 0.000000
12.383400 0.000000
12.411600 0.000000
12.439800 0.000000
12.468000 0.089800
12.496200 0.121100
12.524300 0.156400
12.552500 0.195700
12.580700 0.239000
12.608900 0.286300
12.637100 0.337600
12.665300 0.392900
12.693500 0.452300
12.721600 0.515600
12.749800 1.121500
12.778000 0.852400
12.806200 0.949600
12.834400 1.046700
12.862600 1.143700
12.890800 1.240700
12.918900 1.337700
12.947100 1.434500
12.975300 1.563400
13.003500 1.822800
13.031700 2.129300
13.059900 2.483000
13.088100 2.741900
13.116200 2.625500
13.144400 2.604600
13.172600 2.657400
13.200800 2.622700
13.229000 2.646000
13.257200 2.667800
13.285400 2.688000
13.313500 2.706600
13.341700 2.712300
13.369900 2.727600
13.398100 2.725800
13.426300 2.711700
13.454500 2.686800
13.482700 2.662900
13.510800 2.636700
13.539000 2.608300
13.567200 2.577600
13.595400 2.544700
13.623600 2.512700
13.651800 2.566200
13.680000 2.557200
13.708100 2.566600
13.736300 2.594300
13.764500 2.505700
13.792700 2.830400
13.820900 3.170800
13.849100 3.527000
13.877300 4.516300
13.905400 4.152000
13.933600 3.797000
13.961800 3.451300
13.990000 3.073900
14.018200 2.785800
14.046400 2.714600
14.074600 2.800400
14.102700 2.931700
14.130900 3.084200
14.159100 3.324000
14.187300 3.311500
14.215500 3.428000
14.243700 3.803400
14.271900 4.173700
14.300000 4.076800
14.328200 3.815800
14.356400 3.506600
14.384600 3.428900
14.412800 3.351700
14.441000 3.274900
14.469200 3.166100
14.497300 3.095400
14.525500 3.024800
14.553700 2.877200
14.581900 2.840400
14.610100 2.806200
14.638300 2.830000
14.666500 2.832300
14.694600 2.811000
14.722800 2.898400
14.751000 2.938700
14.779200 2.981900
14.807400 3.067200
14.835600 2.983700
14.863800 3.807900
14.891900 2.613300
14.920100 2.507000
14.948300 2.508000
14.976500 2.699900
15.004700 2.602100
15.032900 2.515600
15.061100 2.440200
15.089200 2.376100
15.117400 2.255900
15.145600 2.086700
15.173800 2.262900
15.202000 2.342800
15.230200 2.270600
15.258400 2.185800
15.286500 2.084200
15.314700 1.965800
15.342900 1.830500
15.371100 1.675500
15.399300 1.494900
15.427500 0.737400
15.455700 0.710800
15.483800 0.685600
15.512000 0.661700
15.540200 0.639100
15.568400 0.617800
15.596600 0.597800
15.624800 0.579100
15.653000 0.576100
15.681100 0.581200
15.709300 0.587100
15.737500 0.594300
15.765700 0.602600
15.793900 0.612200
15.822100 0.623000
15.850300 0.634900
15.878400 0.648100
15.906600 0.662500
15.934800 0.678200
15.963000 0.695000
15.991200 0.713000
16.019400 0.732300
16.047600 0.769800
16.075700 0.793100
16.103900 0.816900
16.132100 0.909400
16.160300 1.032700
16.188500 1.170300
16.216700 1.322400
16.244900 1.488800
16.273000 1.669600
16.301200 1.902500
16.329400 2.381200
16.357600 2.842800
16.385800 2.419200
16.414000 1.847700
16.442200 1.838900
16.470300 1.830500
16.498500 1.822400
16.526700 1.814800
16.554900 1.807600
16.583100 1.800800
16.611300 1.794400
16.639500 1.788400
16.667600 1.883300
16.695800 1.887600
16.724000 1.894000
16.752200 1.922800
16.780400 1.971800
16.808600 2.033000
16.836800 2.113500
16.864900 2.223200
16.893100 2.182900
16.921300 2.233500
16.949500 2.315900
16.977700 2.395400
17.005900 2.467900
17.034100 2.489400
17.062200 2.578400
17.090400 2.661100
17.118600 2.870700
17.146800 2.915100
17.175000 2.972600
17.203200 3.062600
17.231400 3.396900
17.259500 3.486600
17.287700 3.526200
17.315900 3.515800
17.344100 3.214900
17.372300 3.088600
17.400500 3.072100
17.428700 3.686700
17.456800 3.554300
17.485000 3.639500
17.513200 3.507000
17.541400 3.484000
17.569600 3.455900
17.597800 3.422600
17.626000 3.416400
17.654100 3.241000
17.682300 3.192900
17.710500 3.196500
17.738700 3.762500
17.766900 3.662900
17.795100 3.942000
17.823300 3.851200
17.851400 3.779600
17.879600 3.665400
17.907800 3.701100
17.936000 3.627500
17.964200 3.624200
17.992400 3.590700
18.020600 3.532400
18.048700 3.460600
18.076900 3.598300
18.105100 5.711000
18.133300 4.405800
18.161500 4.673800
18.189700 5.226000
18.217900 5.971300
18.246000 4.216400
18.274200 3.932200
18.302400 3.783300
18.330600 3.706600
18.358800 3.673100
18.387000 3.691400
18.415200 3.769500
18.443300 4.000400
18.471500 4.038400
18.499700 3.837700
18.527900 3.780200
18.556100 3.760000
18.584300 3.726500
18.612500 3.615800
18.640600 3.513600
18.668800 4.242200
18.697000 4.237500
18.725200 4.145600
18.753400 3.866600
18.781600 3.592600
18.809800 3.692400
18.837900 3.746100
18.866100 3.742300
18.894300 3.733400
18.922500 3.724000
18.950700 3.611100
18.978900 3.470600
19.007100 3.423600
19.035200 3.376000
19.063400 3.326400
19.091600 3.275000
19.119800 3.221700
19.148000 3.068100
19.176200 2.983900
19.204400 2.902600
19.232500 2.813900
19.260700 2.838200
19.288900 2.972800
19.317100 3.046700
19.345300 3.091100
19.373500 3.106000
19.401700 3.091600
19.429800 2.997500
19.458000 2.942800
19.486200 2.968400
19.514400 3.000800
19.542600 3.155500
19.570800 3.339400
19.599000 3.552500
19.627100 3.623600
19.655300 3.366300
19.683500 3.392200
19.711700 3.870000
19.739900 4.095800
19.768100 4.052500
19.796300 3.978600
19.824400 3.906400
19.852600 3.836100
19.880800 3.767300
19.909000 3.759500
19.937200 3.996700
19.965400 4.284900
19.993600 4.498000
20.021700 4.500200
20.049900 4.528200
20.078100 4.354300
20.106300 3.966200
20.134500 3.819600
20.162700 5.872500
20.190900 2.441400
20.219000 2.338100
20.247200 2.270600
20.275400 2.059200
20.303600 2.033700
20.331800 2.011700
20.360000 1.993300
20.388200 1.978300
20.416300 1.966900
20.444500 1.959100
20.472700 1.954700
20.500900 1.956400
20.529100 2.027700
20.557300 2.145800
20.585500 2.325300
20.613600 2.567700
20.641800 3.195000
20.670000 3.639700
20.698200 4.194100
20.726400 4.583800
20.754600 5.030100
20.782800 5.197000
20.810900 5.261000
20.839100 5.157800
20.867300 4.981200
20.895500 5.070900
20.923700 4.859100
20.951900 4.481600
20.980100 4.360600
21.008200 4.286800
21.036400 4.255000
21.064600 4.211200
21.092800 4.160300
21.121000 4.002300
21.149200 3.807600
21.177400 3.657000
21.205500 3.614600
21.233700 3.538600
21.261900 3.465700
21.290100 3.396100
21.318300 3.329700
21.346500 3.244700
21.374700 3.190800
21.402800 3.138200
21.431000 3.056500
21.459200 2.989400
21.487400 2.890800
21.515600 2.863700
21.543800 2.811900
21.572000 2.779200
21.600100 2.750500
21.628300 2.790700
21.656500 2.807800
21.684700 2.780700
21.712900 2.776700
21.741100 2.768200
21.769300 2.759200
21.797400 2.749700
21.825600 3.141000
21.853800 3.589600
21.882000 3.138400
21.910200 3.004000
21.938400 2.874500
21.966600 2.780500
21.994700 2.729000
22.022900 2.659200
22.051100 2.782800
22.079300 2.725300
22.107500 2.560300
22.135700 2.400800
22.163900 2.262400
22.192000 2.119900
22.220200 1.969400
22.248400 1.798500
22.276600 1.666500
22.304800 1.520200
22.333000 1.240400
22.361200 1.169000
22.389300 1.025400
22.417500 0.989200
22.445700 0.959300
22.473900 0.938200
22.502100 0.940800
22.530300 0.978700
22.558500 1.175600
22.586600 1.651300
22.614800 2.276800
22.643000 3.634000
22.671200 2.341600
22.699400 2.350200
22.727600 2.354300
22.755800 2.539900
22.783900 2.168500
22.812100 2.222200
22.840300 2.213900
22.868500 2.276900
22.896700 2.514400
22.924900 2.667500
22.953100 2.840600
22.981200 3.267600
23.009400 3.415200
23.037600 3.419400
23.065800 3.222200
23.094000 3.249900
23.122200 3.265100
23.150400 3.125100
23.178500 3.167700
23.206700 3.201800
23.234900 3.232800
23.263100 3.259300
23.291300 3.189700
23.319500 3.081300
23.347700 3.021800
23.375800 2.958000
23.404000 2.889800
23.432200 2.817200
23.460400 2.867200
23.488600 2.819400
23.516800 2.434100
23.545000 2.233300
23.573100 2.567800
23.601300 3.236300
23.629500 3.665700
23.657700 3.091900
23.685900 2.921900
23.714100 3.290700
23.742300 4.112500
23.770400 5.265100
23.798600 4.653000
23.826800 3.867500
23.855000 3.224100
23.883200 2.915300
23.911400 2.738100
23.939600 2.587800
23.967700 2.477400
23.995900 2.475200
24.024100 2.476300
24.052300 2.486500
24.080500 2.511100
24.108700 2.557000
24.136900 2.610600
24.165000 2.671700
24.193200 2.740400
24.221400 2.816700
24.249600 2.900600
24.277800 2.992100
24.306000 3.091100
24.334200 3.197700
24.362300 3.314400
24.390500 3.749200
24.418700 4.276300
24.446900 4.944000
24.475100 5.291100
24.503300 5.572100
24.531500 5.071800
24.559600 4.491900
24.587800 4.066900
24.616000 3.642700
24.644200 3.279000
24.672400 2.868400
24.700600 2.247100
24.728800 2.136400
24.756900 2.155300
24.785100 2.135600
24.813300 2.096900
24.841500 2.039100
24.869700 2.083900
24.897900 2.134000
24.926100 2.164300
24.954200 2.175100
24.982400 2.179200
25.010600 2.181300
25.038800 2.181500
25.067000 2.342300
25.095200 2.423500
25.123400 2.470100
25.151500 2.482100
25.179700 2.445800
25.207900 3.299500
25.236100 1.604900
25.264300 1.556900
25.292500 1.508900
25.320700 1.461100
25.348800 1.426100
25.377000 1.353800
25.405200 1.336400
25.433400 1.319200
25.461600 1.302200
25.489800 1.285400
25.518000 1.268800
25.546100 1.252400
25.574300 1.199300
25.602500 1.182300
25.630700 1.136700
25.658900 1.138500
25.687100 1.136200
25.715300 1.129900
25.743400 1.119600
25.771600 1.132700
25.799800 1.133500
25.828000 1.136600
25.856200 1.799500
25.884400 1.438000
25.912600 0.836300
25.940700 0.856600
25.968900 0.877800
25.997100 0.899900
26.025300 0.922800
26.053500 1.000100
26.081700 1.037900
26.109900 1.074000
26.138000 1.108300
26.166200 1.140900
26.194400 1.171700
26.222600 1.200800
26.250800 1.228100
26.279000 1.250500
26.307200 1.234700
26.335300 1.218100
26.363500 1.195800
26.391700 1.167800
26.419900 1.134100
26.448100 1.164800
26.476300 1.136100
26.504500 1.028600
26.532600 1.063900
26.560800 1.106200
26.589000 1.155500
26.617200 1.284300
26.645400 1.363600
26.673600 1.447800
26.701800 1.536900
26.729900 1.934000
26.758100 2.087100
26.786300 2.165300
26.814500 2.031500
26.842700 2.011400
26.870900 1.748900
26.899100 1.662800
26.927200 1.699300
26.955400 1.718400
26.983600 1.738700
27.011800 1.760000
27.040000 1.782400
27.068200 1.805900
27.096400 1.830500
27.124500 1.856100
27.152700 1.882800
27.180900 1.893800
27.209100 1.918400
27.237300 2.174300
27.265500 2.532600
27.293700 2.734500
27.321800 2.413200
27.350000 2.436900
27.378200 2.461400
27.406400 2.486900
27.434600 2.531900
27.462800 2.565900
27.491000 2.573600
27.519100 2.559500
27.547300 2.526300
27.575500 2.482400
27.603700 2.436600
27.631900 2.389000
27.660100 2.323200
27.688300 2.247400
27.716400 2.241500
27.744600 2.165600
27.772800 2.124700
27.801000 2.080400
27.829200 2.046100
27.857400 2.012500
27.885600 1.994100
27.913700 1.975300
27.941900 1.955800
27.970100 1.935300
27.998300 1.913700
28.026500 1.891100
28.054700 1.867500
28.082900 1.854800
28.111000 1.830400
28.139200 1.807200
28.167400 1.785400
28.195600 1.819400
28.223800 1.860000
28.252000 1.846300
28.280200 1.833200
28.308300 1.820800
28.336500 1.809100
28.364700 1.779800
28.392900 1.779500
28.421100 1.779100
28.449300 1.778600
28.477500 1.777900
28.505600 1.777200
28.533800 1.782700
28.562000 1.800200
28.590200 1.829800
28.618400 1.871300
28.646600 1.921200
28.674800 2.074000
28.702900 2.139200
28.731100 2.204700
28.759300 2.356800
28.787500 2.277700
28.815700 2.160700
28.843900 2.023900
28.872100 1.673900
28.900200 1.718500
28.928400 1.734500
28.956600 1.629900
28.984800 1.620100
29.013000 1.609500
29.041200 1.598300
29.069400 1.586500
29.097500 1.547100
29.125700 1.532500
29.153900 1.517200
29.182100 1.499400
29.210300 1.494200
29.238500 1.489500
29.266700 1.485200
29.294800 1.481400
29.323000 1.457200
29.351200 1.453200
29.379400 1.449800
29.407600 1.454500
29.435800 1.453900
29.464000 1.453000
29.492100 1.451900
29.520300 1.424000
29.548500 1.424300
29.576700 1.424200
29.604900 1.423500
29.633100 1.422500
29.661300 1.421000
29.689400 1.419000
29.717600 1.416600
29.745800 1.413700
29.774000 1.448400
29.802200 1.447300
29.830400 1.496100
29.858600 1.506000
29.886700 1.499200
29.914900 1.492000
29.943100 1.511200
29.971300 1.511400
29.999500 1.511200
30.027700 1.511100
30.055900 1.511100
30.084000 1.511000
30.112200 1.511000
30.140400 1.514800
30.168600 1.538400
30.196800 1.543800
30.225000 1.559500
30.253200 1.576700
30.281300 1.535000
30.309500 1.565800
30.337700 1.598200
30.365900 1.632200
30.394100 1.667800
30.422300 1.705100
30.450500 1.800000
30.478600 1.849200
30.506800 1.899200
30.535000 1.950000
30.563200 2.001700
30.591400 2.054100
30.619600 2.253300
30.647800 2.576800
30.675900 2.746900
30.704100 2.909500
30.732300 3.933300
30.760500 4.524900
30.788700 3.413300
30.816900 3.274800
30.845100 3.140200
30.873200 3.016200
30.901400 2.812300
30.929600 2.652900
30.957800 2.519600
30.986000 2.459500
31.014200 2.352900
31.042400 2.256000
31.070500 2.185500
31.098700 2.141000
31.126900 2.106000
31.155100 2.074700
31.183300 2.046500
31.211500 2.021600
31.239700 1.999900
31.267800 1.981400
31.296000 1.966200
31.324200 1.955600
31.352400 2.088800
31.380600 2.158700
31.408800 2.365600
31.437000 2.446900
31.465100 2.512400
31.493300 2.566600
31.521500 2.612300
31.549700 2.649600
31.577900 2.619700
31.606100 2.590800
31.634300 2.547000
31.662400 2.495700
31.690600 2.436900
31.718800 2.154100
31.747000 3.516100
31.775200 1.592900
31.803400 1.556600
31.831600 1.509100
31.859700 1.434600
31.887900 1.333100
31.916100 1.204300
31.944300 0.931200
31.972500 0.828000
32.000700 0.747000
32.028900 1.356600
32.057000 2.257600
32.085200 2.545000
32.113400 2.795800
32.141600 3.190400
32.169800 3.522100
32.198000 3.674500
32.226200 3.729800
32.254300 3.812800
32.282500 3.899900
32.310700 3.991100
32.338900 4.159900
32.367100 4.133300
32.395300 3.953600
32.423500 3.766100
32.451600 3.571100
32.479800 3.368300
32.508000 3.343100
32.536200 3.413100
32.564400 3.584600
32.592600 3.417300
32.620800 3.137500
32.648900 2.511400
32.677100 2.260000
32.705300 3.628600
32.733500 2.239500
32.761700 2.520800
32.789900 2.688900
32.818100 2.924500
32.846200 3.008500
32.874400 3.129700
32.902600 3.288000
32.930800 3.470800
32.959000 3.713700
32.987200 4.125300
33.015400 4.784500
33.043500 3.513100
33.071700 3.404100
33.099900 3.253100
33.128100 3.061000
33.156300 2.809500
33.184500 2.758800
33.212700 2.710100
33.240800 2.845500
33.269000 2.959100
33.297200 3.129900
33.325400 3.357900
33.353600 3.741000
33.381800 4.146800
33.410000 4.471000
33.438100 4.608100
33.466300 4.268600
33.494500 3.500500
33.522700 3.697900
33.550900 3.794800
33.579100 2.946500
33.607300 2.685900
33.635400 2.444900
33.663600 2.174300
33.691800 1.938000
33.720000 1.735900
33.748200 1.567900
33.776400 1.461700
33.804600 1.372900
33.832700 1.287000
33.860900 1.203800
33.889100 1.123500
33.917300 1.046100
33.945500 0.971500
33.973700 0.899700
34.001900 0.745600
34.030000 0.636900
34.058200 0.569200
34.086400 0.551400
34.114600 0.606100
34.142800 0.704500
34.171000 0.845200
34.199200 1.035700
34.227300 1.168600
34.255500 1.318300
34.283700 1.484900
34.311900 1.670100
34.340100 1.874000
34.368300 2.096600
34.396500 2.610000
34.424600 3.195900
34.452800 3.426600
34.481000 3.225200
34.509200 2.821500
34.537400 2.490300
34.565600 2.242600
34.593800 2.146200
34.621900 2.080800
34.650100 2.146400
34.678300 2.406800
34.706500 2.812700
34.734700 3.771800
34.762900 3.979400
34.791100 3.662100
34.819200 3.302800
34.847400 3.267400
34.875600 3.346300
34.903800 3.280000
34.932000 3.229800
34.960200 3.178100
34.988400 3.124900
35.016500 3.070300
35.044700 3.019800
35.072900 2.973800
35.101100 3.016300
35.129300 2.895600
35.157500 2.773000
35.185700 2.649600
35.213800 2.553700
35.242000 2.451600
35.270200 2.341900
35.298400 2.115700
35.326600 1.913700
35.354800 1.778000
35.383000 1.672300
35.411100 1.578900
35.439300 1.495400
35.467500 1.421500
35.495700 1.351200
35.523900 1.283100
35.552100 1.217300
35.580300 1.153700
35.608400 1.104700
35.636600 1.048200
35.664800 1.005500
35.693000 0.962900
35.721200 0.924600
35.749400 0.887100
35.777600 0.850400
35.805700 0.814600
35.833900 0.779600
35.862100 0.745300
35.890300 0.712000
35.918500 0.679400
35.946700 0.647600
35.974900 0.627400
36.003000 0.601500
36.031200 0.577800
36.059400 0.554800
36.087600 0.532600
36.115800 0.675200
36.144000 0.522900
36.172200 0.478200
36.200300 0.438600
36.228500 0.368200
36.256700 0.344500
36.284900 0.325700
36.313100 0.312000
36.341300 0.302800
36.369500 0.294300
36.397600 0.285600
36.425800 0.276700
36.454000 0.267600
36.482200 0.258400
36.510400 0.249000
36.538600 0.239400
36.566800 0.236600
36.594900 0.237500
36.623100 0.223300
36.651300 0.176600
36.679500 0.167300
36.707700 0.157900
36.735900 0.148700
36.764100 0.139400
36.792200 0.130200
36.820400 0.121000
36.848600 0.111900
36.876800 0.102800
36.905000 0.093800
36.933200 0.084700
36.961400 0.075800
36.989500 0.066800
37.017700 0.057900
37.045900 0.049100
37.074100 0.000000
37.102300 0.000000
37.130500 0.000000
37.158700 0.000000
37.186800 0.000000
37.215000 0.000000
37.243200 0.000000
37.271400 0.000000
37.299600 0.000000
37.327800 0.000000
37.356000 0.000000
37.384100 0.000000
37.412300 0.000000
37.440500 0.000000
37.468700 0.000000
37.496900 0.000000
37.525100 0.000000
37.553300 0.000000
37.581400 0.000000
37.609600 0.000000
37.637800 0.000000
37.666000 0.000000
37.694200 0.000000
37.722400 0.000000
37.750600 0.000000
37.778700 0.000000
37.806900 0.000000
37.835100 0.000000
37.863300 0.000000
37.891500 0.000000
37.919700 0.000000
37.947900 0.000000
37.976000 0.000000
38.004200 0.000000
38.032400 0.000000
38.060600 0.000000
38.088800 0.000000
38.117000 0.000000
38.145200 0.000000
38.173300 0.000000
38.201500 0.000000
38.229700 0.000000
38.257900 0.000000
38.286100 0.000000
38.314300 0.000000
38.342500 0.000000
38.370600 0.000000
38.398800 0.000000
38.427000 0.000000
38.455200 0.000000
38.483400 0.000000
38.511600 0.000000
38.539800 0.000000
38.567900 0.000000
38.596100 0.000000
38.624300 0.000000
38.652500 0.000000
38.680700 0.000000
38.708900 0.000000
38.737100 0.000000
38.765200 0.000000
38.793400 0.000000
38.821600 0.000000
38.849800 0.000000
38.878000 0.000000
38.906200 0.000000
38.934400 0.000000
38.962500 0.000000
38.990700 0.000000
39.018900 0.000000
39.047100 0.000000
39.075300 0.000000
39.103500 0.000000
39.131700 0.000000
39.159800 0.000000
39.188000 0.000000
39.216200 0.000000
39.244400 0.000000
39.272600 0.000000
39.300800 0.000000
39.329000 0.000000
39.357100 0.000000
39.385300 0.000000
39.413500 0.000000
39.441700 0.000000
39.469900 0.000000
39.498100 0.000000
39.526300 0.000000
39.554400 0.000000
39.582600 0.000000
39.610800 0.000000
e
