set title 'mp-1207019 - Density of States'
set xlabel 'Energy (eV)'
set ylabel 'DOS (states/eV)'
set grid
set xrange [-10:10]
set yrange [0:3.883]
set xzeroaxis lt -1
set terminal png size 800,600
set output 'mp-1207019_dos_gnuplot.png'
plot '-' using 1:2 with lines title 'DOS'
-21.423100 0.000000
-21.357500 0.000000
-21.291900 0.000000
-21.226200 0.000000
-21.160600 0.000000
-21.095000 0.000000
-21.029300 0.000000
-20.963700 0.000000
-20.898100 0.000000
-20.832400 0.000000
-20.766800 0.000000
-20.701200 0.000000
-20.635500 0.000000
-20.569900 0.000000
-20.504300 0.000000
-20.438600 0.000000
-20.373000 0.000000
-20.307400 0.000000
-20.241700 0.000000
-20.176100 0.000000
-20.110500 0.000000
-20.044900 0.000000
-19.979200 0.000000
-19.913600 0.000000
-19.848000 0.000000
-19.782300 0.000000
-19.716700 0.000000
-19.651100 0.000000
-19.585400 0.000000
-19.519800 0.000000
-19.454200 0.000000
-19.388500 0.000000
-19.322900 0.000000
-19.257300 0.000000
-19.191600 0.000000
-19.126000 0.000000
-19.060400 0.000000
-18.994800 0.000000
-18.929100 0.000000
-18.863500 0.000000
-18.797900 0.000000
-18.732200 0.000000
-18.666600 0.000000
-18.601000 0.000000
-18.535300 0.000000
-18.469700 0.000000
-18.404100 0.000000
-18.338400 0.000000
-18.272800 0.000000
-18.207200 0.000000
-18.141500 0.000000
-18.075900 0.000000
-18.010300 0.000000
-17.944600 0.000000
-17.879000 0.000000
-17.813400 0.000000
-17.747800 0.000000
-17.682100 0.000000
-17.616500 0.000000
-17.550900 0.000000
-17.485200 0.000000
-17.419600 0.000000
-17.354000 0.000000
-17.288300 0.000000
-17.222700 0.000000
-17.157100 0.000000
-17.091400 0.000000
-17.025800 0.000000
-16.960200 0.000000
-16.894500 0.000000
-16.828900 0.000000
-16.763300 0.000000
-16.697700 0.000000
-16.632000 0.000000
-16.566400 0.000000
-16.500800 0.000000
-16.435100 0.000000
-16.369500 0.000000
-16.303900 0.000000
-16.238200 0.000000
-16.172600 0.000000
-16.107000 0.000000
-16.041300 0.000000
-15.975700 0.000000
-15.910100 0.000000
-15.844400 0.000000
-15.778800 0.000000
-15.713200 0.000000
-15.647500 0.000000
-15.581900 0.000000
-15.516300 0.000000
-15.450700 0.031600
-15.385000 0.134400
-15.319400 0.182400
-15.253800 0.231500
-15.188100 0.267800
-15.122500 0.309500
-15.056900 0.345500
-14.991200 0.380900
-14.925600 0.419300
-14.860000 0.458200
-14.794300 0.497200
-14.728700 0.539100
-14.663100 0.583000
-14.597400 0.633400
-14.531800 0.688300
-14.466200 0.746700
-14.400500 0.809400
-14.334900 0.896300
-14.269300 0.994400
-14.203700 1.104100
-14.138000 1.242300
-14.072400 1.468300
-14.006800 1.768300
-13.941100 2.400500
-13.875500 2.951800
-13.809900 3.815400
-13.744200 4.169800
-13.678600 2.814000
-13.613000 0.000000
-13.547300 0.000000
-13.481700 0.000000
-13.416100 0.000000
-13.350400 0.000000
-13.284800 0.000000
-13.219200 0.000000
-13.153600 0.000000
-13.087900 0.000000
-13.022300 0.000000
-12.956700 0.000000
-12.891000 0.000000
-12.825400 0.000000
-12.759800 0.000000
-12.694100 0.000000
-12.628500 0.000000
-12.562900 0.000000
-12.497200 0.000000
-12.431600 0.000000
-12.366000 0.000000
-12.300300 0.000000
-12.234700 0.000000
-12.169100 0.000000
-12.103400 0.000000
-12.037800 0.000000
-11.972200 0.000000
-11.906600 0.000000
-11.840900 0.026400
-11.775300 0.294900
-11.709700 0.493900
-11.644000 0.672000
-11.578400 0.902700
-11.512800 1.255500
-11.447100 1.638000
-11.381500 1.671300
-11.315900 1.705500
-11.250200 1.775700
-11.184600 1.907100
-11.119000 2.196000
-11.053300 2.940100
-10.987700 2.196600
-10.922100 2.001600
-10.856500 1.794700
-10.790800 1.750900
-10.725200 0.898700
-10.659600 0.730600
-10.593900 0.621500
-10.528300 0.534500
-10.462700 0.466200
-10.397000 0.405300
-10.331400 0.352700
-10.265800 0.305400
-10.200100 0.259400
-10.134500 0.212600
-10.068900 0.173500
-10.003200 0.114000
-9.937600 0.033400
-9.872000 0.000000
-9.806300 0.000000
-9.740700 0.000000
-9.675100 0.000000
-9.609500 0.000000
-9.543800 0.000000
-9.478200 0.000000
-9.412600 0.000000
-9.346900 0.000000
-9.281300 0.000000
-9.215700 0.000000
-9.150000 0.000000
-9.084400 0.000000
-9.018800 0.000000
-8.953100 0.000000
-8.887500 0.000000
-8.821900 0.000000
-8.756200 0.000000
-8.690600 0.000000
-8.625000 0.000000
-8.559300 0.000000
-8.493700 0.000000
-8.428100 0.000000
-8.362500 0.000000
-8.296800 0.000000
-8.231200 0.000000
-8.165600 0.000000
-8.099900 0.000000
-8.034300 0.000000
-7.968700 0.000000
-7.903000 0.000000
-7.837400 0.000000
-7.771800 0.000000
-7.706100 0.000000
-7.640500 0.000000
-7.574900 0.000000
-7.509200 0.000000
-7.443600 0.000000
-7.378000 0.000000
-7.312400 0.000000
-7.246700 0.000000
-7.181100 0.000000
-7.115500 0.000000
-7.049800 0.000000
-6.984200 0.000000
-6.918600 0.000000
-6.852900 0.000000
-6.787300 0.000000
-6.721700 0.000000
-6.656000 0.000000
-6.590400 0.000000
-6.524800 0.000000
-6.459100 0.000000
-6.393500 0.000000
-6.327900 0.000000
-6.262200 0.000000
-6.196600 0.000000
-6.131000 0.000000
-6.065400 0.000000
-5.999700 0.000000
-5.934100 0.000000
-5.868500 0.000000
-5.802800 0.000000
-5.737200 0.000000
-5.671600 0.000000
-5.605900 0.000000
-5.540300 0.000000
-5.474700 0.000000
-5.409000 0.000000
-5.343400 0.000000
-5.277800 0.000000
-5.212100 0.000000
-5.146500 0.000000
-5.080900 0.000000
-5.015300 0.000000
-4.949600 0.000000
-4.884000 0.000000
-4.818400 0.000000
-4.752700 0.000000
-4.687100 0.000000
-4.621500 0.000000
-4.555800 0.000000
-4.490200 0.000000
-4.424600 0.000000
-4.358900 0.000000
-4.293300 0.000000
-4.227700 0.000000
-4.162000 0.000000
-4.096400 0.000000
-4.030800 0.000000
-3.965100 0.000000
-3.899500 0.000000
-3.833900 0.000000
-3.768300 0.000000
-3.702600 0.000000
-3.637000 0.000000
-3.571400 0.000000
-3.505700 0.000000
-3.440100 0.000000
-3.374500 0.000000
-3.308800 0.000000
-3.243200 0.124300
-3.177600 0.203600
-3.111900 0.261400
-3.046300 0.286900
-2.980700 0.345600
-2.915000 0.395400
-2.849400 0.413700
-2.783800 0.456100
-2.718200 0.500700
-2.652500 0.551900
-2.586900 0.624200
-2.521300 0.667500
-2.455600 0.673100
-2.390000 0.682900
-2.324400 0.665300
-2.258700 0.662800
-2.193100 0.688100
-2.127500 0.811100
-2.061800 0.837900
-1.996200 0.885500
-1.930600 0.964800
-1.864900 1.190300
-1.799300 1.492900
-1.733700 1.775200
-1.668000 1.726200
-1.602400 1.681000
-1.536800 1.662300
-1.471200 1.589300
-1.405500 1.523500
-1.339900 1.506200
-1.274300 1.500200
-1.208600 1.481500
-1.143000 1.454200
-1.077400 1.427300
-1.011700 1.400100
-0.946100 1.367500
-0.880500 1.346900
-0.814800 1.322800
-0.749200 1.314900
-0.683600 1.320100
-0.617900 1.331800
-0.552300 1.408200
-0.486700 1.538000
-0.421000 1.864200
-0.355400 1.836500
-0.289800 1.820400
-0.224200 1.813500
-0.158500 1.610000
-0.092900 1.577500
-0.027300 1.608500
0.038400 1.632800
0.104000 1.687500
0.169600 1.811300
0.235300 1.970100
0.300900 1.879800
0.366500 1.684700
0.432200 1.586800
0.497800 1.541600
0.563400 1.524200
0.629100 1.495100
0.694700 1.540800
0.760300 1.438000
0.825900 1.439400
0.891600 1.440400
0.957200 1.506100
1.022800 1.443000
1.088500 1.344800
1.154100 1.346500
1.219700 1.968200
1.285400 1.720700
1.351000 1.488900
1.416600 1.385800
1.482300 1.312200
1.547900 1.114800
1.613500 0.889900
1.679200 0.939800
1.744800 1.022100
1.810400 1.058700
1.876100 1.106500
1.941700 1.123600
2.007300 1.116100
2.072900 1.146400
2.138600 1.184200
2.204200 1.191800
2.269800 1.244700
2.335500 1.297400
2.401100 1.230400
2.466700 1.178500
2.532400 1.137000
2.598000 1.106000
2.663600 1.081700
2.729300 1.065600
2.794900 1.196300
2.860500 1.361100
2.926200 1.356100
2.991800 1.372800
3.057400 1.390700
3.123000 1.401500
3.188700 1.404100
3.254300 1.412800
3.319900 1.425800
3.385600 1.440000
3.451200 1.453100
3.516800 1.469100
3.582500 1.487000
3.648100 1.507400
3.713700 1.535200
3.779400 1.569100
3.845000 1.612000
3.910600 1.660700
3.976300 1.707300
4.041900 1.750100
4.107500 1.807300
4.173200 1.887500
4.238800 1.966600
4.304400 2.054700
4.370000 2.193800
4.435700 2.349200
4.501300 2.376500
4.566900 2.571400
4.632600 2.970500
4.698200 3.529700
4.763800 3.079800
4.829500 2.598800
4.895100 2.286800
4.960700 1.861600
5.026400 1.418700
5.092000 1.153600
5.157600 1.170100
5.223300 0.993100
5.288900 0.652000
5.354500 0.273100
5.420200 0.076500
5.485800 0.000000
5.551400 0.000000
5.617000 0.000000
5.682700 0.000000
5.748300 0.000000
5.813900 0.000000
5.879600 0.000000
5.945200 0.000000
6.010800 0.000000
6.076500 0.000000
6.142100 0.000000
6.207700 0.000000
6.273400 0.000000
6.339000 0.000000
6.404600 0.000000
6.470300 0.000000
6.535900 0.000000
6.601500 0.000000
6.667100 0.000000
6.732800 0.000000
6.798400 0.000000
6.864000 0.000000
6.929700 0.000000
6.995300 0.000000
7.060900 0.000000
7.126600 0.000000
7.192200 0.000000
7.257800 0.000000
7.323500 0.000000
7.389100 0.000000
7.454700 0.000000
7.520400 0.000000
7.586000 0.000000
7.651600 0.000000
7.717300 0.000000
7.782900 0.000000
7.848500 0.000000
7.914100 0.000000
7.979800 0.000000
8.045400 0.000000
8.111000 0.000000
8.176700 0.000000
8.242300 0.000000
8.307900 0.000000
8.373600 0.000000
8.439200 0.000000
8.504800 0.000000
8.570500 0.000000
8.636100 0.000000
8.701700 0.000000
8.767400 0.000000
8.833000 0.000000
8.898600 0.000000
8.964200 0.000000
9.029900 0.000000
9.095500 0.000000
9.161100 0.000000
9.226800 0.000000
9.292400 0.000000
9.358000 0.000000
9.423700 0.000000
9.489300 0.000000
9.554900 0.000000
9.620600 0.000000
9.686200 0.000000
9.751800 0.000000
9.817500 0.000000
9.883100 0.000000
9.948700 0.000000
10.014400 0.000000
10.080000 0.000000
10.145600 0.000000
10.211200 0.000000
10.276900 0.043300
10.342500 0.067700
10.408100 0.087800
10.473800 0.099400
10.539400 0.118700
10.605000 0.138900
10.670700 0.152400
10.736300 0.164000
10.801900 0.173200
10.867600 0.183800
10.933200 0.195900
10.998800 0.208200
11.064500 0.220900
11.130100 0.233400
11.195700 0.244400
11.261300 0.256200
11.327000 0.266900
11.392600 0.277500
11.458200 0.288500
11.523900 0.300200
11.589500 0.312200
11.655100 0.324500
11.720800 0.336700
11.786400 0.349400
11.852000 0.362500
11.917700 0.376200
11.983300 0.390200
12.048900 0.404800
12.114600 0.420300
12.180200 0.436300
12.245800 0.453900
12.311500 0.473600
12.377100 0.496000
12.442700 0.519800
12.508300 0.545600
12.574000 0.573600
12.639600 0.604100
12.705200 0.638800
12.770900 0.686600
12.836500 0.795000
12.902100 1.052100
12.967800 1.160000
13.033400 1.181800
13.099000 1.268000
13.164700 1.262300
13.230300 1.184100
13.295900 1.162100
13.361600 1.159700
13.427200 1.073100
13.492800 1.038400
13.558500 0.948300
13.624100 0.879100
13.689700 0.783400
13.755300 0.705600
13.821000 0.677800
13.886600 0.616700
13.952200 0.583400
14.017900 0.551800
14.083500 0.529900
14.149100 0.483000
14.214800 0.399200
14.280400 0.347400
14.346000 0.276400
14.411700 0.273800
14.477300 0.281700
14.542900 0.309500
14.608600 0.353900
14.674200 0.428400
14.739800 0.562000
14.805400 0.661100
14.871100 0.709200
14.936700 0.757000
15.002300 0.765100
15.068000 0.788900
15.133600 0.829000
15.199200 0.869300
15.264900 0.872000
15.330500 0.892700
15.396100 0.910800
15.461800 0.927400
15.527400 0.953100
15.593000 0.974800
15.658700 0.972400
15.724300 0.971300
15.789900 0.985000
15.855600 1.010600
15.921200 1.055400
15.986800 1.131400
16.052400 1.134100
16.118100 1.145900
16.183700 1.227000
16.249300 1.321500
16.315000 1.391400
16.380600 1.369200
16.446200 1.309800
16.511900 1.320800
16.577500 1.304200
16.643100 1.307600
16.708800 1.272200
16.774400 1.220800
16.840000 0.969800
16.905700 0.815500
16.971300 0.737500
17.036900 0.723900
17.102500 0.828900
17.168200 0.979200
17.233800 1.174100
17.299400 1.339800
17.365100 1.504200
17.430700 1.761600
17.496300 1.788200
17.562000 1.755400
17.627600 1.771500
17.693200 1.864500
17.758900 1.773200
17.824500 1.536900
17.890100 1.463000
17.955800 1.477600
18.021400 1.524000
18.087000 1.467400
18.152700 1.448600
18.218300 1.327700
18.283900 1.253500
18.349500 1.227500
18.415200 1.226200
18.480800 1.211900
18.546400 1.258400
18.612100 1.330600
18.677700 1.313300
18.743300 1.334200
18.809000 1.351700
18.874600 1.359100
18.940200 1.368300
19.005900 1.400700
19.071500 1.448100
19.137100 1.495000
19.202800 1.495900
19.268400 1.560600
19.334000 1.587300
19.399700 1.563400
19.465300 1.526600
19.530900 1.525000
19.596500 1.532100
19.662200 1.529700
19.727800 1.505300
19.793400 1.405300
19.859100 1.422800
19.924700 1.434400
19.990300 1.415600
20.056000 1.335700
20.121600 1.291300
20.187200 1.325000
20.252900 1.302100
20.318500 1.239600
20.384100 1.291200
20.449800 1.328800
20.515400 1.355400
20.581000 1.271700
20.646600 1.282000
20.712300 1.322500
20.777900 1.313600
20.843500 1.432700
20.909200 1.291400
20.974800 1.177400
21.040400 0.939500
21.106100 0.812500
21.171700 0.712800
21.237300 0.652000
21.303000 0.635400
21.368600 0.612400
21.434200 0.594800
21.499900 0.598900
21.565500 0.626000
21.631100 0.671000
21.696800 0.681000
21.762400 0.716400
21.828000 0.811300
21.893600 0.910700
21.959300 0.911900
22.024900 0.845600
22.090500 0.810800
22.156200 0.787500
22.221800 0.725600
22.287400 0.719800
22.353100 0.718000
22.418700 0.683900
22.484300 0.653300
22.550000 0.669800
22.615600 0.691200
22.681200 0.719600
22.746900 0.752700
22.812500 0.779100
22.878100 0.830200
22.943700 0.946100
23.009400 0.882400
23.075000 0.863800
23.140600 0.891400
23.206300 0.891100
23.271900 0.896600
23.337500 0.923700
23.403200 0.959900
23.468800 0.988600
23.534400 1.002000
23.600100 1.003100
23.665700 0.988800
23.731300 0.949300
23.797000 0.868900
23.862600 0.840800
23.928200 0.810400
23.993900 0.777100
24.059500 0.764900
24.125100 0.777700
24.190700 0.776700
24.256400 0.776600
24.322000 0.753400
24.387600 0.762400
24.453300 0.765500
24.518900 0.798700
24.584500 0.876100
24.650200 0.900300
24.715800 0.932500
24.781400 0.978700
24.847100 1.025700
24.912700 1.086400
24.978300 1.136100
25.044000 1.182200
25.109600 1.199200
25.175200 1.209500
25.240800 1.194900
25.306500 1.243000
25.372100 1.244900
25.437700 1.040600
25.503400 1.011100
25.569000 0.981400
25.634600 0.959300
25.700300 0.952800
25.765900 0.933500
25.831500 0.963600
25.897200 0.949600
25.962800 0.983300
26.028400 0.940100
26.094100 0.935100
26.159700 0.916400
26.225300 0.947000
26.291000 0.978900
26.356600 0.958100
26.422200 0.928800
26.487800 0.899700
26.553500 0.888300
26.619100 0.926600
26.684700 0.966800
26.750400 0.976100
26.816000 0.943400
26.881600 0.864700
26.947300 0.823600
27.012900 0.800700
27.078500 0.831500
27.144200 0.874200
27.209800 0.989600
27.275400 1.014000
27.341100 1.111100
27.406700 1.310400
27.472300 1.517300
27.538000 1.173400
27.603600 1.133100
27.669200 1.148600
27.734800 1.141400
27.800500 1.170300
27.866100 1.144600
27.931700 1.127800
27.997400 1.129000
28.063000 1.174400
28.128600 1.164500
28.194300 1.160800
28.259900 1.147700
28.325500 1.176300
28.391200 1.230700
28.456800 1.302000
28.522400 1.426400
28.588100 1.368700
28.653700 1.324300
28.719300 1.304500
28.784900 1.302500
28.850600 1.319100
28.916200 1.340200
28.981800 1.386100
29.047500 1.486100
29.113100 1.577000
29.178700 1.690600
29.244400 1.556200
29.310000 1.430600
29.375600 1.438500
29.441300 1.434400
29.506900 1.427500
29.572500 1.413800
29.638200 1.392000
29.703800 1.400100
29.769400 1.412600
29.835100 1.428400
29.900700 1.290300
29.966300 1.262800
30.031900 1.273600
30.097600 1.301200
30.163200 1.397400
30.228800 1.477900
30.294500 1.546000
30.360100 1.477300
30.425700 1.528800
30.491400 1.530500
30.557000 1.667500
30.622600 1.749200
30.688300 1.815200
30.753900 1.676100
30.819500 1.602700
30.885200 1.655900
30.950800 1.736500
31.016400 1.874800
31.082000 2.142400
31.147700 1.991900
31.213300 1.813400
31.278900 1.699800
31.344600 1.624800
31.410200 1.601500
31.475800 1.547000
31.541500 1.513500
31.607100 1.592900
31.672700 1.563700
31.738400 1.535800
31.804000 1.514000
31.869600 1.541300
31.935300 1.611700
32.000900 1.697100
32.066500 1.752100
32.132200 1.736200
32.197800 1.695900
32.263400 1.609100
32.329000 1.620900
32.394700 1.624500
32.460300 1.731800
32.525900 1.705200
32.591600 1.722800
32.657200 1.716300
32.722800 1.511800
32.788500 1.453000
32.854100 1.422600
32.919700 1.373200
32.985400 1.354600
33.051000 1.304500
33.116600 1.235300
33.182300 1.200500
33.247900 1.170200
33.313500 1.213100
33.379200 1.211100
33.444800 1.209200
33.510400 1.209100
33.576000 1.259600
33.641700 1.279500
33.707300 1.309300
33.772900 1.327400
33.838600 1.370000
33.904200 1.421100
33.969800 1.472000
34.035500 1.512200
34.101100 1.528900
34.166700 1.577300
34.232400 1.611600
34.298000 1.652400
34.363600 1.741300
34.429300 1.656100
34.494900 1.606600
34.560500 1.658500
34.626100 1.538600
34.691800 1.662900
34.757400 1.532900
34.823000 1.386300
34.888700 1.216900
34.954300 1.119800
35.019900 1.107100
35.085600 1.054100
35.151200 1.025600
35.216800 1.010600
35.282500 1.006100
35.348100 1.024900
35.413700 1.021000
35.479400 1.027800
35.545000 1.045700
35.610600 1.098400
35.676300 1.181200
35.741900 1.195500
35.807500 1.189900
35.873100 1.206500
35.938800 1.187800
36.004400 1.210100
36.070000 1.193500
36.135700 1.195800
36.201300 1.169100
36.266900 1.136300
36.332600 1.119100
36.398200 1.095300
36.463800 1.110400
36.529500 1.159200
36.595100 1.173300
36.660700 1.229300
36.726400 1.224700
36.792000 1.170100
36.857600 1.127200
36.923200 1.085200
36.988900 1.043500
37.054500 1.023600
37.120100 1.014900
37.185800 0.993800
37.251400 1.100600
37.317000 1.095800
37.382700 1.143700
37.448300 1.213900
37.513900 1.308600
37.579600 1.377300
37.645200 1.393900
37.710800 1.394100
37.776500 1.313000
37.842100 1.279700
37.907700 1.330400
37.973400 1.324900
38.039000 1.356100
38.104600 1.346900
38.170200 1.354800
38.235900 1.309100
38.301500 1.315700
38.367100 1.452300
38.432800 1.466200
38.498400 1.461400
38.564000 1.452700
38.629700 1.440700
38.695300 1.440200
38.760900 1.447300
38.826600 1.610700
38.892200 1.573000
38.957800 1.522100
39.023500 1.488800
39.089100 1.468000
39.154700 1.453600
39.220300 1.468600
39.286000 1.474200
39.351600 1.516500
39.417200 1.568400
39.482900 1.567700
39.548500 1.512300
39.614100 1.477500
39.679800 1.461900
39.745400 1.446800
39.811000 1.428800
39.876700 1.420400
39.942300 1.400800
40.007900 1.424700
40.073600 1.440100
40.139200 1.372500
40.204800 1.299200
40.270500 1.275300
40.336100 1.271100
40.401700 1.291100
40.467300 1.301300
40.533000 1.326900
40.598600 1.312500
40.664200 1.334600
40.729900 1.346400
40.795500 1.343200
40.861100 1.292500
40.926800 1.300400
40.992400 1.300600
41.058000 1.356800
41.123700 1.311800
41.189300 1.303400
41.254900 1.302100
41.320600 1.307400
41.386200 1.320100
41.451800 1.349500
41.517500 1.411700
41.583100 1.447500
41.648700 1.476900
41.714300 1.475800
41.780000 1.479400
41.845600 1.569500
41.911200 1.681100
41.976900 1.429400
42.042500 1.362000
42.108100 1.353900
42.173800 1.303900
42.239400 1.298100
42.305000 1.312200
42.370700 1.375300
42.436300 1.505900
42.501900 1.626700
42.567600 1.626300
42.633200 1.647100
42.698800 1.656300
42.764400 1.700900
42.830100 1.700800
42.895700 1.674400
42.961300 1.558400
43.027000 1.505300
43.092600 1.433500
43.158200 1.370600
43.223900 1.370500
43.289500 1.419200
43.355100 1.459000
43.420800 1.470300
43.486400 1.474700
43.552000 1.447000
43.617700 1.404800
43.683300 1.471900
43.748900 1.461200
43.814600 1.462100
43.880200 1.476300
43.945800 1.443700
44.011400 1.365500
44.077100 1.318600
44.142700 1.353900
44.208300 1.414800
44.274000 1.426600
44.339600 1.494600
44.405200 1.606700
44.470900 1.669300
44.536500 1.713600
44.602100 1.701500
44.667800 1.711400
44.733400 1.710600
44.799000 1.649200
44.864700 1.605500
44.930300 1.587300
44.995900 1.558900
45.061500 1.568500
45.127200 1.514400
45.192800 1.469200
45.258400 1.429700
45.324100 1.362900
45.389700 1.329800
45.455300 1.314100
45.521000 1.306500
45.586600 1.308000
45.652200 1.330300
45.717900 1.370500
45.783500 1.393300
45.849100 1.421200
45.914800 1.463100
45.980400 1.462800
46.046000 1.565700
46.111700 1.635000
46.177300 1.621500
46.242900 1.569900
46.308500 1.550800
46.374200 1.552800
46.439800 1.585700
46.505400 1.665100
46.571100 1.766700
46.636700 1.760100
46.702300 1.847000
46.768000 1.926200
46.833600 1.975200
46.899200 1.837800
46.964900 1.851400
47.030500 1.760500
47.096100 1.698400
47.161800 1.716000
47.227400 1.763000
47.293000 1.693400
47.358700 1.707500
47.424300 1.783200
47.489900 1.814500
47.555500 1.731300
47.621200 1.661400
47.686800 1.605800
47.752400 1.577500
47.818100 1.522400
47.883700 1.601200
47.949300 1.706000
48.015000 1.770100
48.080600 1.778100
48.146200 1.824500
48.211900 1.814800
48.277500 1.821200
48.343100 1.796000
48.408800 1.750300
48.474400 1.679100
48.540000 1.675800
48.605600 1.700900
48.671300 1.684600
48.736900 1.714900
48.802500 1.570800
48.868200 1.522700
48.933800 1.599500
48.999400 1.805800
49.065100 1.669300
49.130700 1.675800
49.196300 1.607500
49.262000 1.599500
49.327600 1.617700
49.393200 1.599400
49.458900 1.641300
49.524500 1.483700
49.590100 1.391900
49.655800 1.353300
49.721400 1.321600
49.787000 1.293000
49.852600 1.254300
49.918300 1.281900
49.983900 1.343300
50.049500 1.345800
50.115200 1.352200
50.180800 1.377500
50.246400 1.394400
50.312100 1.401400
50.377700 1.510000
50.443300 1.546300
50.509000 1.504400
50.574600 1.561500
50.640200 1.622200
50.705900 1.620700
50.771500 1.579300
50.837100 1.542200
50.902700 1.471300
50.968400 1.393000
51.034000 1.351600
51.099600 1.324700
51.165300 1.346400
51.230900 1.424000
51.296500 1.433700
51.362200 1.490700
51.427800 1.551100
51.493400 1.580700
51.559100 1.598000
51.624700 1.686400
51.690300 1.618000
51.756000 1.604300
51.821600 1.523900
51.887200 1.501500
51.952900 1.539300
52.018500 1.652200
52.084100 1.744900
52.149700 2.064400
52.215400 2.030600
52.281000 1.927100
52.346600 1.808800
52.412300 1.745100
52.477900 1.724700
52.543500 1.722600
52.609200 1.701200
52.674800 1.841200
52.740400 1.861600
52.806100 1.790400
52.871700 1.603100
52.937300 1.472600
53.003000 1.508100
53.068600 1.411700
53.134200 1.328500
53.199800 1.308100
53.265500 1.291400
53.331100 1.287300
53.396700 1.316200
53.462400 1.334500
53.528000 1.380900
53.593600 1.435700
53.659300 1.451100
53.724900 1.472100
53.790500 1.549900
53.856200 1.656000
53.921800 1.711100
53.987400 1.819600
54.053100 1.851700
54.118700 1.795800
54.184300 1.754500
54.250000 1.732300
54.315600 1.741300
54.381200 1.720100
54.446800 1.658200
54.512500 1.548800
54.578100 1.451900
54.643700 1.344600
54.709400 1.283700
54.775000 1.252400
54.840600 1.248800
54.906300 1.286900
54.971900 1.346000
55.037500 1.395400
55.103200 1.446300
55.168800 1.527500
55.234400 1.622900
55.300100 1.660000
55.365700 1.635800
55.431300 1.646800
55.497000 1.663700
55.562600 1.590200
55.628200 1.526600
55.693800 1.459700
55.759500 1.416500
55.825100 1.364500
55.890700 1.374400
55.956400 1.388100
56.022000 1.408100
56.087600 1.438300
56.153300 1.487100
56.218900 1.538200
56.284500 1.590300
56.350200 1.646800
56.415800 1.706400
56.481400 1.684000
56.547100 1.666200
56.612700 1.643800
56.678300 1.607000
56.743900 1.596200
56.809600 1.611500
56.875200 1.657700
56.940800 1.715600
57.006500 1.730400
57.072100 1.725600
57.137700 1.683800
57.203400 1.683100
57.269000 1.710300
57.334600 1.670600
57.400300 1.718200
57.465900 1.714900
57.531500 1.678300
57.597200 1.659600
57.662800 1.638000
57.728400 1.616800
57.794100 1.597000
57.859700 1.587000
57.925300 1.612100
57.990900 1.602000
58.056600 1.630500
58.122200 1.664600
58.187800 1.680100
58.253500 1.644900
58.319100 1.598600
58.384700 1.560300
58.450400 1.546000
58.516000 1.643600
58.581600 1.701100
58.647300 1.750900
58.712900 1.693300
58.778500 1.684500
58.844200 1.720200
58.909800 1.773900
58.975400 1.760900
59.041000 1.754200
59.106700 1.757700
59.172300 1.746600
59.237900 1.743700
59.303600 1.747600
59.369200 1.883800
59.434800 1.774500
59.500500 1.750200
59.566100 1.702900
59.631700 1.713300
59.697400 1.724100
59.763000 1.719900
59.828600 1.692800
59.894300 1.715000
59.959900 1.753300
60.025500 1.737600
60.091200 1.770400
60.156800 1.930100
60.222400 1.784900
60.288000 1.710000
60.353700 1.651200
60.419300 1.683600
60.484900 1.635800
60.550600 1.570200
60.616200 1.594100
60.681800 1.653300
60.747500 1.711500
60.813100 1.774600
60.878700 1.824500
60.944400 1.858800
61.010000 1.891000
61.075600 1.786100
61.141300 1.745500
61.206900 1.669500
61.272500 1.602700
61.338200 1.598100
61.403800 1.581700
61.469400 1.601000
61.535000 1.684900
61.600700 1.819500
61.666300 1.688300
61.731900 1.643100
61.797600 1.664000
61.863200 1.682400
61.928800 1.679800
61.994500 1.688300
62.060100 1.802800
62.125700 1.756300
62.191400 1.717400
62.257000 1.652800
62.322600 1.587500
62.388300 1.640100
62.453900 1.660000
62.519500 1.732500
62.585100 1.838600
62.650800 1.804000
62.716400 1.822800
62.782000 1.837800
62.847700 1.866700
62.913300 1.911400
62.978900 2.022100
63.044600 1.999600
63.110200 2.010100
63.175800 1.939500
63.241500 1.893100
63.307100 1.772100
63.372700 1.723300
63.438400 1.759100
63.504000 1.768500
63.569600 1.776000
63.635300 1.788800
63.700900 1.876400
63.766500 1.917800
63.832100 1.935900
63.897800 1.967200
63.963400 2.044700
64.029000 2.116300
64.094700 2.284700
64.160300 2.236800
64.225900 2.165200
64.291600 2.146600
64.357200 2.160500
64.422800 2.082600
64.488500 1.905300
64.554100 2.022500
64.619700 2.040300
64.685400 1.978200
64.751000 1.987100
64.816600 2.008400
64.882200 2.018800
64.947900 2.206500
65.013500 2.189900
65.079100 2.195300
65.144800 2.159600
65.210400 2.079200
65.276000 1.980400
65.341700 1.880900
65.407300 1.949400
65.472900 1.790200
65.538600 1.730800
65.604200 1.790700
65.669800 1.749600
65.735500 1.780800
65.801100 1.767000
65.866700 1.795600
65.932400 1.852000
65.998000 1.970200
66.063600 1.989000
66.129200 1.993600
66.194900 2.081400
66.260500 2.053700
66.326100 1.909700
66.391800 1.870300
66.457400 1.807400
66.523000 1.830800
66.588700 1.829100
66.654300 1.822300
66.719900 1.848000
66.785600 1.939700
66.851200 2.055300
66.916800 2.064200
66.982500 1.996400
67.048100 1.941300
67.113700 1.924400
67.179300 1.985400
67.245000 1.928400
67.310600 1.846500
67.376200 1.756500
67.441900 1.676100
67.507500 1.636400
67.573100 1.652700
67.638800 1.756400
67.704400 1.787500
67.770000 1.798200
67.835700 1.789500
67.901300 1.818200
67.966900 1.882000
68.032600 1.922600
68.098200 1.875400
68.163800 1.848000
68.229500 1.788200
68.295100 1.711500
68.360700 1.631400
68.426300 1.548600
68.492000 1.472900
68.557600 1.404500
68.623200 1.396200
68.688900 1.484000
68.754500 1.503300
68.820100 1.510500
68.885800 1.507900
68.951400 1.587800
69.017000 1.716000
69.082700 1.842800
69.148300 1.960200
69.213900 1.950700
69.279600 1.921300
69.345200 1.852200
69.410800 1.754400
69.476500 1.694100
69.542100 1.642600
69.607700 1.639700
69.673300 1.625500
69.739000 1.635400
69.804600 1.592600
69.870200 1.539600
69.935900 1.531300
70.001500 1.548400
70.067100 1.560000
70.132800 1.587900
70.198400 1.634300
70.264000 1.682000
70.329700 1.738300
70.395300 1.792700
70.460900 1.801300
70.526600 1.726800
70.592200 1.660900
70.657800 1.652500
70.723400 1.674200
70.789100 1.689700
70.854700 1.644300
70.920300 1.626100
70.986000 1.637900
71.051600 1.688700
71.117200 1.657000
71.182900 1.645500
71.248500 1.682700
71.314100 1.677800
71.379800 1.702500
71.445400 1.712100
71.511000 1.827900
71.576700 1.852100
71.642300 1.776700
71.707900 1.723900
71.773600 1.743000
71.839200 1.780900
71.904800 1.792200
71.970400 1.767800
72.036100 1.782800
72.101700 1.758400
72.167300 1.737800
72.233000 1.786300
72.298600 1.813000
72.364200 1.854100
72.429900 1.927300
72.495500 1.921400
72.561100 1.930000
72.626800 1.845000
72.692400 1.798400
72.758000 1.778000
72.823700 1.794700
72.889300 1.772300
72.954900 1.752500
73.020500 1.747100
73.086200 1.775200
73.151800 1.788000
73.217400 1.856800
73.283100 1.813500
73.348700 1.849800
73.414300 1.888800
73.480000 1.916300
73.545600 1.943900
73.611200 1.956500
73.676900 1.977900
73.742500 2.005700
73.808100 2.009400
73.873800 1.948400
73.939400 2.012700
74.005000 2.149000
74.070700 2.233900
74.136300 2.180300
74.201900 2.127400
74.267500 2.031700
74.333200 1.955700
74.398800 1.905000
74.464400 1.909700
74.530100 1.917100
74.595700 1.951700
74.661300 2.047000
74.727000 2.028400
74.792600 2.021100
74.858200 2.052700
74.923900 2.038600
74.989500 1.972200
75.055100 1.962000
75.120800 1.962700
75.186400 1.988000
75.252000 1.967400
75.317700 1.960100
75.383300 1.861300
75.448900 1.763600
75.514500 1.766600
75.580200 1.813700
75.645800 1.872000
75.711400 1.929400
75.777100 1.924700
75.842700 1.909300
75.908300 1.920200
75.974000 1.894700
76.039600 1.834900
76.105200 1.812100
76.170900 1.767200
76.236500 1.725100
76.302100 1.719600
76.367800 1.653800
76.433400 1.665700
76.499000 1.669500
76.564600 1.664100
76.630300 1.778100
76.695900 1.700600
76.761500 1.706300
76.827200 1.775000
76.892800 1.826300
76.958400 1.888100
77.024100 1.934300
77.089700 1.977200
77.155300 2.040700
77.221000 2.033700
77.286600 1.999900
77.352200 1.975900
77.417900 1.935700
77.483500 1.866900
77.549100 1.797600
77.614800 1.724900
77.680400 1.678900
77.746000 1.741800
77.811600 1.828600
77.877300 1.903600
77.942900 1.900900
78.008500 1.891100
78.074200 1.912000
78.139800 1.866700
78.205400 1.901700
78.271100 1.941500
78.336700 1.958600
78.402300 1.927200
78.468000 1.883600
78.533600 1.877900
78.599200 1.900300
78.664900 1.906500
78.730500 1.851000
78.796100 1.805900
78.861700 1.809400
78.927400 1.793600
78.993000 1.768500
79.058600 1.793200
79.124300 1.860800
79.189900 1.874500
79.255500 1.923300
79.321200 1.932900
79.386800 1.929400
79.452400 1.925500
79.518100 1.913700
79.583700 1.932400
79.649300 1.907000
79.715000 1.850000
79.780600 1.850400
79.846200 1.873000
79.911900 1.918500
79.977500 1.915800
80.043100 1.872100
80.108700 1.828500
80.174400 1.867300
80.240000 1.909000
80.305600 1.940200
80.371300 1.970800
80.436900 2.005600
80.502500 1.991500
80.568200 1.990100
80.633800 1.981400
80.699400 1.966500
80.765100 1.919200
80.830700 1.890400
80.896300 1.867600
80.962000 1.886800
81.027600 1.924000
81.093200 1.993800
81.158800 2.003500
81.224500 2.021100
81.290100 1.983300
81.355700 1.977100
81.421400 1.986200
81.487000 1.991900
81.552600 2.029900
81.618300 2.043300
81.683900 2.042800
81.749500 2.015100
81.815200 1.985300
81.880800 1.960200
81.946400 1.983400
82.012100 1.996500
82.077700 1.920700
82.143300 1.918700
82.209000 1.922600
82.274600 1.914200
82.340200 1.952500
82.405800 1.969400
82.471500 1.971700
82.537100 1.998800
82.602700 1.954300
82.668400 1.981200
82.734000 2.113000
82.799600 2.108700
82.865300 2.064300
82.930900 2.012600
82.996500 2.015300
83.062200 2.016100
83.127800 2.017000
83.193400 1.985500
83.259100 1.990500
83.324700 1.996300
83.390300 2.086500
83.456000 2.141800
83.521600 2.037400
83.587200 1.985700
83.652800 1.972800
83.718500 2.026300
83.784100 1.953100
83.849700 1.902300
83.915400 1.926900
83.981000 2.004700
84.046600 2.013500
84.112300 2.002300
84.177900 2.043600
84.243500 2.100200
84.309200 2.127500
84.374800 2.200000
84.440400 2.243600
84.506100 2.265300
84.571700 2.184500
84.637300 2.136400
84.702900 2.114700
84.768600 2.057900
84.834200 2.040900
84.899800 2.001000
84.965500 1.956700
85.031100 2.012500
85.096700 2.046600
85.162400 2.076600
85.228000 2.129700
85.293600 2.190100
85.359300 2.234800
85.424900 2.227600
85.490500 2.216800
85.556200 2.169400
85.621800 2.129000
85.687400 2.048800
85.753100 2.031500
85.818700 2.008400
85.884300 1.983900
85.949900 1.955300
86.015600 1.941200
86.081200 1.939700
86.146800 1.945900
86.212500 2.141800
86.278100 2.092100
86.343700 2.071300
86.409400 2.019000
86.475000 2.005100
86.540600 1.985600
86.606300 2.053400
86.671900 1.996600
86.737500 1.988900
86.803200 1.852400
86.868800 1.817200
86.934400 1.822700
87.000000 1.867400
87.065700 1.916200
87.131300 1.987000
87.196900 2.071500
87.262600 2.142500
87.328200 2.253100
87.393800 2.077300
87.459500 1.899000
87.525100 1.801000
87.590700 1.787800
87.656400 1.842000
87.722000 1.904700
87.787600 1.913900
87.853300 2.026100
87.918900 2.117000
87.984500 2.147100
88.050200 2.221200
88.115800 2.219600
88.181400 2.175300
88.247000 2.173800
88.312700 2.162200
88.378300 2.092800
88.443900 2.038300
88.509600 2.028200
88.575200 1.938300
88.640800 1.893500
88.706500 1.905100
88.772100 1.959000
88.837700 2.005000
88.903400 1.991600
88.969000 1.987400
89.034600 1.993400
89.100300 2.015400
89.165900 2.046800
89.231500 2.051700
89.297200 2.021300
89.362800 2.011500
89.428400 1.935100
89.494000 1.877500
89.559700 1.863900
89.625300 1.849400
89.690900 1.859500
89.756600 1.906700
89.822200 1.960000
89.887800 2.058900
89.953500 2.006000
90.019100 1.972300
90.084700 1.959000
90.150400 1.993600
90.216000 1.988600
90.281600 2.019700
90.347300 2.105100
90.412900 2.204600
90.478500 2.286100
90.544100 2.309300
90.609800 2.360900
90.675400 2.423400
90.741000 2.466800
90.806700 2.538300
90.872300 2.380400
90.937900 2.283400
91.003600 2.196200
91.069200 2.127200
91.134800 2.130600
91.200500 2.148100
91.266100 2.236100
91.331700 2.309100
91.397400 2.303800
91.463000 2.301800
91.528600 2.358200
91.594300 2.366500
91.659900 2.325800
91.725500 2.295000
91.791100 2.279500
91.856800 2.251700
91.922400 2.205700
91.988000 2.126600
92.053700 2.101900
92.119300 2.039200
92.184900 1.936500
92.250600 1.895300
92.316200 1.894600
92.381800 1.928700
92.447500 1.922500
92.513100 1.964800
92.578700 2.051200
92.644400 1.991600
92.710000 1.979600
92.775600 1.991800
92.841200 2.036900
92.906900 2.209500
92.972500 2.027200
93.038100 2.006100
93.103800 1.999600
93.169400 1.966000
93.235000 1.980700
93.300700 1.984200
93.366300 1.968300
93.431900 1.951100
93.497600 1.993500
93.563200 1.975800
93.628800 1.980200
93.694500 1.981900
93.760100 1.969900
93.825700 1.988000
93.891400 2.006700
93.957000 2.028900
94.022600 2.079100
94.088200 2.137000
94.153900 2.106600
94.219500 2.070100
94.285100 2.067000
94.350800 2.028100
94.416400 2.009400
94.482000 2.007500
94.547700 2.027600
94.613300 2.013600
94.678900 2.030900
94.744600 2.057600
94.810200 2.080900
94.875800 2.157600
94.941500 2.201500
95.007100 2.168500
95.072700 2.153700
95.138300 2.144400
95.204000 2.135000
95.269600 2.097400
95.335200 2.057500
95.400900 2.039500
95.466500 2.014500
95.532100 1.980200
95.597800 1.978500
95.663400 2.017300
95.729000 2.079300
95.794700 2.194500
95.860300 2.281500
95.925900 2.225100
95.991600 2.180700
96.057200 2.149200
96.122800 2.122400
96.188500 2.093200
96.254100 2.058200
96.319700 2.041600
96.385300 2.051100
96.451000 2.059300
96.516600 2.020900
96.582200 2.016800
96.647900 2.037500
96.713500 2.074200
96.779100 2.155600
96.844800 2.219100
96.910400 2.191100
96.976000 2.237500
97.041700 2.153400
97.107300 2.095200
97.172900 2.106200
97.238600 1.998200
97.304200 1.966100
97.369800 1.905100
97.435500 1.889500
97.501100 1.897300
97.566700 1.887900
97.632300 1.888000
97.698000 1.843900
97.763600 1.845100
97.829200 1.920800
97.894900 1.927600
97.960500 1.975300
98.026100 2.035400
98.091800 2.098600
98.157400 2.170100
98.223000 2.253300
98.288700 2.267400
98.354300 2.228800
98.419900 2.174500
98.485600 2.167500
98.551200 2.162300
98.616800 2.167800
98.682400 2.176000
98.748100 2.228000
98.813700 2.155800
98.879300 2.187200
98.945000 2.135100
99.010600 2.062200
99.076200 1.987500
99.141900 1.929400
99.207500 1.901300
99.273100 1.895500
99.338800 1.917000
99.404400 1.947000
99.470000 1.996200
99.535700 2.041800
99.601300 2.006600
99.666900 1.900900
99.732600 1.852400
99.798200 1.814000
99.863800 1.794500
99.929400 1.755600
99.995100 1.661100
100.060700 1.579400
100.126300 1.471900
100.192000 1.388800
100.257600 1.364000
100.323200 1.386400
100.388900 1.382900
100.454500 1.302300
100.520100 1.247500
100.585800 1.224500
100.651400 1.193100
100.717000 1.143800
100.782700 1.096500
100.848300 1.051200
100.913900 1.028900
100.979500 0.970300
101.045200 0.889700
101.110800 0.839800
101.176400 0.833200
101.242100 0.765100
101.307700 0.714100
101.373300 0.689700
101.439000 0.631400
101.504600 0.565100
101.570200 0.506800
101.635900 0.472000
101.701500 0.476400
101.767100 0.486400
101.832800 0.473800
101.898400 0.439200
101.964000 0.407200
102.029700 0.345200
102.095300 0.303400
102.160900 0.275700
102.226500 0.255700
102.292200 0.243000
102.357800 0.207300
102.423400 0.169600
102.489100 0.124900
102.554700 0.083300
102.620300 0.053200
102.686000 0.033900
102.751600 0.021500
102.817200 0.013900
102.882900 0.010000
102.948500 0.007400
103.014100 0.005900
103.079800 0.004800
103.145400 0.003900
103.211000 0.003200
103.276600 0.002500
103.342300 0.002000
103.407900 0.001500
103.473500 0.001100
103.539200 0.000800
103.604800 0.000500
103.670400 0.000300
103.736100 0.000100
103.801700 0.000000
103.867300 0.000000
103.933000 0.000000
103.998600 0.000000
104.064200 0.000000
104.129900 0.000000
104.195500 0.000000
104.261100 0.000000
104.326800 0.000000
104.392400 0.000000
104.458000 0.000000
104.523600 0.000000
104.589300 0.000000
104.654900 0.000000
104.720500 0.000000
104.786200 0.000000
104.851800 0.000000
104.917400 0.000000
104.983100 0.000000
105.048700 0.000000
105.114300 0.000000
105.180000 0.000000
105.245600 0.000000
105.311200 0.000000
105.376900 0.000000
105.442500 0.000000
105.508100 0.000000
105.573800 0.000000
105.639400 0.000000
105.705000 0.000000
105.770600 0.000000
105.836300 0.000000
105.901900 0.000000
105.967500 0.000000
106.033200 0.000000
106.098800 0.000000
106.164400 0.000000
106.230100 0.000000
106.295700 0.000000
106.361300 0.000000
106.427000 0.000000
106.492600 0.000000
106.558200 0.000000
106.623900 0.000000
106.689500 0.000000
106.755100 0.000000
106.820700 0.000000
106.886400 0.000000
106.952000 0.000000
107.017600 0.000000
107.083300 0.000000
107.148900 0.000000
107.214500 0.000000
107.280200 0.000000
107.345800 0.000000
107.411400 0.000000
107.477100 0.000000
107.542700 0.000000
107.608300 0.000000
107.674000 0.000000
107.739600 0.000000
107.805200 0.000000
107.870900 0.000000
107.936500 0.000000
108.002100 0.000000
108.067700 0.000000
108.133400 0.000000
108.199000 0.000000
108.264600 0.000000
108.330300 0.000000
108.395900 0.000000
108.461500 0.000000
108.527200 0.000000
108.592800 0.000000
108.658400 0.000000
108.724100 0.000000
108.789700 0.000000
108.855300 0.000000
108.921000 0.000000
108.986600 0.000000
109.052200 0.000000
109.117800 0.000000
109.183500 0.000000
109.249100 0.000000
109.314700 0.000000
109.380400 0.000000
109.446000 0.000000
109.511600 0.000000
109.577300 0.000000
109.642900 0.000000
109.708500 0.000000
109.774200 0.000000
109.839800 0.000000
e
