set title 'mp-1226726 - Density of States'
set xlabel 'Energy (eV)'
set ylabel 'DOS (states/eV)'
set grid
set xrange [-10:10]
set yrange [0:18.766]
set xzeroaxis lt -1
set terminal png size 800,600
set output 'mp-1226726_dos_gnuplot.png'
plot '-' using 1:2 with lines title 'DOS'
-9.700800 0.000000
-9.667300 0.000000
-9.633900 0.000000
-9.600400 0.000000
-9.567000 0.000000
-9.533500 0.000000
-9.500100 0.000000
-9.466700 0.000000
-9.433200 0.000000
-9.399800 0.000000
-9.366300 0.000000
-9.332900 0.000000
-9.299400 0.000000
-9.266000 0.000000
-9.232500 0.000000
-9.199100 0.000000
-9.165600 0.000000
-9.132200 0.000000
-9.098800 0.000000
-9.065300 0.000000
-9.031900 0.000000
-8.998400 0.000000
-8.965000 0.000000
-8.931500 0.000000
-8.898100 0.000000
-8.864600 0.000000
-8.831200 0.000000
-8.797800 0.000000
-8.764300 0.000000
-8.730900 0.000000
-8.697400 0.000000
-8.664000 0.000000
-8.630500 0.000000
-8.597100 0.000000
-8.563600 0.000000
-8.530200 0.000000
-8.496700 0.000000
-8.463300 0.000000
-8.429900 0.000000
-8.396400 0.000000
-8.363000 0.000000
-8.329500 0.000000
-8.296100 0.000000
-8.262600 0.000000
-8.229200 0.000000
-8.195700 0.000000
-8.162300 0.000000
-8.128800 0.000000
-8.095400 0.000000
-8.062000 0.000000
-8.028500 0.000000
-7.995100 0.000000
-7.961600 0.000000
-7.928200 0.000000
-7.894700 0.000000
-7.861300 0.000000
-7.827800 0.000000
-7.794400 0.000000
-7.761000 0.000000
-7.727500 0.000000
-7.694100 0.000000
-7.660600 0.000000
-7.627200 0.000000
-7.593700 0.000000
-7.560300 0.000000
-7.526800 0.000000
-7.493400 0.000000
-7.459900 0.000000
-7.426500 0.000000
-7.393100 0.000000
-7.359600 0.000000
-7.326200 0.000000
-7.292700 0.000000
-7.259300 0.000000
-7.225800 0.000000
-7.192400 0.000000
-7.158900 0.000000
-7.125500 0.000000
-7.092000 0.000000
-7.058600 0.000000
-7.025200 0.000000
-6.991700 0.000000
-6.958300 0.000000
-6.924800 0.000000
-6.891400 0.000000
-6.857900 0.000000
-6.824500 0.000000
-6.791000 0.000000
-6.757600 0.000000
-6.724200 0.000000
-6.690700 0.000000
-6.657300 0.038300
-6.623800 1.454100
-6.590400 2.880700
-6.556900 2.911500
-6.523500 2.974300
-6.490000 3.170500
-6.456600 3.395300
-6.423100 4.045200
-6.389700 4.792200
-6.356300 5.277500
-6.322800 8.248200
-6.289400 9.901700
-6.255900 8.899600
-6.222500 8.583400
-6.189000 6.950600
-6.155600 7.894400
-6.122100 7.708200
-6.088700 14.198700
-6.055200 8.520000
-6.021800 6.714900
-5.988400 3.963300
-5.954900 6.162600
-5.921500 6.053700
-5.888000 8.373300
-5.854600 10.232400
-5.821100 7.843900
-5.787700 8.340100
-5.754200 12.340200
-5.720800 15.293300
-5.687400 16.350400
-5.653900 17.059600
-5.620500 10.636500
-5.587000 6.178900
-5.553600 11.291500
-5.520100 9.288600
-5.486700 7.870100
-5.453200 5.597000
-5.419800 3.572400
-5.386300 3.141800
-5.352900 2.896800
-5.319500 2.577900
-5.286000 2.288800
-5.252600 2.076100
-5.219100 2.127800
-5.185700 1.746700
-5.152200 0.080600
-5.118800 0.079900
-5.085300 0.089300
-5.051900 0.100100
-5.018400 0.110300
-4.985000 0.118500
-4.951600 0.128400
-4.918100 0.138000
-4.884700 0.144700
-4.851200 0.149900
-4.817800 0.153700
-4.784300 0.157700
-4.750900 0.163200
-4.717400 0.169000
-4.684000 0.174800
-4.650600 0.181200
-4.617100 0.188000
-4.583700 0.194800
-4.550200 0.201600
-4.516800 0.208200
-4.483300 0.215000
-4.449900 0.219600
-4.416400 0.224000
-4.383000 0.229000
-4.349500 0.234100
-4.316100 0.239100
-4.282700 0.244300
-4.249200 0.249900
-4.215800 0.256100
-4.182300 0.263000
-4.148900 0.269800
-4.115400 0.276900
-4.082000 0.284100
-4.048500 0.291600
-4.015100 0.299200
-3.981600 0.306900
-3.948200 0.315300
-3.914800 0.328600
-3.881300 0.344600
-3.847900 0.362700
-3.814400 0.387600
-3.781000 0.397700
-3.747500 0.393500
-3.714100 0.402300
-3.680600 0.411800
-3.647200 0.411200
-3.613800 0.404400
-3.580300 0.405400
-3.546900 0.411000
-3.513400 0.416600
-3.480000 0.421800
-3.446500 0.424500
-3.413100 0.425300
-3.379600 0.426300
-3.346200 0.430500
-3.312700 0.435100
-3.279300 0.440900
-3.245900 0.448100
-3.212400 0.455500
-3.179000 0.463200
-3.145500 0.470900
-3.112100 0.478400
-3.078600 0.485600
-3.045200 0.498600
-3.011700 0.525300
-2.978300 0.548500
-2.944800 0.569800
-2.911400 0.594900
-2.878000 0.624000
-2.844500 0.657500
-2.811100 0.698400
-2.777600 0.744400
-2.744200 0.796100
-2.710700 0.867900
-2.677300 0.957500
-2.643800 1.065400
-2.610400 1.336100
-2.577000 1.992200
-2.543500 2.479500
-2.510100 2.639700
-2.476600 3.098500
-2.443200 2.984500
-2.409700 3.146800
-2.376300 3.700400
-2.342800 4.310900
-2.309400 4.673200
-2.275900 5.050700
-2.242500 5.463700
-2.209100 5.876500
-2.175600 6.932900
-2.142200 7.146900
-2.108700 5.578300
-2.075300 4.769000
-2.041800 4.687300
-2.008400 4.454900
-1.974900 3.932200
-1.941500 3.769000
-1.908000 2.025200
-1.874600 2.527800
-1.841200 2.663700
-1.807700 2.994600
-1.774300 3.270000
-1.740800 4.700800
-1.707400 5.466900
-1.673900 5.625800
-1.640500 5.834400
-1.607000 5.978400
-1.573600 5.170900
-1.540200 6.720500
-1.506700 6.094900
-1.473300 5.987600
-1.439800 5.368800
-1.406400 7.194700
-1.372900 8.427300
-1.339500 5.921200
-1.306000 6.642000
-1.272600 7.106900
-1.239100 7.970100
-1.205700 8.643700
-1.172300 8.055800
-1.138800 8.579700
-1.105400 8.550100
-1.071900 6.176300
-1.038500 4.632000
-1.005000 6.033400
-0.971600 6.556800
-0.938100 5.185100
-0.904700 3.687400
-0.871200 2.582200
-0.837800 2.272200
-0.804400 2.172900
-0.770900 2.081700
-0.737500 2.011100
-0.704000 1.996600
-0.670600 2.000200
-0.637100 2.004000
-0.603700 2.025500
-0.570200 1.903000
-0.536800 1.774300
-0.503400 1.634800
-0.469900 1.778200
-0.436500 1.765200
-0.403000 1.511100
-0.369600 0.998200
-0.336100 0.690000
-0.302700 0.687500
-0.269200 0.685800
-0.235800 0.683900
-0.202300 0.680900
-0.168900 0.677100
-0.135500 0.675500
-0.102000 0.675500
-0.068600 0.677700
-0.035100 0.680200
-0.001700 0.642600
0.031800 0.617900
0.065200 0.606600
0.098700 0.600900
0.132100 0.596200
0.165600 0.593200
0.199000 0.591300
0.232400 0.589800
0.265900 0.588600
0.299300 0.587800
0.332800 0.588000
0.366200 0.588600
0.399700 0.589200
0.433100 0.589500
0.466600 0.589700
0.500000 0.589700
0.533500 0.589100
0.566900 0.589500
0.600300 0.591000
0.633800 0.592900
0.667200 0.595000
0.700700 0.597200
0.734100 0.599900
0.767600 0.596900
0.801000 0.593800
0.834500 0.590600
0.867900 0.588800
0.901300 0.588300
0.934800 0.588700
0.968200 0.589500
1.001700 0.590700
1.035100 0.592400
1.068600 0.594700
1.102000 0.597200
1.135500 0.602700
1.168900 0.613000
1.202400 0.629500
1.235800 0.660700
1.269200 0.690200
1.302700 0.717800
1.336100 0.733500
1.369600 0.701700
1.403000 0.698200
1.436500 0.690400
1.469900 0.679600
1.503400 0.668400
1.536800 0.656700
1.570300 0.645200
1.603700 0.634800
1.637100 0.625900
1.670600 0.619000
1.704000 0.599500
1.737500 0.592500
1.770900 0.585800
1.804400 0.579100
1.837800 0.572000
1.871300 0.564100
1.904700 0.554700
1.938100 0.544000
1.971600 0.535900
2.005000 0.534600
2.038500 0.539500
2.071900 0.582000
2.105400 0.580500
2.138800 0.555700
2.172300 0.532100
2.205700 0.523700
2.239200 0.517500
2.272600 0.511800
2.306000 0.506700
2.339500 0.502000
2.372900 0.497400
2.406400 0.497300
2.439800 0.501400
2.473300 0.510600
2.506700 0.522200
2.540200 0.528900
2.573600 0.530300
2.607100 0.526200
2.640500 0.517500
2.673900 0.515500
2.707400 0.523200
2.740800 0.539200
2.774300 0.562300
2.807700 0.593100
2.841200 0.615200
2.874600 0.628500
2.908100 0.633500
2.941500 0.635200
2.974900 0.632000
3.008400 0.621600
3.041800 0.605300
3.075300 0.593600
3.108700 0.587900
3.142200 0.584700
3.175600 0.583900
3.209100 0.584400
3.242500 0.586200
3.276000 0.589100
3.309400 0.606300
3.342800 0.641000
3.376300 0.654400
3.409700 0.631300
3.443200 0.600800
3.476600 0.570200
3.510100 0.540500
3.543500 0.519400
3.577000 0.513200
3.610400 0.506800
3.643900 0.498700
3.677300 0.515300
3.710700 0.543900
3.744200 0.529900
3.777600 0.503300
3.811100 0.499600
3.844500 0.498200
3.878000 0.501000
3.911400 0.508100
3.944900 0.519100
3.978300 0.533500
4.011700 0.547100
4.045200 0.561000
4.078600 0.572100
4.112100 0.581600
4.145500 0.589600
4.179000 0.598700
4.212400 0.613700
4.245900 0.621700
4.279300 0.636100
4.312800 0.653500
4.346200 0.697800
4.379600 0.730500
4.413100 0.750600
4.446500 0.753200
4.480000 0.751100
4.513400 0.742900
4.546900 0.732300
4.580300 0.716200
4.613800 0.702000
4.647200 0.688500
4.680700 0.677400
4.714100 0.674000
4.747500 0.677300
4.781000 0.683100
4.814400 0.689200
4.847900 0.694400
4.881300 0.698900
4.914800 0.705300
4.948200 0.692900
4.981700 0.689800
5.015100 0.699400
5.048500 0.707100
5.082000 0.710900
5.115400 0.722800
5.148900 0.682100
5.182300 0.663400
5.215800 0.648900
5.249200 0.637000
5.282700 0.627000
5.316100 0.619100
5.349600 0.613000
5.383000 0.608900
5.416400 0.606700
5.449900 0.606300
5.483300 0.603900
5.516800 0.602600
5.550200 0.604900
5.583700 0.609800
5.617100 0.618100
5.650600 0.629400
5.684000 0.636100
5.717500 0.639400
5.750900 0.650900
5.784300 0.683200
5.817800 0.683700
5.851200 0.644300
5.884700 0.611000
5.918100 0.647000
5.951600 0.625100
5.985000 0.632900
6.018500 0.640100
6.051900 0.647000
6.085300 0.653800
6.118800 0.660500
6.152200 0.667100
6.185700 0.673800
6.219100 0.680500
6.252600 0.683600
6.286000 0.679000
6.319500 0.680900
6.352900 0.683500
6.386400 0.686700
6.419800 0.688900
6.453200 0.689800
6.486700 0.688800
6.520100 0.689800
6.553600 0.691500
6.587000 0.692700
6.620500 0.693500
6.653900 0.699500
6.687400 0.710700
6.720800 0.702900
6.754300 0.674000
6.787700 0.653800
6.821100 0.650900
6.854600 0.647600
6.888000 0.644000
6.921500 0.646600
6.954900 0.646600
6.988400 0.619000
7.021800 0.609700
7.055300 0.606700
7.088700 0.624300
7.122100 0.649200
7.155600 0.677300
7.189000 0.691800
7.222500 0.673300
7.255900 0.647100
7.289400 0.634500
7.322800 0.635800
7.356300 0.639500
7.389700 0.656900
7.423200 0.688700
7.456600 0.705200
7.490000 0.740400
7.523500 0.778000
7.556900 0.811100
7.590400 0.831300
7.623800 0.830200
7.657300 0.835300
7.690700 0.841600
7.724200 0.850100
7.757600 0.868800
7.791100 0.886600
7.824500 0.893900
7.857900 0.884900
7.891400 0.883700
7.924800 0.866200
7.958300 0.890700
7.991700 0.812300
8.025200 0.793300
8.058600 0.780500
8.092100 0.770200
8.125500 0.769200
8.158900 0.771600
8.192400 0.776000
8.225800 0.791900
8.259300 0.816900
8.292700 0.842300
8.326200 0.857300
8.359600 0.853700
8.393100 0.859400
8.426500 0.872300
8.460000 0.888200
8.493400 0.910600
8.526800 0.951700
8.560300 0.997400
8.593700 0.984400
8.627200 0.981900
8.660600 0.975200
8.694100 0.981600
8.727500 0.948100
8.761000 0.916800
8.794400 0.898700
8.827900 0.883800
8.861300 0.874000
8.894700 0.868200
8.928200 0.863900
8.961600 0.880500
8.995100 0.859500
9.028500 0.846400
9.062000 0.834300
9.095400 0.852800
9.128900 0.847500
9.162300 0.843000
9.195700 0.840500
9.229200 0.839900
9.262600 0.841100
9.296100 0.844000
9.329500 0.848300
9.363000 0.857100
9.396400 0.867700
9.429900 0.877800
9.463300 0.894000
9.496800 0.916400
9.530200 0.929700
9.563600 0.933200
9.597100 0.934300
9.630500 0.934900
9.664000 0.932800
9.697400 0.931300
9.730900 0.935300
9.764300 0.940300
9.797800 0.946800
9.831200 0.955000
9.864700 0.964400
9.898100 0.973800
9.931500 0.980900
9.965000 0.981400
9.998400 0.982300
10.031900 0.985500
10.065300 0.991400
10.098800 0.993700
10.132200 0.994400
10.165700 0.991800
10.199100 0.987600
10.232500 0.984800
10.266000 0.984800
10.299400 0.988300
10.332900 0.990600
10.366300 0.991400
10.399800 0.995500
10.433200 0.997000
10.466700 0.997000
10.500100 0.996200
10.533600 0.994600
10.567000 0.997400
10.600400 1.002100
10.633900 1.008100
10.667300 1.016800
10.700800 1.029000
10.734200 1.038900
10.767700 1.040200
10.801100 1.040300
10.834600 1.042800
10.868000 1.044100
10.901500 1.053200
10.934900 1.055800
10.968300 1.051000
11.001800 1.047400
11.035200 1.045200
11.068700 1.044700
11.102100 1.045700
11.135600 1.049200
11.169000 1.053400
11.202500 1.057600
11.235900 1.060100
11.269400 1.061500
11.302800 1.062000
11.336200 1.062100
11.369700 1.062500
11.403100 1.064800
11.436600 1.071800
11.470000 1.086900
11.503500 1.102200
11.536900 1.120600
11.570400 1.138800
11.603800 1.155800
11.637200 1.171600
11.670700 1.165600
11.704100 1.168900
11.737600 1.176300
11.771000 1.189100
11.804500 1.201600
11.837900 1.213400
11.871400 1.223700
11.904800 1.230500
11.938300 1.231300
11.971700 1.220300
12.005100 1.199200
12.038600 1.179900
12.072000 1.149000
12.105500 1.160000
12.138900 1.167200
12.172400 1.162500
12.205800 1.143000
12.239300 1.125900
12.272700 1.112500
12.306200 1.098100
12.339600 1.080100
12.373000 1.062100
12.406500 1.055900
12.439900 1.046900
12.473400 1.040200
12.506800 1.038200
12.540300 1.037900
12.573700 1.043500
12.607200 1.055800
12.640600 1.060100
12.674000 1.072700
12.707500 1.080100
12.740900 1.079000
12.774400 1.067200
12.807800 1.053400
12.841300 1.040200
12.874700 1.020800
12.908200 0.995400
12.941600 0.977900
12.975100 0.965000
13.008500 0.961500
13.041900 0.958500
13.075400 0.955600
13.108800 0.955500
13.142300 0.953100
13.175700 0.950900
13.209200 0.949400
13.242600 0.951900
13.276100 0.956900
13.309500 0.959800
13.343000 0.984700
13.376400 0.976400
13.409800 0.962300
13.443300 0.968700
13.476700 0.962000
13.510200 0.948600
13.543600 0.962800
13.577100 1.004900
13.610500 1.077400
13.644000 1.078500
13.677400 0.999700
13.710800 0.975100
13.744300 0.966500
13.777700 0.960200
13.811200 0.954600
13.844600 0.951300
13.878100 0.948900
13.911500 0.946700
13.945000 0.941000
13.978400 0.935000
14.011900 0.931200
14.045300 0.929300
14.078700 0.929500
14.112200 0.930800
14.145600 0.932300
14.179100 0.932900
14.212500 0.938300
14.246000 0.942000
14.279400 0.940400
14.312900 0.933600
14.346300 0.927100
14.379800 0.925200
14.413200 0.923300
14.446600 0.921500
14.480100 0.919900
14.513500 0.921000
14.547000 0.928000
14.580400 0.933300
14.613900 0.935100
14.647300 0.936100
14.680800 0.935600
14.714200 0.931800
14.747600 0.926600
14.781100 0.916500
14.814500 0.900400
14.848000 0.889100
14.881400 0.885900
14.914900 0.883300
14.948300 0.879600
14.981800 0.875900
15.015200 0.872300
15.048700 0.870000
15.082100 0.868500
15.115500 0.867000
15.149000 0.866600
15.182400 0.867400
15.215900 0.869100
15.249300 0.869600
15.282800 0.866900
15.316200 0.862500
15.349700 0.856500
15.383100 0.852800
15.416600 0.851700
15.450000 0.850300
15.483400 0.848700
15.516900 0.846900
15.550300 0.844700
15.583800 0.842500
15.617200 0.840700
15.650700 0.839600
15.684100 0.839100
15.717600 0.839400
15.751000 0.840500
15.784400 0.843000
15.817900 0.846600
15.851300 0.850900
15.884800 0.859000
15.918200 0.872000
15.951700 0.889300
15.985100 0.905900
16.018600 0.920400
16.052000 0.940700
16.085500 0.961200
16.118900 0.971600
16.152300 0.973600
16.185800 0.969400
16.219200 1.023600
16.252700 1.038500
16.286100 1.044000
16.319600 1.025100
16.353000 1.017000
16.386500 1.040300
16.419900 1.028300
16.453400 1.002800
16.486800 1.000900
16.520200 0.998100
16.553700 0.995300
16.587100 0.988100
16.620600 0.978400
16.654000 0.983900
16.687500 0.977700
16.720900 0.972900
16.754400 0.969000
16.787800 0.965400
16.821200 0.969200
16.854700 0.964000
16.888100 0.966000
16.921600 0.972500
16.955000 0.981900
16.988500 0.993000
17.021900 1.097100
17.055400 1.152200
17.088800 1.224300
17.122300 1.471900
17.155700 1.479700
17.189100 1.547200
17.222600 1.610900
17.256000 1.693800
17.289500 1.761100
17.322900 1.671000
17.356400 1.617100
17.389800 1.591800
17.423300 1.608700
17.456700 1.677300
17.490200 1.786400
17.523600 1.862500
17.557000 1.897000
17.590500 1.926000
17.623900 1.936000
17.657400 1.924800
17.690800 1.892700
17.724300 1.843700
17.757700 1.821900
17.791200 1.819600
17.824600 1.816200
17.858000 1.815200
17.891500 1.818300
17.924900 1.823400
17.958400 1.829800
17.991800 1.828800
18.025300 1.834300
18.058700 1.804800
18.092200 1.805700
18.125600 1.810800
18.159100 1.823100
18.192500 1.827800
18.225900 1.793000
18.259400 1.766700
18.292800 1.745900
18.326300 1.718200
18.359700 1.663600
18.393200 1.626600
18.426600 1.592800
18.460100 1.571500
18.493500 1.560200
18.527000 1.559600
18.560400 1.565100
18.593800 1.567200
18.627300 1.552400
18.660700 1.540100
18.694200 1.514500
18.727600 1.485300
18.761100 1.461900
18.794500 1.449500
18.828000 1.429700
18.861400 1.412600
18.894800 1.397800
18.928300 1.385900
18.961700 1.377900
18.995200 1.371600
19.028600 1.367000
19.062100 1.365400
19.095500 1.364900
19.129000 1.359500
19.162400 1.357400
19.195900 1.360800
19.229300 1.362900
19.262700 1.367500
19.296200 1.374200
19.329600 1.381800
19.363100 1.390200
19.396500 1.397500
19.430000 1.403700
19.463400 1.407200
19.496900 1.410600
19.530300 1.411800
19.563800 1.427200
19.597200 1.438600
19.630600 1.461200
19.664100 1.472800
19.697500 1.447000
19.731000 1.412000
19.764400 1.380200
19.797900 1.366700
19.831300 1.354500
19.864800 1.341900
19.898200 1.299300
19.931600 1.231800
19.965100 1.164700
19.998500 1.140000
20.032000 1.133600
20.065400 1.122500
20.098900 1.111900
20.132300 1.097400
20.165800 1.074200
20.199200 1.037100
20.232700 1.015200
20.266100 1.000700
20.299500 0.993700
20.333000 0.988200
20.366400 0.982000
20.399900 0.975000
20.433300 0.967100
20.466800 0.948900
20.500200 0.930200
20.533700 0.906800
20.567100 0.891900
20.600600 0.878400
20.634000 0.865900
20.667400 0.853500
20.700900 0.841900
20.734300 0.831800
20.767800 0.823600
20.801200 0.818000
20.834700 0.814500
20.868100 0.810400
20.901600 0.822200
20.935000 0.827500
20.968500 0.813200
21.001900 0.782700
21.035300 0.762400
21.068800 0.748400
21.102200 0.736600
21.135700 0.726200
21.169100 0.715000
21.202600 0.703300
21.236000 0.691100
21.269500 0.683200
21.302900 0.668800
21.336300 0.664100
21.369800 0.659700
21.403200 0.655700
21.436700 0.653700
21.470100 0.653400
21.503600 0.655000
21.537000 0.658200
21.570500 0.674200
21.603900 0.679800
21.637400 0.677600
21.670800 0.682600
21.704200 0.690300
21.737700 0.709600
21.771100 0.730100
21.804600 0.748700
21.838000 0.765300
21.871500 0.768100
21.904900 0.771800
21.938400 0.815300
21.971800 0.844900
22.005300 0.869100
22.038700 0.915200
22.072100 0.895900
22.105600 0.916200
22.139000 0.957600
22.172500 0.972100
22.205900 1.007400
22.239400 1.043500
22.272800 1.092200
22.306300 1.107800
22.339700 1.147500
22.373100 1.144300
22.406600 1.172300
22.440000 1.183500
22.473500 1.202700
22.506900 1.238000
22.540400 1.269000
22.573800 1.316200
22.607300 1.382700
22.640700 1.424600
22.674200 1.477800
22.707600 1.505700
22.741000 1.510300
22.774500 1.521800
22.807900 1.582900
22.841400 1.526400
22.874800 1.517100
22.908300 1.512600
22.941700 1.513600
22.975200 1.502000
23.008600 1.505300
23.042100 1.533600
23.075500 1.546100
23.108900 1.568300
23.142400 1.582900
23.175800 1.588500
23.209300 1.590100
23.242700 1.591900
23.276200 1.590800
23.309600 1.562600
23.343100 1.552500
23.376500 1.565600
23.409900 1.578000
23.443400 1.572300
23.476800 1.558000
23.510300 1.549600
23.543700 1.415000
23.577200 1.377200
23.610600 1.312500
23.644100 1.284700
23.677500 1.259300
23.711000 1.240300
23.744400 1.241800
23.777800 1.203300
23.811300 1.194100
23.844700 1.187100
23.878200 1.181700
23.911600 1.177700
23.945100 1.179400
23.978500 1.190300
24.012000 1.218300
24.045400 1.244700
24.078900 1.261200
24.112300 1.266500
24.145700 1.271600
24.179200 1.267700
24.212600 1.258000
24.246100 1.258400
24.279500 1.257700
24.313000 1.291300
24.346400 1.302000
24.379900 1.270700
24.413300 1.267900
24.446700 1.263800
24.480200 1.256000
24.513600 1.277200
24.547100 1.251900
24.580500 1.290800
24.614000 1.354300
24.647400 1.301600
24.680900 1.319500
24.714300 1.332700
24.747800 1.324800
24.781200 1.316000
24.814600 1.322700
24.848100 1.336700
24.881500 1.348200
24.915000 1.360200
24.948400 1.371300
24.981900 1.389100
25.015300 1.421200
25.048800 1.445500
25.082200 1.479000
25.115700 1.526800
25.149100 1.578100
25.182500 1.622400
25.216000 1.657100
25.249400 1.682100
25.282900 1.710000
25.316300 1.728700
25.349800 1.712000
25.383200 1.702300
25.416700 1.703600
25.450100 1.711600
25.483500 1.711100
25.517000 1.728900
25.550400 1.791300
25.583900 1.747700
25.617300 1.729300
25.650800 1.736000
25.684200 1.730500
25.717700 1.711600
25.751100 1.682400
25.784600 1.648400
25.818000 1.602100
25.851400 1.606700
25.884900 1.613700
25.918300 1.617000
25.951800 1.620800
25.985200 1.626900
26.018700 1.622900
26.052100 1.582300
26.085600 1.568700
26.119000 1.564400
26.152500 1.565400
26.185900 1.573100
26.219300 1.574800
26.252800 1.571300
26.286200 1.582900
26.319700 1.582000
26.353100 1.573400
26.386600 1.568000
26.420000 1.568400
26.453500 1.575700
26.486900 1.585100
26.520300 1.592200
26.553800 1.602600
26.587200 1.637300
26.620700 1.663200
26.654100 1.647800
26.687600 1.624800
26.721000 1.617700
26.754500 1.594900
26.787900 1.568400
26.821400 1.544700
26.854800 1.524600
26.888200 1.504700
26.921700 1.493800
26.955100 1.495000
26.988600 1.503500
27.022000 1.475700
27.055500 1.513200
27.088900 1.486300
27.122400 1.459000
27.155800 1.447200
27.189300 1.464900
27.222700 1.533800
27.256100 1.519000
27.289600 1.489600
27.323000 1.488700
27.356500 1.477900
27.389900 1.483100
27.423400 1.494800
27.456800 1.477600
27.490300 1.440800
27.523700 1.420800
27.557100 1.407300
27.590600 1.410700
27.624000 1.425800
27.657500 1.414700
27.690900 1.394500
27.724400 1.411300
27.757800 1.375800
27.791300 1.425500
27.824700 1.488300
27.858200 1.521500
27.891600 1.549700
27.925000 1.570800
27.958500 1.588000
27.991900 1.530500
28.025400 1.523600
28.058800 1.532600
28.092300 1.548200
28.125700 1.571100
28.159200 1.599100
28.192600 1.617100
28.226100 1.636900
28.259500 1.645000
28.292900 1.643400
28.326400 1.653700
28.359800 1.665800
28.393300 1.679500
28.426700 1.689000
28.460200 1.692100
28.493600 1.693400
28.527100 1.703300
28.560500 1.729000
28.593900 1.746000
28.627400 1.807700
28.660800 1.833100
28.694300 1.855900
28.727700 1.871300
28.761200 1.875900
28.794600 1.867000
28.828100 1.861700
28.861500 1.857100
28.895000 1.852600
28.928400 1.843000
28.961800 1.827800
28.995300 1.805300
29.028700 1.781600
29.062200 1.771400
29.095600 1.761800
29.129100 1.731500
29.162500 1.674700
29.196000 1.626000
29.229400 1.578500
29.262900 1.539100
29.296300 1.519400
29.329700 1.514400
29.363200 1.523300
29.396600 1.545200
29.430100 1.579500
29.463500 1.638100
29.497000 1.704600
29.530400 1.677800
29.563900 1.640000
29.597300 1.635700
29.630700 1.618700
29.664200 1.587800
29.697600 1.575900
29.731100 1.564500
29.764500 1.552600
29.798000 1.546400
29.831400 1.543200
29.864900 1.542100
29.898300 1.542500
29.931800 1.546400
29.965200 1.552400
29.998600 1.566900
30.032100 1.590000
30.065500 1.614300
30.099000 1.639800
30.132400 1.675400
30.165900 1.754800
30.199300 1.757200
30.232800 1.763300
30.266200 1.763200
30.299700 1.752500
30.333100 1.739800
30.366500 1.738900
30.400000 1.731300
30.433400 1.722900
30.466900 1.710000
30.500300 1.697400
30.533800 1.685600
30.567200 1.755900
30.600700 1.649800
30.634100 1.650300
30.667500 1.653700
30.701000 1.660700
30.734400 1.675100
30.767900 1.680800
30.801300 1.690200
30.834800 1.703000
30.868200 1.711700
30.901700 1.722200
30.935100 1.746800
30.968600 1.784200
31.002000 1.811500
31.035400 1.831100
31.068900 1.847400
31.102300 1.862400
31.135800 1.871600
31.169200 1.869800
31.202700 1.850500
31.236100 1.824000
31.269600 1.798100
31.303000 1.782600
31.336500 1.775500
31.369900 1.776700
31.403300 1.777700
31.436800 1.757900
31.470200 1.728900
31.503700 1.711300
31.537100 1.698300
31.570600 1.675100
31.604000 1.650400
31.637500 1.629500
31.670900 1.601500
31.704400 1.590000
31.737800 1.583000
31.771200 1.579700
31.804700 1.578300
31.838100 1.579000
31.871600 1.604600
31.905000 1.607400
31.938500 1.598500
31.971900 1.591600
32.005400 1.587500
32.038800 1.586100
32.072200 1.590300
32.105700 1.594300
32.139100 1.599800
32.172600 1.606200
32.206000 1.614800
32.239500 1.659300
32.272900 1.636700
32.306400 1.631300
32.339800 1.621000
32.373300 1.605000
32.406700 1.607100
32.440100 1.613500
32.473600 1.622200
32.507000 1.632300
32.540500 1.650500
32.573900 1.653100
32.607400 1.639100
32.640800 1.652100
32.674300 1.677800
32.707700 1.732300
32.741200 1.762200
32.774600 1.758900
32.808000 1.790600
32.841500 1.819600
32.874900 1.828700
32.908400 1.843000
32.941800 1.855600
32.975300 1.861300
33.008700 1.865300
33.042200 1.879600
33.075600 1.892800
33.109000 1.903700
33.142500 1.915200
33.175900 1.924400
33.209400 1.930700
33.242800 2.245000
33.276300 1.962100
33.309700 1.833200
33.343200 1.812200
33.376600 1.851100
33.410100 1.774300
33.443500 1.755500
33.476900 1.749600
33.510400 1.780000
33.543800 1.815300
33.577300 1.834700
33.610700 1.868500
33.644200 1.919000
33.677600 1.879600
33.711100 1.889100
33.744500 1.929300
33.778000 1.975700
33.811400 2.002700
33.844800 2.037700
33.878300 2.119800
33.911700 2.192800
33.945200 2.203400
33.978600 2.180000
34.012100 2.181300
34.045500 2.170800
34.079000 2.142400
34.112400 2.127500
34.145800 2.106600
34.179300 2.074000
34.212700 2.035800
34.246200 2.009000
34.279600 1.992300
34.313100 1.981700
34.346500 1.975300
34.380000 1.978600
34.413400 1.980900
34.446900 1.947400
34.480300 1.898600
34.513700 1.855800
34.547200 1.821000
34.580600 1.811800
34.614100 1.803000
34.647500 1.822000
34.681000 1.766700
34.714400 1.773500
34.747900 1.727100
34.781300 1.721700
34.814800 1.734900
34.848200 1.750000
34.881600 1.759500
34.915100 1.758900
34.948500 1.775300
34.982000 1.792800
35.015400 1.794700
35.048900 1.790500
35.082300 1.796800
35.115800 1.818000
35.149200 1.823600
35.182600 1.818200
35.216100 1.826700
35.249500 1.834800
35.283000 1.850200
35.316400 1.828500
35.349900 1.786200
35.383300 1.783300
35.416800 1.774100
35.450200 1.769400
35.483700 1.775600
35.517100 1.835000
35.550500 1.842500
35.584000 1.856300
35.617400 1.856100
35.650900 1.836900
35.684300 1.788200
35.717800 1.768500
35.751200 1.758800
35.784700 1.791500
35.818100 1.827400
35.851600 1.814900
35.885000 1.752400
35.918400 1.692000
35.951900 1.665900
35.985300 1.641600
36.018800 1.618800
36.052200 1.594500
36.085700 1.575400
36.119100 1.562300
36.152600 1.560700
36.186000 1.565800
36.219400 1.568800
36.252900 1.577300
36.286300 1.586500
36.319800 1.594900
36.353200 1.599800
36.386700 1.600000
36.420100 1.600500
36.453600 1.600400
36.487000 1.583200
36.520500 1.561900
36.553900 1.543900
36.587300 1.527200
36.620800 1.575200
36.654200 1.579000
36.687700 1.538600
36.721100 1.503200
36.754600 1.532800
36.788000 1.574700
36.821500 1.617000
36.854900 1.611600
36.888400 1.597900
36.921800 1.576600
36.955200 1.552300
36.988700 1.570700
37.022100 1.532700
37.055600 1.533200
37.089000 1.528300
37.122500 1.527600
37.155900 1.531400
37.189400 1.540600
37.222800 1.554100
37.256200 1.605300
37.289700 1.571400
37.323100 1.617900
37.356600 1.657900
37.390000 1.700300
37.423500 1.744700
37.456900 1.791000
37.490400 1.824900
37.523800 1.851400
37.557300 1.836900
37.590700 1.849400
37.624100 1.934600
37.657600 1.919500
37.691000 1.952000
37.724500 1.872500
37.757900 1.828800
37.791400 1.794500
37.824800 1.766500
37.858300 1.749900
37.891700 1.738400
37.925200 1.727700
37.958600 1.697500
37.992000 1.674100
38.025500 1.693400
38.058900 1.668900
38.092400 1.796800
38.125800 1.777100
38.159300 1.726100
38.192700 1.643300
38.226200 1.598100
38.259600 1.580900
38.293000 1.591800
38.326500 1.591200
38.359900 1.568600
38.393400 1.545200
38.426800 1.547700
38.460300 1.572700
38.493700 1.594000
38.527200 1.611500
38.560600 1.577900
38.594100 1.587900
38.627500 1.607200
38.660900 1.670700
38.694400 1.645600
38.727800 1.708500
38.761300 1.726700
38.794700 1.712800
38.828200 1.679800
38.861600 1.649200
38.895100 1.624400
38.928500 1.604400
38.962000 1.583700
38.995400 1.569400
39.028800 1.562200
39.062300 1.558800
39.095700 1.528300
39.129200 1.508900
39.162600 1.510100
39.196100 1.541900
39.229500 1.557200
39.263000 1.526800
39.296400 1.505700
39.329800 1.559300
39.363300 1.630100
39.396700 1.610700
39.430200 1.618200
39.463600 1.608200
39.497100 1.609700
39.530500 1.631900
39.564000 1.652700
39.597400 1.667600
39.630900 1.674700
39.664300 1.694300
39.697700 1.711500
39.731200 1.745200
39.764600 1.803100
39.798100 1.862400
39.831500 1.915300
39.865000 1.941300
39.898400 1.970900
39.931900 2.018600
39.965300 2.013100
39.998800 1.988000
40.032200 1.960200
40.065600 1.932200
40.099100 1.897900
40.132500 1.856900
40.166000 1.809800
40.199400 1.769600
40.232900 1.749100
40.266300 1.739400
40.299800 1.733500
40.333200 1.729500
40.366600 1.723200
40.400100 1.738100
40.433500 1.694900
40.467000 1.663400
40.500400 1.655400
40.533900 1.672300
40.567300 1.677900
40.600800 1.729000
40.634200 1.774400
40.667700 1.736100
40.701100 1.741400
40.734500 1.818200
40.768000 1.735600
40.801400 1.730800
40.834900 1.735900
40.868300 1.754800
40.901800 1.779100
40.935200 1.834200
40.968700 1.840600
41.002100 1.830600
41.035600 1.893600
41.069000 1.914600
41.102400 1.920200
41.135900 1.927200
41.169300 1.946200
41.202800 1.976700
41.236200 2.002400
41.269700 2.005100
41.303100 2.093000
41.336600 1.963400
41.370000 1.915700
41.403500 1.880200
41.436900 1.847600
41.470300 1.821900
41.503800 1.805100
41.537200 1.773600
41.570700 1.733500
41.604100 1.690900
41.637600 1.647000
41.671000 1.574600
41.704500 1.551800
41.737900 1.570800
41.771300 1.671400
41.804800 1.651500
41.838200 1.678500
41.871700 1.700700
41.905100 1.751600
41.938600 1.771600
41.972000 1.807700
42.005500 1.833100
42.038900 1.844800
42.072400 1.885900
42.105800 1.960700
42.139200 2.003400
42.172700 2.013700
42.206100 2.095700
42.239600 2.093700
42.273000 2.056200
42.306500 2.000900
42.339900 1.962400
42.373400 1.987500
42.406800 2.092000
42.440300 2.059700
42.473700 2.121800
42.507100 2.074300
42.540600 2.046800
42.574000 2.024600
42.607500 2.005900
42.640900 2.001300
42.674400 1.985000
42.707800 2.001900
42.741300 2.093100
42.774700 2.172600
42.808100 2.236400
42.841600 2.297600
42.875000 2.307000
42.908500 2.311600
42.941900 2.328800
42.975400 2.331400
43.008800 2.305300
43.042300 2.302400
43.075700 2.330300
43.109200 2.464200
43.142600 2.417500
43.176000 2.548700
43.209500 2.384900
43.242900 2.414600
43.276400 2.430100
43.309800 2.453300
43.343300 2.480600
43.376700 2.532600
43.410200 2.558600
43.443600 2.567600
43.477100 2.591500
43.510500 2.586900
43.543900 2.483900
43.577400 2.354500
43.610800 2.271400
43.644300 2.225100
43.677700 2.163100
43.711200 2.095900
43.744600 1.993900
43.778100 1.978800
43.811500 2.001600
43.844900 2.022400
43.878400 2.051900
43.911800 2.138900
43.945300 2.224500
43.978700 2.254500
44.012200 2.249900
44.045600 2.278900
44.079100 2.227700
44.112500 2.176000
44.146000 2.164300
44.179400 2.159500
44.212800 2.127300
44.246300 2.111300
44.279700 2.109900
44.313200 2.160900
44.346600 2.128200
44.380100 2.104400
44.413500 2.097800
44.447000 2.073800
44.480400 2.037200
44.513900 2.016100
44.547300 2.015700
44.580700 2.035700
44.614200 2.147400
44.647600 2.184600
44.681100 2.117800
44.714500 2.017600
44.748000 2.024600
44.781400 2.061600
44.814900 2.134000
44.848300 2.160300
44.881700 2.153000
44.915200 2.163400
44.948600 2.201300
44.982100 2.250100
45.015500 2.278200
45.049000 2.247100
45.082400 2.208200
45.115900 2.182300
45.149300 2.169400
45.182800 2.141900
45.216200 2.088100
45.249600 2.050300
45.283100 2.000600
45.316500 1.963300
45.350000 1.943400
45.383400 1.930400
45.416900 1.927400
45.450300 1.935200
45.483800 1.947600
45.517200 1.944000
45.550700 1.969400
45.584100 1.971100
45.617500 1.968000
45.651000 1.964300
45.684400 1.979800
45.717900 1.999000
45.751300 2.010500
45.784800 2.015100
45.818200 2.027900
45.851700 2.068500
45.885100 2.044000
45.918500 2.033000
45.952000 2.047300
45.985400 2.015500
46.018900 1.964300
46.052300 1.923700
46.085800 1.901400
46.119200 1.890800
46.152700 1.899100
46.186100 1.917000
46.219600 1.943800
46.253000 1.944300
46.286400 1.956800
46.319900 1.982700
46.353300 2.002000
46.386800 2.009900
46.420200 2.017500
46.453700 2.024900
46.487100 2.026900
46.520600 2.024600
46.554000 2.000300
46.587500 2.012200
46.620900 2.063500
46.654300 2.108600
46.687800 2.151900
46.721200 2.182200
46.754700 2.177000
46.788100 2.124400
46.821600 2.116700
46.855000 2.142300
46.888500 2.112800
46.921900 2.087800
46.955300 2.089500
46.988800 2.086800
47.022200 2.068700
47.055700 2.056400
47.089100 2.083600
47.122600 2.113700
47.156000 2.150000
47.189500 2.174000
47.222900 2.175600
47.256400 2.214700
47.289800 2.136900
47.323200 2.024900
47.356700 1.935000
47.390100 1.891100
47.423600 1.848100
47.457000 1.882200
47.490500 1.880400
47.523900 1.876700
47.557400 1.862900
47.590800 1.846300
47.624300 1.820100
47.657700 1.799200
47.691100 1.778900
47.724600 1.801600
47.758000 1.773700
47.791500 1.761200
47.824900 1.768500
47.858400 1.775900
47.891800 1.829200
47.925300 1.886000
47.958700 1.948000
47.992100 1.996900
48.025600 1.987300
48.059000 1.987500
48.092500 2.002000
48.125900 2.035900
48.159400 2.137900
48.192800 2.199900
48.226300 2.198800
48.259700 2.233800
48.293200 2.262800
48.326600 2.284900
48.360000 2.295300
48.393500 2.548500
48.426900 2.195400
48.460400 2.194200
48.493800 2.240800
48.527300 2.168300
48.560700 2.128400
48.594200 2.097500
48.627600 2.071400
48.661100 2.043100
48.694500 1.981300
48.727900 1.934600
48.761400 1.944400
48.794800 1.990000
48.828300 2.057500
48.861700 2.082100
48.895200 2.043300
48.928600 2.026600
48.962100 2.086500
48.995500 2.014900
49.028900 1.847700
49.062400 1.777500
49.095800 1.794700
49.129300 1.815800
49.162700 1.824400
49.196200 1.831500
49.229600 1.885600
49.263100 1.961800
49.296500 2.053800
49.330000 2.157900
49.363400 2.211600
49.396800 2.253000
49.430300 2.217500
49.463700 2.245500
49.497200 2.256200
49.530600 2.284600
49.564100 2.374000
49.597500 2.411900
49.631000 2.427800
49.664400 2.404800
49.697900 2.365900
49.731300 2.354000
49.764700 2.392200
49.798200 2.414600
49.831600 2.526500
49.865100 2.638800
49.898500 2.763000
49.932000 2.806400
49.965400 2.813600
49.998900 2.821900
50.032300 2.744600
50.065700 2.717000
50.099200 2.712500
50.132600 2.688900
50.166100 2.647000
50.199500 2.652100
50.233000 2.718700
50.266400 2.795600
50.299900 2.788600
50.333300 2.847600
50.366800 2.782200
50.400200 2.648100
50.433600 2.556400
50.467100 2.510900
50.500500 2.496800
50.534000 2.499400
50.567400 2.561300
50.600900 2.530300
50.634300 2.516100
50.667800 2.451800
50.701200 2.390800
50.734700 2.336500
50.768100 2.252500
50.801500 2.201400
50.835000 2.156600
50.868400 2.096300
50.901900 2.061100
50.935300 2.037600
50.968800 2.021200
51.002200 1.990100
51.035700 1.945900
51.069100 1.870000
51.102500 1.851900
51.136000 1.853200
51.169400 1.814700
51.202900 1.771100
51.236300 1.709600
51.269800 1.677900
51.303200 1.660500
51.336700 1.640300
51.370100 1.618100
51.403600 1.601600
51.437000 1.567900
51.470400 1.533900
51.503900 1.478300
51.537300 1.516000
51.570800 1.436700
51.604200 1.378000
51.637700 1.347700
51.671100 1.346800
51.704600 1.332300
51.738000 1.325900
51.771500 1.305500
51.804900 1.259400
51.838300 1.239800
51.871800 1.218500
51.905200 1.178200
51.938700 1.113400
51.972100 1.020900
52.005600 0.936900
52.039000 0.856900
52.072500 0.781300
52.105900 0.724800
52.139400 0.709800
52.172800 0.686500
52.206200 0.660500
52.239700 0.635100
52.273100 0.611000
52.306600 0.588900
52.340000 0.578900
52.373500 0.573500
52.406900 0.566800
52.440400 0.558700
52.473800 0.551400
52.507200 0.546000
52.540700 0.543600
52.574100 0.544200
52.607600 0.542000
52.641000 0.538200
52.674500 0.538900
52.707900 0.534300
52.741400 0.529200
52.774800 0.540000
52.808300 0.544600
52.841700 0.518900
52.875100 0.506500
52.908600 0.499800
52.942000 0.495300
52.975500 0.491800
53.008900 0.487800
53.042400 0.524900
53.075800 0.504700
53.109300 0.470600
53.142700 0.440100
53.176200 0.423700
53.209600 0.412200
53.243000 0.401600
53.276500 0.388600
53.309900 0.378100
53.343400 0.369600
53.376800 0.358200
53.410300 0.342000
53.443700 0.315300
53.477200 0.284700
53.510600 0.269300
53.544000 0.258100
53.577500 0.244700
53.610900 0.229300
53.644400 0.218800
53.677800 0.210800
53.711300 0.202900
53.744700 0.196600
53.778200 0.193500
53.811600 0.193100
53.845100 0.193600
53.878500 0.193600
53.911900 0.194600
53.945400 0.201400
53.978800 0.161400
54.012300 0.102100
54.045700 0.062300
54.079200 0.030400
54.112600 0.007900
54.146100 0.000100
54.179500 0.000000
54.213000 0.000000
54.246400 0.000000
54.279800 0.000000
54.313300 0.000000
54.346700 0.000000
54.380200 0.000000
54.413600 0.000000
54.447100 0.000000
54.480500 0.000000
54.514000 0.000000
54.547400 0.000000
54.580800 0.000000
54.614300 0.000000
54.647700 0.000000
54.681200 0.000000
54.714600 0.000000
54.748100 0.000000
54.781500 0.000000
54.815000 0.000000
54.848400 0.000000
54.881900 0.000000
54.915300 0.000000
54.948700 0.000000
54.982200 0.000000
55.015600 0.000000
55.049100 0.000000
55.082500 0.000000
55.116000 0.000000
55.149400 0.000000
55.182900 0.000000
55.216300 0.000000
55.249800 0.000000
55.283200 0.000000
55.316600 0.000000
55.350100 0.000000
55.383500 0.000000
55.417000 0.000000
55.450400 0.000000
55.483900 0.000000
55.517300 0.000000
55.550800 0.000000
55.584200 0.000000
55.617600 0.000000
55.651100 0.000000
55.684500 0.000000
55.718000 0.000000
55.751400 0.000000
55.784900 0.000000
55.818300 0.000000
55.851800 0.000000
55.885200 0.000000
55.918700 0.000000
55.952100 0.000000
55.985500 0.000000
56.019000 0.000000
56.052400 0.000000
56.085900 0.000000
56.119300 0.000000
56.152800 0.000000
56.186200 0.000000
56.219700 0.000000
56.253100 0.000000
56.286600 0.000000
56.320000 0.000000
56.353400 0.000000
56.386900 0.000000
56.420300 0.000000
56.453800 0.000000
56.487200 0.000000
56.520700 0.000000
56.554100 0.000000
56.587600 0.000000
56.621000 0.000000
56.654400 0.000000
56.687900 0.000000
56.721300 0.000000
56.754800 0.000000
56.788200 0.000000
56.821700 0.000000
56.855100 0.000000
56.888600 0.000000
56.922000 0.000000
56.955500 0.000000
56.988900 0.000000
57.022300 0.000000
57.055800 0.000000
57.089200 0.000000
57.122700 0.000000
57.156100 0.000000
57.189600 0.000000
e
