set title 'mp-1227413 - Density of States'
set xlabel 'Energy (eV)'
set ylabel 'DOS (states/eV)'
set grid
set xrange [-10:10]
set yrange [0:8.676]
set xzeroaxis lt -1
set terminal png size 800,600
set output 'mp-1227413_dos_gnuplot.png'
plot '-' using 1:2 with lines title 'DOS'
-8.779500 0.000000
-8.764300 0.000000
-8.749200 0.000000
-8.734000 0.000000
-8.718800 0.000000
-8.703700 0.000000
-8.688500 0.000000
-8.673300 0.000000
-8.658200 0.000000
-8.643000 0.000000
-8.627800 0.000000
-8.612700 0.000000
-8.597500 0.000000
-8.582300 0.000000
-8.567200 0.000000
-8.552000 0.000000
-8.536900 0.000000
-8.521700 0.000000
-8.506500 0.000000
-8.491400 0.000000
-8.476200 0.000000
-8.461000 0.000000
-8.445900 0.000000
-8.430700 0.000000
-8.415500 0.000000
-8.400400 0.000000
-8.385200 0.000000
-8.370000 0.000000
-8.354900 0.000000
-8.339700 0.000000
-8.324500 0.000000
-8.309400 0.000000
-8.294200 0.000000
-8.279000 0.000000
-8.263900 0.000000
-8.248700 0.000000
-8.233500 0.000000
-8.218400 0.000000
-8.203200 0.000000
-8.188000 0.000000
-8.172900 0.000000
-8.157700 0.000000
-8.142500 0.000000
-8.127400 0.000000
-8.112200 0.000000
-8.097000 0.000000
-8.081900 0.000000
-8.066700 0.000000
-8.051600 0.000000
-8.036400 0.000000
-8.021200 0.000000
-8.006100 0.000000
-7.990900 0.000000
-7.975700 0.000000
-7.960600 0.000000
-7.945400 0.000000
-7.930200 0.000000
-7.915100 0.000000
-7.899900 0.000000
-7.884700 0.000000
-7.869600 0.000000
-7.854400 0.000000
-7.839200 0.000000
-7.824100 0.000000
-7.808900 0.000000
-7.793700 0.000000
-7.778600 0.000000
-7.763400 0.000000
-7.748200 0.000000
-7.733100 0.000000
-7.717900 0.000000
-7.702700 0.000000
-7.687600 0.000000
-7.672400 0.000000
-7.657200 0.000000
-7.642100 0.000000
-7.626900 0.000000
-7.611700 0.000000
-7.596600 0.000000
-7.581400 0.000000
-7.566300 0.000000
-7.551100 0.000000
-7.535900 0.000100
-7.520800 0.000300
-7.505600 0.001300
-7.490400 0.004600
-7.475300 0.013600
-7.460100 0.034200
-7.444900 0.072000
-7.429800 0.128100
-7.414600 0.194100
-7.399400 0.254500
-7.384300 0.298700
-7.369100 0.332700
-7.353900 0.378300
-7.338800 0.456000
-7.323600 0.567500
-7.308400 0.692800
-7.293300 0.799900
-7.278100 0.857500
-7.262900 0.848300
-7.247800 0.782000
-7.232600 0.697000
-7.217400 0.640000
-7.202300 0.635700
-7.187100 0.675800
-7.171900 0.735800
-7.156800 0.801800
-7.141600 0.887200
-7.126400 1.025800
-7.111300 1.238000
-7.096100 1.487600
-7.081000 1.675200
-7.065800 1.694200
-7.050600 1.512100
-7.035500 1.199200
-7.020300 0.883100
-7.005100 0.676000
-6.990000 0.628600
-6.974800 0.727500
-6.959600 0.918400
-6.944500 1.134300
-6.929300 1.318600
-6.914100 1.445900
-6.899000 1.532800
-6.883800 1.619700
-6.868600 1.723100
-6.853500 1.806200
-6.838300 1.811500
-6.823100 1.723400
-6.808000 1.590300
-6.792800 1.488300
-6.777600 1.475200
-6.762500 1.566400
-6.747300 1.729800
-6.732100 1.896800
-6.717000 1.991200
-6.701800 1.967600
-6.686600 1.835800
-6.671500 1.658000
-6.656300 1.510900
-6.641100 1.435000
-6.626000 1.411000
-6.610800 1.389700
-6.595700 1.348300
-6.580500 1.324500
-6.565300 1.393200
-6.550200 1.600600
-6.535000 1.911600
-6.519800 2.223700
-6.504700 2.441900
-6.489500 2.551700
-6.474300 2.627800
-6.459200 2.768800
-6.444000 2.998400
-6.428800 3.213100
-6.413700 3.236900
-6.398500 2.959100
-6.383300 2.440000
-6.368200 1.894700
-6.353000 1.573200
-6.337800 1.623400
-6.322700 2.008700
-6.307500 2.520700
-6.292300 2.893500
-6.277200 2.959300
-6.262000 2.731200
-6.246800 2.357700
-6.231700 2.006300
-6.216500 1.775500
-6.201300 1.680800
-6.186200 1.692400
-6.171000 1.788600
-6.155800 1.980400
-6.140700 2.281100
-6.125500 2.653500
-6.110400 3.006000
-6.095200 3.256400
-6.080000 3.394400
-6.064900 3.466100
-6.049700 3.504000
-6.034500 3.486500
-6.019400 3.372100
-6.004200 3.158200
-5.989000 2.905100
-5.973900 2.714900
-5.958700 2.691500
-5.943500 2.892600
-5.928400 3.285600
-5.913200 3.733700
-5.898000 4.039500
-5.882900 4.036400
-5.867700 3.679800
-5.852500 3.076700
-5.837400 2.431600
-5.822200 1.949100
-5.807000 1.761300
-5.791900 1.902800
-5.776700 2.309700
-5.761500 2.831300
-5.746400 3.283200
-5.731200 3.541400
-5.716000 3.610700
-5.700900 3.593700
-5.685700 3.589100
-5.670500 3.621800
-5.655400 3.660700
-5.640200 3.683500
-5.625100 3.711800
-5.609900 3.784900
-5.594700 3.900400
-5.579600 3.982400
-5.564400 3.922800
-5.549200 3.680000
-5.534100 3.353500
-5.518900 3.152900
-5.503700 3.271000
-5.488600 3.751300
-5.473400 4.437900
-5.458200 5.038000
-5.443100 5.269800
-5.427900 5.024600
-5.412700 4.430900
-5.397600 3.758400
-5.382400 3.233500
-5.367200 2.928200
-5.352100 2.788700
-5.336900 2.734600
-5.321700 2.726800
-5.306600 2.778300
-5.291400 2.920400
-5.276200 3.146600
-5.261100 3.383200
-5.245900 3.527700
-5.230700 3.525500
-5.215600 3.406100
-5.200400 3.245600
-5.185200 3.108500
-5.170100 3.025200
-5.154900 3.005000
-5.139800 3.055500
-5.124600 3.194900
-5.109400 3.463700
-5.094300 3.922300
-5.079100 4.608900
-5.063900 5.469400
-5.048800 6.326600
-5.033600 6.952500
-5.018400 7.213700
-5.003300 7.167400
-4.988100 6.998500
-4.972900 6.837700
-4.957800 6.638200
-4.942600 6.259200
-4.927400 5.672000
-4.912300 5.049100
-4.897100 4.621000
-4.881900 4.466500
-4.866800 4.464900
-4.851600 4.434500
-4.836400 4.290800
-4.821300 4.091500
-4.806100 3.973100
-4.790900 4.060800
-4.775800 4.409800
-4.760600 4.988200
-4.745400 5.680700
-4.730300 6.299200
-4.715100 6.619700
-4.699900 6.471000
-4.684800 5.839500
-4.669600 4.896400
-4.654500 3.898100
-4.639300 3.034900
-4.624100 2.360800
-4.609000 1.841100
-4.593800 1.435100
-4.578600 1.129800
-4.563500 0.922300
-4.548300 0.804600
-4.533100 0.777100
-4.518000 0.874700
-4.502800 1.170400
-4.487600 1.727700
-4.472500 2.517800
-4.457300 3.371600
-4.442100 4.039300
-4.427000 4.340700
-4.411800 4.286700
-4.396600 4.050500
-4.381500 3.810400
-4.366300 3.614900
-4.351100 3.397300
-4.336000 3.098700
-4.320800 2.763700
-4.305600 2.536100
-4.290500 2.583700
-4.275300 3.003100
-4.260100 3.733700
-4.245000 4.533700
-4.229800 5.081100
-4.214600 5.163700
-4.199500 4.805900
-4.184300 4.212000
-4.169200 3.595100
-4.154000 3.066600
-4.138800 2.660900
-4.123700 2.406900
-4.108500 2.348000
-4.093300 2.510500
-4.078200 2.877600
-4.063000 3.382200
-4.047800 3.901900
-4.032700 4.268500
-4.017500 4.321500
-4.002300 3.993100
-3.987200 3.364400
-3.972000 2.638000
-3.956800 2.040400
-3.941700 1.719800
-3.926500 1.696600
-3.911300 1.881000
-3.896200 2.146900
-3.881000 2.426500
-3.865800 2.761100
-3.850700 3.242400
-3.835500 3.872700
-3.820300 4.474700
-3.805200 4.769400
-3.790000 4.577500
-3.774800 3.957200
-3.759700 3.145000
-3.744500 2.370600
-3.729300 1.732300
-3.714200 1.219800
-3.699000 0.804700
-3.683900 0.489200
-3.668700 0.295600
-3.653500 0.241500
-3.638400 0.333400
-3.623200 0.566800
-3.608000 0.921800
-3.592900 1.356000
-3.577700 1.805900
-3.562500 2.195100
-3.547400 2.453100
-3.532200 2.551600
-3.517000 2.531200
-3.501900 2.477100
-3.486700 2.448700
-3.471500 2.438700
-3.456400 2.409600
-3.441200 2.354800
-3.426000 2.305500
-3.410900 2.291400
-3.395700 2.324900
-3.380500 2.421300
-3.365400 2.599100
-3.350200 2.837300
-3.335000 3.048400
-3.319900 3.125500
-3.304700 3.036000
-3.289500 2.872700
-3.274400 2.800700
-3.259200 2.935800
-3.244000 3.256200
-3.228900 3.614100
-3.213700 3.818700
-3.198600 3.722100
-3.183400 3.275400
-3.168200 2.556300
-3.153100 1.742500
-3.137900 1.025000
-3.122700 0.515900
-3.107600 0.221000
-3.092400 0.080300
-3.077200 0.024700
-3.062100 0.006400
-3.046900 0.001400
-3.031700 0.000300
-3.016600 0.000000
-3.001400 0.000000
-2.986200 0.000000
-2.971100 0.000000
-2.955900 0.000000
-2.940700 0.000000
-2.925600 0.000000
-2.910400 0.000000
-2.895200 0.000000
-2.880100 0.000000
-2.864900 0.000000
-2.849700 0.000000
-2.834600 0.000000
-2.819400 0.000000
-2.804200 0.000000
-2.789100 0.000000
-2.773900 0.000000
-2.758700 0.000000
-2.743600 0.000000
-2.728400 0.000000
-2.713300 0.000000
-2.698100 0.000000
-2.682900 0.000000
-2.667800 0.000000
-2.652600 0.000000
-2.637400 0.000000
-2.622300 0.000000
-2.607100 0.000000
-2.591900 0.000000
-2.576800 0.000000
-2.561600 0.000000
-2.546400 0.000000
-2.531300 0.000000
-2.516100 0.000000
-2.500900 0.000000
-2.485800 0.000000
-2.470600 0.000000
-2.455400 0.000000
-2.440300 0.000000
-2.425100 0.000000
-2.409900 0.000000
-2.394800 0.000000
-2.379600 0.000000
-2.364400 0.000000
-2.349300 0.000000
-2.334100 0.000000
-2.318900 0.000000
-2.303800 0.000000
-2.288600 0.000000
-2.273400 0.000000
-2.258300 0.000000
-2.243100 0.000000
-2.228000 0.000000
-2.212800 0.000000
-2.197600 0.000000
-2.182500 0.000000
-2.167300 0.000000
-2.152100 0.000000
-2.137000 0.000000
-2.121800 0.000000
-2.106600 0.000000
-2.091500 0.000000
-2.076300 0.000000
-2.061100 0.000000
-2.046000 0.000000
-2.030800 0.000000
-2.015600 0.000000
-2.000500 0.000000
-1.985300 0.000000
-1.970100 0.000000
-1.955000 0.000000
-1.939800 0.000000
-1.924600 0.000000
-1.909500 0.000000
-1.894300 0.000000
-1.879100 0.000000
-1.864000 0.000000
-1.848800 0.000000
-1.833600 0.000000
-1.818500 0.000000
-1.803300 0.000000
-1.788100 0.000000
-1.773000 0.000000
-1.757800 0.000000
-1.742700 0.000000
-1.727500 0.000000
-1.712300 0.000000
-1.697200 0.000000
-1.682000 0.000000
-1.666800 0.000000
-1.651700 0.000000
-1.636500 0.000000
-1.621300 0.000000
-1.606200 0.000000
-1.591000 0.000000
-1.575800 0.000000
-1.560700 0.000000
-1.545500 0.000000
-1.530300 0.000000
-1.515200 0.000000
-1.500000 0.000000
-1.484800 0.000000
-1.469700 0.000000
-1.454500 0.000000
-1.439300 0.000000
-1.424200 0.000000
-1.409000 0.000000
-1.393800 0.000000
-1.378700 0.000000
-1.363500 0.000000
-1.348300 0.000000
-1.333200 0.000000
-1.318000 0.000000
-1.302800 0.000000
-1.287700 0.000000
-1.272500 0.000000
-1.257400 0.000000
-1.242200 0.000000
-1.227000 0.000000
-1.211900 0.000000
-1.196700 0.000000
-1.181500 0.000000
-1.166400 0.000000
-1.151200 0.000000
-1.136000 0.000000
-1.120900 0.000000
-1.105700 0.000000
-1.090500 0.000000
-1.075400 0.000000
-1.060200 0.000000
-1.045000 0.000000
-1.029900 0.000000
-1.014700 0.000000
-0.999500 0.000000
-0.984400 0.000000
-0.969200 0.000000
-0.954000 0.000000
-0.938900 0.000000
-0.923700 0.000000
-0.908500 0.000000
-0.893400 0.000000
-0.878200 0.000000
-0.863000 0.000000
-0.847900 0.000000
-0.832700 0.000000
-0.817500 0.000000
-0.802400 0.000000
-0.787200 0.000000
-0.772100 0.000000
-0.756900 0.000000
-0.741700 0.000000
-0.726600 0.000000
-0.711400 0.000000
-0.696200 0.000000
-0.681100 0.000000
-0.665900 0.000000
-0.650700 0.000000
-0.635600 0.000000
-0.620400 0.000000
-0.605200 0.000000
-0.590100 0.000000
-0.574900 0.000000
-0.559700 0.000000
-0.544600 0.000000
-0.529400 0.000000
-0.514200 0.000000
-0.499100 0.000000
-0.483900 0.000000
-0.468700 0.000000
-0.453600 0.000000
-0.438400 0.000000
-0.423200 0.000000
-0.408100 0.000000
-0.392900 0.000000
-0.377700 0.000000
-0.362600 0.000000
-0.347400 0.000000
-0.332200 0.000000
-0.317100 0.000000
-0.301900 0.000000
-0.286800 0.000000
-0.271600 0.000000
-0.256400 0.000000
-0.241300 0.000000
-0.226100 0.000000
-0.210900 0.000000
-0.195800 0.000000
-0.180600 0.000000
-0.165400 0.000000
-0.150300 0.000000
-0.135100 0.000000
-0.119900 0.000000
-0.104800 0.000000
-0.089600 0.000000
-0.074400 0.000000
-0.059300 0.000000
-0.044100 0.000000
-0.028900 0.000000
-0.013800 0.000000
0.001400 0.000000
0.016600 0.000000
0.031700 0.000000
0.046900 0.000000
0.062100 0.000000
0.077200 0.000000
0.092400 0.000000
0.107600 0.000000
0.122700 0.000000
0.137900 0.000000
0.153100 0.000000
0.168200 0.000000
0.183400 0.000000
0.198500 0.000000
0.213700 0.000000
0.228900 0.000000
0.244000 0.000000
0.259200 0.000000
0.274400 0.000000
0.289500 0.000000
0.304700 0.000000
0.319900 0.000000
0.335000 0.000000
0.350200 0.000000
0.365400 0.000000
0.380500 0.000000
0.395700 0.000000
0.410900 0.000000
0.426000 0.000000
0.441200 0.000000
0.456400 0.000000
0.471500 0.000000
0.486700 0.000000
0.501900 0.000000
0.517000 0.000000
0.532200 0.000000
0.547400 0.000000
0.562500 0.000000
0.577700 0.000000
0.592900 0.000000
0.608000 0.000000
0.623200 0.000000
0.638400 0.000000
0.653500 0.000000
0.668700 0.000000
0.683800 0.000000
0.699000 0.000000
0.714200 0.000000
0.729300 0.000000
0.744500 0.000000
0.759700 0.000000
0.774800 0.000000
0.790000 0.000000
0.805200 0.000000
0.820300 0.000000
0.835500 0.000000
0.850700 0.000000
0.865800 0.000000
0.881000 0.000000
0.896200 0.000000
0.911300 0.000000
0.926500 0.000000
0.941700 0.000000
0.956800 0.000000
0.972000 0.000000
0.987200 0.000100
1.002300 0.000500
1.017500 0.002600
1.032700 0.010600
1.047800 0.035700
1.063000 0.101500
1.078200 0.244300
1.093300 0.502000
1.108500 0.892200
1.123700 1.397300
1.138800 1.976200
1.154000 2.593000
1.169100 3.229600
1.184300 3.866100
1.199500 4.457000
1.214600 4.933600
1.229800 5.236200
1.245000 5.349700
1.260100 5.322300
1.275300 5.259800
1.290500 5.290100
1.305600 5.499400
1.320800 5.868100
1.336000 6.263000
1.351100 6.518600
1.366300 6.551000
1.381500 6.399600
1.396600 6.150700
1.411800 5.828400
1.427000 5.385200
1.442100 4.803200
1.457300 4.172100
1.472500 3.643600
1.487600 3.312400
1.502800 3.161200
1.518000 3.113300
1.533100 3.116200
1.548300 3.168900
1.563500 3.287800
1.578600 3.465500
1.593800 3.664200
1.608900 3.837000
1.624100 3.960800
1.639300 4.062200
1.654400 4.204200
1.669600 4.427900
1.684800 4.696500
1.699900 4.912400
1.715100 5.002600
1.730300 4.995300
1.745400 5.017500
1.760600 5.207100
1.775800 5.599500
1.790900 6.080100
1.806100 6.457300
1.821300 6.588800
1.836400 6.439200
1.851600 6.040800
1.866800 5.443800
1.881900 4.717000
1.897100 3.970400
1.912300 3.348800
1.927400 2.984200
1.942600 2.927000
1.957800 3.101100
1.972900 3.339800
1.988100 3.502100
2.003300 3.573700
2.018400 3.648000
2.033600 3.808700
2.048800 4.040700
2.063900 4.256200
2.079100 4.387400
2.094200 4.439900
2.109400 4.460500
2.124600 4.465700
2.139700 4.410700
2.154900 4.232900
2.170100 3.926000
2.185200 3.573300
2.200400 3.309800
2.215600 3.247400
2.230700 3.421300
2.245900 3.785900
2.261100 4.247200
2.276200 4.687000
2.291400 4.968000
2.306600 4.966800
2.321700 4.657200
2.336900 4.165200
2.352100 3.714000
2.367200 3.498600
2.382400 3.605100
2.397600 4.013500
2.412700 4.628100
2.427900 5.294000
2.443100 5.830300
2.458200 6.101000
2.473400 6.074200
2.488600 5.814700
2.503700 5.431700
2.518900 5.041200
2.534100 4.752200
2.549200 4.636400
2.564400 4.683700
2.579500 4.800400
2.594700 4.880000
2.609900 4.889900
2.625000 4.885300
2.640200 4.942300
2.655400 5.074600
2.670500 5.209500
2.685700 5.241900
2.700900 5.121000
2.716000 4.886000
2.731200 4.606900
2.746400 4.298100
2.761500 3.913600
2.776700 3.437800
2.791900 2.955600
2.807000 2.602100
2.822200 2.437800
2.837400 2.383200
2.852500 2.282400
2.867700 2.036700
2.882900 1.690300
2.898000 1.411100
2.913200 1.397600
2.928400 1.780600
2.943500 2.567100
2.958700 3.634800
2.973900 4.771200
2.989000 5.747700
3.004200 6.398000
3.019400 6.655800
3.034500 6.534700
3.049700 6.088600
3.064800 5.397800
3.080000 4.582800
3.095200 3.810300
3.110300 3.268800
3.125500 3.109700
3.140700 3.364100
3.155800 3.883600
3.171000 4.389300
3.186200 4.638900
3.201300 4.585700
3.216500 4.378900
3.231700 4.214800
3.246800 4.195200
3.262000 4.307400
3.277200 4.491500
3.292300 4.698400
3.307500 4.901800
3.322700 5.099700
3.337800 5.312400
3.353000 5.548100
3.368200 5.742700
3.383300 5.748100
3.398500 5.419000
3.413700 4.742300
3.428800 3.895900
3.444000 3.181300
3.459200 2.873500
3.474300 3.086700
3.489500 3.733900
3.504700 4.604200
3.519800 5.496600
3.535000 6.307200
3.550100 7.005400
3.565300 7.548200
3.580500 7.834200
3.595600 7.749100
3.610800 7.254500
3.626000 6.438300
3.641100 5.490200
3.656300 4.629900
3.671500 4.027200
3.686600 3.737200
3.701800 3.670800
3.717000 3.637100
3.732100 3.469500
3.747300 3.162500
3.762500 2.891600
3.777600 2.874400
3.792800 3.192600
3.808000 3.739600
3.823100 4.334600
3.838300 4.869200
3.853500 5.330100
3.868600 5.692100
3.883800 5.843100
3.899000 5.669400
3.914100 5.218600
3.929300 4.738200
3.944500 4.516300
3.959600 4.670000
3.974800 5.080900
3.990000 5.523700
4.005100 5.847200
4.020300 6.036900
4.035400 6.128300
4.050600 6.102500
4.065800 5.892300
4.080900 5.478000
4.096100 4.947300
4.111300 4.458200
4.126400 4.151200
4.141600 4.082300
4.156800 4.199400
4.171900 4.368500
4.187100 4.454400
4.202300 4.423200
4.217400 4.387800
4.232600 4.545300
4.247800 5.042900
4.262900 5.865300
4.278100 6.810000
4.293300 7.568900
4.308400 7.887100
4.323600 7.704400
4.338800 7.158600
4.353900 6.446400
4.369100 5.693900
4.384300 4.967800
4.399400 4.366600
4.414600 4.033300
4.429800 4.055000
4.444900 4.374300
4.460100 4.815700
4.475300 5.188700
4.490400 5.357900
4.505600 5.256700
4.520700 4.900200
4.535900 4.414200
4.551100 4.016700
4.566200 3.915200
4.581400 4.191400
4.596600 4.768700
4.611700 5.467600
4.626900 6.079800
4.642100 6.423200
4.657200 6.386400
4.672400 5.967000
4.687600 5.277100
4.702700 4.497700
4.717900 3.795800
4.733100 3.256300
4.748200 2.871600
4.763400 2.588600
4.778600 2.360700
4.793700 2.166200
4.808900 2.006200
4.824100 1.912900
4.839200 1.955500
4.854400 2.195200
4.869600 2.595700
4.884700 2.983300
4.899900 3.138800
4.915100 2.959600
4.930200 2.540600
4.945400 2.100300
4.960600 1.833700
4.975700 1.817100
4.990900 2.002000
5.006000 2.265500
5.021200 2.478000
5.036400 2.572000
5.051500 2.590400
5.066700 2.682500
5.081900 3.022100
5.097000 3.666300
5.112200 4.456900
5.127400 5.084400
5.142500 5.306600
5.157700 5.131900
5.172900 4.788300
5.188000 4.522200
5.203200 4.441000
5.218400 4.525000
5.233500 4.726300
5.248700 5.007500
5.263900 5.286800
5.279000 5.399400
5.294200 5.171400
5.309400 4.558400
5.324500 3.710400
5.339700 2.896200
5.354900 2.357600
5.370000 2.204200
5.385200 2.395100
5.400400 2.784600
5.415500 3.201000
5.430700 3.521600
5.445900 3.707200
5.461000 3.773800
5.476200 3.740900
5.491300 3.610200
5.506500 3.385900
5.521700 3.091100
5.536800 2.762700
5.552000 2.447500
5.567200 2.203800
5.582300 2.083600
5.597500 2.100900
5.612700 2.231700
5.627800 2.449000
5.643000 2.740200
5.658200 3.078900
5.673300 3.391200
5.688500 3.568500
5.703700 3.527700
5.718800 3.269100
5.734000 2.880200
5.749200 2.480200
5.764300 2.155200
5.779500 1.939500
5.794700 1.838100
5.809800 1.841600
5.825000 1.917200
5.840200 2.007400
5.855300 2.056400
5.870500 2.039400
5.885700 1.964800
5.900800 1.863100
5.916000 1.786700
5.931200 1.812700
5.946300 2.015600
5.961500 2.411500
5.976600 2.922700
5.991800 3.402100
6.007000 3.699000
6.022100 3.717200
6.037300 3.441700
6.052500 2.945600
6.067600 2.377700
6.082800 1.917100
6.098000 1.693400
6.113100 1.719400
6.128300 1.889500
6.143500 2.058700
6.158600 2.155300
6.173800 2.240700
6.189000 2.458800
6.204100 2.902400
6.219300 3.504000
6.234500 4.051200
6.249600 4.326900
6.264800 4.254700
6.280000 3.927500
6.295100 3.511100
6.310300 3.131200
6.325500 2.841000
6.340600 2.661300
6.355800 2.600100
6.371000 2.623600
6.386100 2.648400
6.401300 2.611700
6.416500 2.550500
6.431600 2.581900
6.446800 2.788700
6.461900 3.132600
6.477100 3.477800
6.492300 3.685200
6.507400 3.686000
6.522600 3.488200
6.537800 3.142100
6.552900 2.704200
6.568100 2.229200
6.583300 1.789100
6.598400 1.493200
6.613600 1.470200
6.628800 1.805700
6.643900 2.469300
6.659100 3.294900
6.674300 4.050100
6.689400 4.557900
6.704600 4.772500
6.719800 4.749700
6.734900 4.564500
6.750100 4.272300
6.765300 3.936400
6.780400 3.664900
6.795600 3.597000
6.810800 3.830200
6.825900 4.335000
6.841100 4.929800
6.856300 5.359800
6.871400 5.437400
6.886600 5.140000
6.901800 4.605100
6.916900 4.038800
6.932100 3.604900
6.947200 3.356700
6.962400 3.251800
6.977600 3.229800
6.992700 3.273900
7.007900 3.397900
7.023100 3.595700
7.038200 3.834800
7.053400 4.105000
7.068600 4.440200
7.083700 4.861500
7.098900 5.296400
7.114100 5.573500
7.129200 5.522700
7.144400 5.108700
7.159600 4.484500
7.174700 3.906700
7.189900 3.568200
7.205100 3.482400
7.220200 3.520700
7.235400 3.569500
7.250600 3.652500
7.265700 3.896700
7.280900 4.386100
7.296100 5.062200
7.311200 5.765500
7.326400 6.349100
7.341600 6.741100
7.356700 6.923900
7.371900 6.893800
7.387100 6.662800
7.402200 6.287400
7.417400 5.868100
7.432500 5.512900
7.447700 5.314400
7.462900 5.353700
7.478000 5.674800
7.493200 6.212800
7.508400 6.773100
7.523500 7.138600
7.538700 7.221700
7.553900 7.098200
7.569000 6.895600
7.584200 6.680900
7.599400 6.466400
7.614500 6.266000
7.629700 6.084200
7.644900 5.866600
7.660000 5.537700
7.675200 5.120400
7.690400 4.772900
7.705500 4.662100
7.720700 4.813700
7.735900 5.103600
7.751000 5.378500
7.766200 5.564600
7.781400 5.680800
7.796500 5.788100
7.811700 5.933900
7.826900 6.124100
7.842000 6.325800
7.857200 6.487500
7.872400 6.568800
7.887500 6.572700
7.902700 6.562600
7.917800 6.628500
7.933000 6.804200
7.948200 7.013800
7.963300 7.128900
7.978500 7.101800
7.993700 7.032600
8.008800 7.080400
8.024000 7.298100
8.039200 7.548700
8.054300 7.576700
8.069500 7.180500
8.084700 6.360100
8.099800 5.334700
8.115000 4.415500
8.130200 3.831200
8.145300 3.631000
8.160500 3.710500
8.175700 3.910500
8.190800 4.102600
8.206000 4.219800
8.221200 4.247700
8.236300 4.209900
8.251500 4.149300
8.266700 4.096400
8.281800 4.044700
8.297000 3.964600
8.312200 3.841400
8.327300 3.688300
8.342500 3.522900
8.357700 3.347300
8.372800 3.164500
8.388000 3.006200
8.403100 2.925000
8.418300 2.951500
8.433500 3.065200
8.448600 3.222100
8.463800 3.410100
8.479000 3.671100
8.494100 4.056100
8.509300 4.550700
8.524500 5.034600
8.539600 5.327900
8.554800 5.311100
8.570000 5.031300
8.585100 4.704100
8.600300 4.594100
8.615500 4.843800
8.630600 5.360600
8.645800 5.846100
8.661000 5.973700
8.676100 5.609800
8.691300 4.912600
8.706500 4.224200
8.721600 3.836600
8.736800 3.820600
8.752000 4.034300
8.767100 4.262900
8.782300 4.355500
8.797500 4.271600
8.812600 4.049600
8.827800 3.759000
8.843000 3.471300
8.858100 3.241900
8.873300 3.088000
8.888400 2.979600
8.903600 2.863000
8.918800 2.706500
8.933900 2.530300
8.949100 2.407400
8.964300 2.435900
8.979400 2.681000
8.994600 3.103200
9.009800 3.537000
9.024900 3.778200
9.040100 3.733400
9.055300 3.498100
9.070400 3.275500
9.085600 3.204700
9.100800 3.256300
9.115900 3.285100
9.131100 3.179000
9.146300 2.957200
9.161400 2.733000
9.176600 2.594100
9.191800 2.527100
9.206900 2.456300
9.222100 2.341200
9.237300 2.230300
9.252400 2.220000
9.267600 2.362900
9.282800 2.610700
9.297900 2.845700
9.313100 2.971900
9.328300 2.976200
9.343400 2.906000
9.358600 2.809000
9.373700 2.708200
9.388900 2.611300
9.404100 2.509900
9.419200 2.370100
9.434400 2.158000
9.449600 1.889300
9.464700 1.642700
9.479900 1.511000
9.495100 1.539700
9.510200 1.702300
9.525400 1.911400
9.540600 2.053100
9.555700 2.045100
9.570900 1.897600
9.586100 1.721100
9.601200 1.657200
9.616400 1.786000
9.631600 2.082400
9.646700 2.444300
9.661900 2.749900
9.677100 2.900600
9.692200 2.841700
9.707400 2.577200
9.722600 2.166500
9.737700 1.694300
9.752900 1.233700
9.768100 0.836600
9.783200 0.543800
9.798400 0.388800
9.813600 0.384900
9.828700 0.512800
9.843900 0.723700
9.859000 0.963000
9.874200 1.198600
9.889400 1.421800
9.904500 1.614600
9.919700 1.724400
9.934900 1.685600
9.950000 1.473700
9.965200 1.134400
9.980400 0.761000
9.995500 0.441400
10.010700 0.219800
10.025900 0.093500
10.041000 0.033700
10.056200 0.010300
10.071400 0.002800
10.086500 0.001200
10.101700 0.002700
10.116900 0.009000
10.132000 0.026200
10.147200 0.064900
10.162400 0.137400
10.177500 0.250100
10.192700 0.396200
10.207900 0.556300
10.223000 0.707900
10.238200 0.833400
10.253400 0.916800
10.268500 0.937200
10.283700 0.876400
10.298900 0.736400
10.314000 0.548300
10.329200 0.358200
10.344300 0.203900
10.359500 0.100500
10.374700 0.042800
10.389800 0.015800
10.405000 0.005900
10.420200 0.005000
10.435300 0.011400
10.450500 0.028200
10.465700 0.060000
10.480800 0.108600
10.496000 0.169100
10.511200 0.230500
10.526300 0.282800
10.541500 0.324400
10.556700 0.364600
10.571800 0.419500
10.587000 0.505700
10.602200 0.634400
10.617300 0.810700
10.632500 1.033800
10.647700 1.296300
10.662800 1.581000
10.678000 1.857700
10.693200 2.088100
10.708300 2.239600
10.723500 2.307500
10.738700 2.330200
10.753800 2.385800
10.769000 2.561800
10.784200 2.901400
10.799300 3.352300
10.814500 3.773100
10.829600 4.024300
10.844800 4.083200
10.860000 4.069600
10.875100 4.139600
10.890300 4.332700
10.905500 4.516900
10.920600 4.490000
10.935800 4.145900
10.951000 3.556800
10.966100 2.910800
10.981300 2.377200
10.996500 2.020100
11.011600 1.822800
11.026800 1.775100
11.042000 1.919000
11.057100 2.300700
11.072300 2.878700
11.087500 3.486600
11.102600 3.899700
11.117800 3.965600
11.133000 3.701300
11.148100 3.288500
11.163300 2.974100
11.178500 2.950700
11.193600 3.278100
11.208800 3.868600
11.224000 4.532300
11.239100 5.053100
11.254300 5.262300
11.269500 5.095900
11.284600 4.630300
11.299800 4.073000
11.314900 3.671500
11.330100 3.581600
11.345300 3.798300
11.360400 4.211600
11.375600 4.711300
11.390800 5.222300
11.405900 5.660900
11.421100 5.910500
11.436300 5.872400
11.451400 5.530100
11.466600 4.963900
11.481800 4.321100
11.496900 3.764700
11.512100 3.400200
11.527300 3.214600
11.542400 3.097000
11.557600 2.941900
11.572800 2.749400
11.587900 2.635600
11.603100 2.756400
11.618300 3.206400
11.633400 3.957600
11.648600 4.863300
11.663800 5.714200
11.678900 6.317500
11.694100 6.573000
11.709300 6.507400
11.724400 6.234100
11.739600 5.864200
11.754800 5.447600
11.769900 4.999700
11.785100 4.573500
11.800200 4.284600
11.815400 4.251100
11.830600 4.504600
11.845700 4.964200
11.860900 5.497500
11.876100 5.997300
11.891200 6.390500
11.906400 6.601500
11.921600 6.557900
11.936700 6.260700
11.951900 5.827900
11.967100 5.434800
11.982200 5.205400
11.997400 5.169300
12.012600 5.311400
12.027700 5.624000
12.042900 6.081600
12.058100 6.584700
12.073200 6.965000
12.088400 7.069000
12.103600 6.847400
12.118700 6.396500
12.133900 5.939800
12.149100 5.737900
12.164200 5.939100
12.179400 6.467100
12.194600 7.063400
12.209700 7.460000
12.224900 7.525700
12.240100 7.281800
12.255200 6.830400
12.270400 6.287800
12.285500 5.755700
12.300700 5.310300
12.315900 4.996800
12.331000 4.829200
12.346200 4.802100
12.361400 4.913700
12.376500 5.187000
12.391700 5.651000
12.406900 6.270800
12.422000 6.888000
12.437200 7.266600
12.452400 7.247100
12.467500 6.874500
12.482700 6.362100
12.497900 5.922900
12.513000 5.630900
12.528200 5.416400
12.543400 5.155100
12.558500 4.763700
12.573700 4.256300
12.588900 3.742600
12.604000 3.364600
12.619200 3.211700
12.634400 3.270400
12.649500 3.435200
12.664700 3.564800
12.679900 3.551700
12.695000 3.370500
12.710200 3.078400
12.725400 2.778000
12.740500 2.578900
12.755700 2.576800
12.770800 2.841200
12.786000 3.391700
12.801200 4.174900
12.816300 5.064600
12.831500 5.897700
12.846700 6.521100
12.861800 6.820600
12.877000 6.737300
12.892200 6.298900
12.907300 5.658300
12.922500 5.068200
12.937700 4.750900
12.952800 4.746700
12.968000 4.892800
12.983200 4.980800
12.998300 4.945500
13.013500 4.892900
13.028700 4.952100
13.043800 5.127900
13.059000 5.305300
13.074200 5.367500
13.089300 5.278500
13.104500 5.068800
13.119700 4.791600
13.134800 4.521100
13.150000 4.363100
13.165200 4.419400
13.180300 4.727600
13.195500 5.240300
13.210700 5.856300
13.225800 6.466000
13.241000 6.983200
13.256100 7.360200
13.271300 7.578600
13.286500 7.627100
13.301600 7.491500
13.316800 7.170700
13.332000 6.697400
13.347100 6.146500
13.362300 5.627500
13.377500 5.257300
13.392600 5.109500
13.407800 5.173300
13.423000 5.373100
13.438100 5.635600
13.453300 5.923000
13.468500 6.197800
13.483600 6.388800
13.498800 6.426200
13.514000 6.302100
13.529100 6.057500
13.544300 5.709900
13.559500 5.232400
13.574600 4.632800
13.589800 4.029500
13.605000 3.611000
13.620100 3.507400
13.635300 3.702700
13.650500 4.058200
13.665600 4.413000
13.680800 4.680100
13.696000 4.875200
13.711100 5.063600
13.726300 5.272000
13.741400 5.450500
13.756600 5.515700
13.771800 5.424400
13.786900 5.207500
13.802100 4.959900
13.817300 4.803900
13.832400 4.834700
13.847600 5.059700
13.862800 5.384700
13.877900 5.677600
13.893100 5.866700
13.908300 5.982300
13.923400 6.104300
13.938600 6.260700
13.953800 6.369100
13.968900 6.281800
13.984100 5.906100
13.999300 5.293900
14.014400 4.615400
14.029600 4.046400
14.044800 3.684000
14.059900 3.560100
14.075100 3.700000
14.090300 4.118500
14.105400 4.737500
14.120600 5.335300
14.135800 5.633700
14.150900 5.480700
14.166100 4.965500
14.181300 4.359100
14.196400 3.948500
14.211600 3.906900
14.226700 4.256000
14.241900 4.884100
14.257100 5.594400
14.272200 6.187800
14.287400 6.550400
14.302600 6.685200
14.317700 6.667700
14.332900 6.579700
14.348100 6.481500
14.363200 6.416500
14.378400 6.403200
14.393600 6.419800
14.408700 6.422700
14.423900 6.400700
14.439100 6.405000
14.454200 6.511600
14.469400 6.739500
14.484600 6.996700
14.499700 7.114600
14.514900 6.961300
14.530100 6.545000
14.545200 6.009100
14.560400 5.530300
14.575600 5.220600
14.590700 5.094100
14.605900 5.079800
14.621100 5.059200
14.636200 4.937800
14.651400 4.715100
14.666600 4.483000
14.681700 4.350200
14.696900 4.374500
14.712000 4.559700
14.727200 4.882500
14.742400 5.303300
14.757500 5.761400
14.772700 6.173600
14.787900 6.450500
14.803000 6.530100
14.818200 6.419200
14.833400 6.213400
14.848500 6.072300
14.863700 6.141400
14.878900 6.454000
14.894000 6.880600
14.909200 7.187400
14.924400 7.179300
14.939500 6.825200
14.954700 6.274200
14.969900 5.766000
14.985000 5.510500
15.000200 5.606300
15.015400 6.010100
15.030500 6.552400
15.045700 7.003300
15.060900 7.187300
15.076000 7.076800
15.091200 6.773000
15.106400 6.384700
15.121500 5.934200
15.136700 5.389900
15.151900 4.769600
15.167000 4.184600
15.182200 3.778600
15.197300 3.633900
15.212500 3.732600
15.227700 3.980600
15.242800 4.254800
15.258000 4.454000
15.273200 4.553100
15.288300 4.636500
15.303500 4.865500
15.318700 5.364100
15.333800 6.088600
15.349000 6.805500
15.364200 7.234300
15.379300 7.251900
15.394500 6.967200
15.409700 6.603300
15.424800 6.325000
15.440000 6.174600
15.455200 6.123800
15.470300 6.137900
15.485500 6.191600
15.500700 6.265700
15.515800 6.356400
15.531000 6.486000
15.546200 6.684700
15.561300 6.944700
15.576500 7.195200
15.591700 7.345000
15.606800 7.354700
15.622000 7.248000
15.637200 7.051400
15.652300 6.748400
15.667500 6.316000
15.682600 5.794100
15.697800 5.297200
15.713000 4.959300
15.728100 4.878800
15.743300 5.105100
15.758500 5.627600
15.773600 6.340200
15.788800 7.028300
15.804000 7.437700
15.819100 7.398800
15.834300 6.915200
15.849500 6.159800
15.864600 5.399000
15.879800 4.888900
15.895000 4.783300
15.910100 5.088100
15.925300 5.683100
15.940500 6.390700
15.955600 7.041000
15.970800 7.514500
15.986000 7.776500
16.001100 7.891700
16.016300 7.979000
16.031500 8.117400
16.046600 8.285100
16.061800 8.391400
16.077000 8.358600
16.092100 8.170500
16.107300 7.857900
16.122500 7.460000
16.137600 7.007600
16.152800 6.525600
16.167900 6.036700
16.183100 5.568100
16.198300 5.166700
16.213400 4.903900
16.228600 4.840600
16.243800 4.969700
16.258900 5.198100
16.274100 5.416000
16.289300 5.608400
16.304400 5.891900
16.319600 6.414300
16.334800 7.200100
16.349900 8.090700
16.365100 8.832200
16.380300 9.223700
16.395400 9.213400
16.410600 8.896900
16.425800 8.430000
16.440900 7.906400
16.456100 7.299100
16.471300 6.537800
16.486400 5.656000
16.501600 4.831600
16.516800 4.263800
16.531900 4.035600
16.547100 4.115400
16.562300 4.458500
16.577400 5.049700
16.592600 5.826100
16.607800 6.590300
16.622900 7.061200
16.638100 7.063600
16.653200 6.681300
16.668400 6.213400
16.683600 5.960900
16.698700 6.033500
16.713900 6.333600
16.729100 6.696500
16.744200 7.028100
16.759400 7.321300
16.774600 7.588500
16.789700 7.820200
16.804900 7.992400
16.820100 8.065700
16.835200 7.974200
16.850400 7.668800
16.865600 7.204300
16.880700 6.745700
16.895900 6.441100
16.911100 6.296800
16.926200 6.207200
16.941400 6.092800
16.956600 5.966600
16.971700 5.885900
16.986900 5.904300
17.002100 6.097900
17.017200 6.588900
17.032400 7.466400
17.047600 8.643300
17.062700 9.802900
17.077900 10.534600
17.093100 10.566500
17.108200 9.898400
17.123400 8.748500
17.138500 7.411900
17.153700 6.157000
17.168900 5.181600
17.184000 4.597700
17.199200 4.437000
17.214400 4.671400
17.229500 5.224900
17.244700 5.976800
17.259900 6.780600
17.275000 7.507100
17.290200 8.074900
17.305400 8.445400
17.320500 8.606300
17.335700 8.572900
17.350900 8.388900
17.366000 8.099800
17.381200 7.725100
17.396400 7.274700
17.411500 6.794200
17.426700 6.371500
17.441900 6.092700
17.457000 6.008000
17.472200 6.142700
17.487400 6.516700
17.502500 7.124600
17.517700 7.889900
17.532900 8.652000
17.548000 9.210400
17.563200 9.396200
17.578400 9.140400
17.593500 8.525500
17.608700 7.782800
17.623800 7.183900
17.639000 6.864900
17.654200 6.733900
17.669300 6.569300
17.684500 6.224800
17.699700 5.739300
17.714800 5.260900
17.730000 4.905900
17.745200 4.713100
17.760300 4.699900
17.775500 4.903100
17.790700 5.337100
17.805800 5.920100
17.821000 6.456600
17.836200 6.711700
17.851300 6.541700
17.866500 6.001900
17.881700 5.343800
17.896800 4.885600
17.912000 4.844100
17.927200 5.256000
17.942300 6.020800
17.957500 6.979900
17.972700 7.949700
17.987800 8.733400
18.003000 9.174700
18.018200 9.232500
18.033300 8.991900
18.048500 8.593100
18.063700 8.149900
18.078800 7.724300
18.094000 7.336900
18.109100 6.980400
18.124300 6.638300
18.139500 6.318600
18.154600 6.079100
18.169800 6.021200
18.185000 6.249100
18.200100 6.809800
18.215300 7.639500
18.230500 8.553800
18.245600 9.297900
18.260800 9.634400
18.276000 9.429500
18.291100 8.705400
18.306300 7.633000
18.321500 6.460500
18.336600 5.420300
18.351800 4.661900
18.367000 4.226800
18.382100 4.054500
18.397300 4.019600
18.412500 4.001400
18.427600 3.950900
18.442800 3.892400
18.458000 3.860100
18.473100 3.842400
18.488300 3.796200
18.503500 3.713800
18.518600 3.661700
18.533800 3.735100
18.549000 3.957300
18.564100 4.219100
18.579300 4.331600
18.594400 4.162700
18.609600 3.742300
18.624800 3.249700
18.639900 2.897800
18.655100 2.811700
18.670300 2.981900
18.685400 3.304900
18.700600 3.667100
18.715800 4.010200
18.730900 4.337900
18.746100 4.672400
18.761300 5.013400
18.776400 5.337900
18.791600 5.614400
18.806800 5.788400
18.821900 5.761100
18.837100 5.428200
18.852300 4.775700
18.867400 3.942800
18.882600 3.172100
18.897800 2.687600
18.912900 2.593000
18.928100 2.844700
18.943300 3.288900
18.958400 3.737600
18.973600 4.050200
18.988800 4.173800
19.003900 4.115200
19.019100 3.886600
19.034300 3.498400
19.049400 3.003600
19.064600 2.516200
19.079700 2.152000
19.094900 1.950000
19.110100 1.877700
19.125200 1.914700
19.140400 2.100100
19.155600 2.469600
19.170700 2.949900
19.185900 3.342700
19.201100 3.439800
19.216200 3.170400
19.231400 2.646600
19.246600 2.071200
19.261700 1.598300
19.276900 1.270200
19.292100 1.054900
19.307200 0.911900
19.322400 0.818400
19.337600 0.757700
19.352700 0.705200
19.367900 0.633700
19.383100 0.532600
19.398200 0.420100
19.413400 0.334100
19.428600 0.303400
19.443700 0.322900
19.458900 0.354600
19.474100 0.355100
19.489200 0.305900
19.504400 0.221900
19.519600 0.134800
19.534700 0.068700
19.549900 0.030700
19.565000 0.017000
19.580200 0.024000
19.595400 0.055000
19.610500 0.117800
19.625700 0.215100
19.640900 0.332400
19.656000 0.435700
19.671200 0.486500
19.686400 0.464700
19.701500 0.381600
19.716700 0.271800
19.731900 0.174400
19.747000 0.117300
19.762200 0.113100
19.777400 0.159500
19.792500 0.237800
19.807700 0.313800
19.822900 0.349800
19.838000 0.326200
19.853200 0.253900
19.868400 0.165200
19.883500 0.090800
19.898700 0.045300
19.913900 0.029400
19.929000 0.038400
19.944200 0.067800
19.959400 0.110100
19.974500 0.151300
19.989700 0.173800
20.004900 0.166700
20.020000 0.133300
20.035200 0.089000
20.050300 0.049700
20.065500 0.023900
20.080700 0.012300
20.095800 0.013200
20.111000 0.026700
20.126200 0.054600
20.141300 0.095300
20.156500 0.139100
20.171700 0.169500
20.186800 0.172300
20.202000 0.146200
20.217200 0.103400
20.232300 0.061000
20.247500 0.030100
20.262700 0.012300
20.277800 0.004200
20.293000 0.001200
20.308200 0.000300
20.323300 0.000100
20.338500 0.000000
20.353700 0.000000
20.368800 0.000000
20.384000 0.000000
20.399200 0.000000
20.414300 0.000000
20.429500 0.000000
20.444700 0.000000
20.459800 0.000000
20.475000 0.000000
20.490200 0.000000
20.505300 0.000000
20.520500 0.000000
20.535600 0.000000
20.550800 0.000000
20.566000 0.000000
20.581100 0.000000
20.596300 0.000000
20.611500 0.000000
20.626600 0.000000
20.641800 0.000000
20.657000 0.000000
20.672100 0.000000
20.687300 0.000000
20.702500 0.000000
20.717600 0.000000
20.732800 0.000000
20.748000 0.000000
20.763100 0.000000
20.778300 0.000000
20.793500 0.000000
20.808600 0.000000
20.823800 0.000000
20.839000 0.000000
20.854100 0.000000
20.869300 0.000000
20.884500 0.000000
20.899600 0.000000
20.914800 0.000000
20.930000 0.000000
20.945100 0.000000
20.960300 0.000000
20.975500 0.000000
20.990600 0.000000
21.005800 0.000000
21.020900 0.000000
21.036100 0.000000
21.051300 0.000000
21.066400 0.000000
21.081600 0.000000
21.096800 0.000000
21.111900 0.000000
21.127100 0.000000
21.142300 0.000000
21.157400 0.000000
21.172600 0.000000
21.187800 0.000000
21.202900 0.000000
21.218100 0.000000
21.233300 0.000000
21.248400 0.000000
21.263600 0.000000
21.278800 0.000000
21.293900 0.000000
21.309100 0.000000
21.324300 0.000000
21.339400 0.000000
21.354600 0.000000
21.369800 0.000000
21.384900 0.000000
21.400100 0.000000
21.415300 0.000000
21.430400 0.000000
21.445600 0.000000
21.460800 0.000000
21.475900 0.000000
21.491100 0.000000
21.506200 0.000000
21.521400 0.000000
21.536600 0.000000
21.551700 0.000000
e
