set title 'mp-27902 - Density of States'
set xlabel 'Energy (eV)'
set ylabel 'DOS (states/eV)'
set grid
set xrange [-10:10]
set yrange [0:31.313]
set xzeroaxis lt -1
set terminal png size 800,600
set output 'mp-27902_dos_gnuplot.png'
plot '-' using 1:2 with lines title 'DOS'
-11.226100 0.000000
-11.215800 0.000000
-11.205400 0.000000
-11.195000 0.000000
-11.184700 0.000000
-11.174300 0.000000
-11.164000 0.000000
-11.153600 0.000000
-11.143200 0.000000
-11.132900 0.000000
-11.122500 0.000000
-11.112200 0.000000
-11.101800 0.000000
-11.091400 0.000000
-11.081100 0.000000
-11.070700 0.000000
-11.060400 0.000000
-11.050000 0.000000
-11.039600 0.000000
-11.029300 0.000000
-11.018900 0.000000
-11.008600 0.000000
-10.998200 0.000000
-10.987800 0.000000
-10.977500 0.000000
-10.967100 0.000000
-10.956800 0.000000
-10.946400 0.000000
-10.936000 0.000000
-10.925700 0.000000
-10.915300 0.000000
-10.905000 0.000000
-10.894600 0.000000
-10.884200 0.000000
-10.873900 0.000000
-10.863500 0.000000
-10.853200 0.000000
-10.842800 0.000000
-10.832400 0.000000
-10.822100 0.000000
-10.811700 0.000000
-10.801400 0.000000
-10.791000 0.000000
-10.780600 0.000000
-10.770300 0.000000
-10.759900 0.000000
-10.749600 0.000000
-10.739200 0.000000
-10.728800 0.000000
-10.718500 0.000000
-10.708100 0.000000
-10.697800 0.000000
-10.687400 0.000000
-10.677000 0.000000
-10.666700 0.000000
-10.656300 0.000000
-10.646000 0.000000
-10.635600 0.000000
-10.625200 0.000000
-10.614900 0.000000
-10.604500 0.000000
-10.594200 0.000000
-10.583800 0.000000
-10.573400 0.000000
-10.563100 0.000000
-10.552700 0.000000
-10.542400 0.000000
-10.532000 0.000000
-10.521600 0.000000
-10.511300 0.000000
-10.500900 0.000000
-10.490600 0.000000
-10.480200 0.000000
-10.469800 0.000000
-10.459500 0.000000
-10.449100 0.000000
-10.438800 0.000000
-10.428400 0.000000
-10.418000 0.000000
-10.407700 0.000000
-10.397300 0.000000
-10.387000 0.000000
-10.376600 0.000000
-10.366200 0.000000
-10.355900 0.000000
-10.345500 0.000000
-10.335200 0.000000
-10.324800 0.000000
-10.314400 0.000000
-10.304100 0.000000
-10.293700 0.000000
-10.283400 0.009000
-10.273000 0.409600
-10.262600 0.820700
-10.252300 1.566000
-10.241900 1.496900
-10.231600 1.945700
-10.221200 1.564400
-10.210800 1.635000
-10.200500 1.705500
-10.190100 1.776100
-10.179700 1.846600
-10.169400 1.884400
-10.159000 1.879300
-10.148700 1.852900
-10.138300 1.771900
-10.127900 1.741200
-10.117600 1.713500
-10.107200 1.729400
-10.096900 1.755600
-10.086500 1.781800
-10.076100 1.808000
-10.065800 1.834200
-10.055400 1.860400
-10.045100 1.886600
-10.034700 1.912900
-10.024300 1.864000
-10.014000 1.876200
-10.003600 1.814700
-9.993300 1.812900
-9.982900 1.811100
-9.972500 1.809200
-9.962200 1.807400
-9.951800 1.812400
-9.941500 1.818800
-9.931100 1.831500
-9.920700 1.846300
-9.910400 1.861100
-9.900000 1.875900
-9.889700 1.890600
-9.879300 1.905400
-9.868900 1.920200
-9.858600 1.935000
-9.848200 1.934800
-9.837900 1.930200
-9.827500 1.911100
-9.817100 1.894400
-9.806800 1.885500
-9.796400 1.893600
-9.786100 2.305800
-9.775700 2.817400
-9.765300 3.329600
-9.755000 2.753200
-9.744600 2.803400
-9.734300 3.018800
-9.723900 3.580900
-9.713500 4.145600
-9.703200 4.050100
-9.692800 3.906800
-9.682500 3.914500
-9.672100 3.922200
-9.661700 3.944600
-9.651400 4.016600
-9.641000 4.085400
-9.630700 4.078400
-9.620300 4.041300
-9.609900 4.017400
-9.599600 4.028100
-9.589200 4.064400
-9.578900 4.100700
-9.568500 4.093900
-9.558100 4.087200
-9.547800 4.110400
-9.537400 4.134300
-9.527100 4.160800
-9.516700 4.182100
-9.506300 4.134500
-9.496000 4.154100
-9.485600 4.173900
-9.475300 4.193700
-9.464900 4.213600
-9.454500 4.233600
-9.444200 4.261700
-9.433800 4.291300
-9.423500 4.321700
-9.413100 4.344500
-9.402700 4.355000
-9.392400 4.365500
-9.382000 4.385900
-9.371700 4.413000
-9.361300 4.433900
-9.350900 4.438500
-9.340600 4.441800
-9.330200 4.455000
-9.319900 4.477300
-9.309500 4.500800
-9.299100 4.525200
-9.288800 4.551300
-9.278400 4.577300
-9.268100 4.603300
-9.257700 4.629300
-9.247300 4.657200
-9.237000 4.687000
-9.226600 4.717500
-9.216300 4.739000
-9.205900 4.767400
-9.195500 4.795700
-9.185200 4.824100
-9.174800 4.852500
-9.164500 4.874900
-9.154100 4.905200
-9.143700 4.935500
-9.133400 4.965800
-9.123000 4.996100
-9.112600 5.028800
-9.102300 5.062900
-9.091900 5.097300
-9.081600 5.147300
-9.071200 5.189200
-9.060800 5.252900
-9.050500 5.302900
-9.040100 5.352800
-9.029800 5.401600
-9.019400 5.449800
-9.009000 5.504400
-8.998700 5.565700
-8.988300 5.624200
-8.978000 5.680400
-8.967600 5.738300
-8.957200 5.812500
-8.946900 5.885400
-8.936500 5.956500
-8.926200 6.035700
-8.915800 6.115400
-8.905400 6.195000
-8.895100 6.274700
-8.884700 6.358900
-8.874400 6.443400
-8.864000 6.527800
-8.853600 6.612300
-8.843300 6.701000
-8.832900 6.793500
-8.822600 7.293200
-8.812200 7.769200
-8.801800 7.836900
-8.791500 7.983600
-8.781100 8.070400
-8.770800 8.165500
-8.760400 8.331100
-8.750000 9.991200
-8.739700 11.857400
-8.729300 12.203200
-8.719000 11.844000
-8.708600 12.016100
-8.698200 15.240900
-8.687900 15.095700
-8.677500 24.425900
-8.667200 11.669300
-8.656800 11.831500
-8.646400 12.021000
-8.636100 11.856300
-8.625700 12.817000
-8.615400 13.823400
-8.605000 14.968400
-8.594600 24.678200
-8.584300 16.677100
-8.573900 15.069300
-8.563600 14.889100
-8.553200 15.202100
-8.542800 17.080800
-8.532500 17.257300
-8.522100 18.489900
-8.511800 19.453500
-8.501400 25.515400
-8.491000 25.431400
-8.480700 23.339000
-8.470300 21.246300
-8.460000 28.466200
-8.449600 22.792200
-8.439200 21.995000
-8.428900 22.690700
-8.418500 18.382800
-8.408200 9.642900
-8.397800 7.847300
-8.387400 0.000000
-8.377100 0.000000
-8.366700 0.000000
-8.356400 0.000000
-8.346000 0.000000
-8.335600 0.000000
-8.325300 0.000000
-8.314900 0.000000
-8.304600 0.000000
-8.294200 0.000000
-8.283800 0.000000
-8.273500 0.000000
-8.263100 0.000000
-8.252800 0.000000
-8.242400 0.000000
-8.232000 0.000000
-8.221700 0.000000
-8.211300 0.000000
-8.201000 0.000000
-8.190600 0.000000
-8.180200 0.000000
-8.169900 0.000000
-8.159500 0.000000
-8.149200 0.000000
-8.138800 0.000000
-8.128400 0.000000
-8.118100 0.000000
-8.107700 0.000000
-8.097400 0.000000
-8.087000 0.000000
-8.076600 0.000000
-8.066300 0.000000
-8.055900 0.000000
-8.045500 0.000000
-8.035200 0.122900
-8.024800 0.487600
-8.014500 0.852300
-8.004100 1.217100
-7.993700 0.706100
-7.983400 0.737000
-7.973000 0.767900
-7.962700 0.798800
-7.952300 0.829700
-7.941900 0.860600
-7.931600 0.891500
-7.921200 0.915700
-7.910900 0.879200
-7.900500 0.842600
-7.890100 0.806000
-7.879800 0.787700
-7.869400 0.799000
-7.859100 0.810400
-7.848700 0.821800
-7.838300 0.833100
-7.828000 0.844500
-7.817600 0.855800
-7.807300 0.867200
-7.796900 0.878500
-7.786500 0.889900
-7.776200 0.901200
-7.765800 0.844800
-7.755500 0.843600
-7.745100 0.842500
-7.734700 0.841400
-7.724400 0.840300
-7.714000 0.839200
-7.703700 0.838100
-7.693300 0.837200
-7.682900 0.843700
-7.672600 0.850100
-7.662200 0.856500
-7.651900 0.862900
-7.641500 0.869300
-7.631100 0.875800
-7.620800 0.882200
-7.610400 0.888600
-7.600100 0.895000
-7.589700 0.901400
-7.579300 0.904800
-7.569000 0.893400
-7.558600 0.882000
-7.548300 0.870700
-7.537900 0.868800
-7.527500 0.871500
-7.517200 0.874200
-7.506800 0.876900
-7.496500 0.879600
-7.486100 0.882300
-7.475700 0.885000
-7.465400 0.887700
-7.455000 0.890400
-7.444700 0.893000
-7.434300 0.896400
-7.423900 0.901300
-7.413600 0.906200
-7.403200 0.911100
-7.392900 0.916100
-7.382500 0.921000
-7.372100 0.925900
-7.361800 0.930800
-7.351400 0.935700
-7.341100 0.940600
-7.330700 0.945600
-7.320300 0.930700
-7.310000 0.931300
-7.299600 0.932000
-7.289300 0.932700
-7.278900 0.933300
-7.268500 0.934000
-7.258200 0.936000
-7.247800 0.940500
-7.237500 0.945100
-7.227100 0.949600
-7.216700 0.954100
-7.206400 0.958700
-7.196000 0.963200
-7.185700 0.967800
-7.175300 0.972300
-7.164900 0.976800
-7.154600 0.981400
-7.144200 0.985900
-7.133900 0.990500
-7.123500 0.996800
-7.113100 1.003500
-7.102800 1.010200
-7.092400 1.016800
-7.082100 1.023500
-7.071700 1.030100
-7.061300 1.036800
-7.051000 1.043600
-7.040600 1.147700
-7.030200 2.331800
-7.019900 4.274300
-7.009500 6.317200
-6.999200 9.633100
-6.988800 5.538900
-6.978400 6.454500
-6.968100 7.370100
-6.957700 8.634400
-6.947400 10.206000
-6.937000 12.313400
-6.926600 11.677900
-6.916300 11.981700
-6.905900 10.535300
-6.895600 10.323600
-6.885200 10.241900
-6.874800 10.160800
-6.864500 10.079400
-6.854100 9.031600
-6.843800 7.752400
-6.833400 6.981300
-6.823000 6.767800
-6.812700 6.554700
-6.802300 6.342100
-6.792000 6.185500
-6.781600 6.050500
-6.771200 5.775100
-6.760900 5.493000
-6.750500 4.537100
-6.740200 4.650600
-6.729800 4.768200
-6.719400 5.136200
-6.709100 5.634600
-6.698700 6.256600
-6.688400 7.095600
-6.678000 7.681600
-6.667600 7.730800
-6.657300 8.422900
-6.646900 9.407300
-6.636600 9.971300
-6.626200 9.231300
-6.615800 8.740500
-6.605500 7.980000
-6.595100 7.352800
-6.584800 13.386300
-6.574400 5.498000
-6.564000 4.924700
-6.553700 4.904800
-6.543300 4.982800
-6.533000 5.262800
-6.522600 5.577100
-6.512200 5.888500
-6.501900 7.143700
-6.491500 7.964100
-6.481200 7.184400
-6.470800 7.183300
-6.460400 8.633000
-6.450100 19.522400
-6.439700 15.475300
-6.429400 9.589900
-6.419000 8.082600
-6.408600 7.223800
-6.398300 7.111900
-6.387900 7.000100
-6.377600 6.888400
-6.367200 6.782500
-6.356800 6.679100
-6.346500 6.577500
-6.336100 6.483300
-6.325800 6.392500
-6.315400 6.317900
-6.305000 6.250000
-6.294700 6.157300
-6.284300 6.086900
-6.274000 5.998100
-6.263600 5.896600
-6.253200 5.825600
-6.242900 5.770300
-6.232500 5.714500
-6.222200 5.660200
-6.211800 5.608800
-6.201400 5.560500
-6.191100 5.531300
-6.180700 5.576100
-6.170400 5.618300
-6.160000 5.629000
-6.149600 5.619200
-6.139300 5.641300
-6.128900 5.652600
-6.118600 5.396600
-6.108200 5.370100
-6.097800 5.363400
-6.087500 5.363400
-6.077100 5.419700
-6.066800 5.460700
-6.056400 5.494100
-6.046000 5.469100
-6.035700 5.418800
-6.025300 5.548100
-6.015000 5.711600
-6.004600 5.794500
-5.994200 5.908300
-5.983900 5.480900
-5.973500 4.946400
-5.963100 4.544800
-5.952800 4.214000
-5.942400 3.743800
-5.932100 3.590400
-5.921700 3.618400
-5.911300 3.276600
-5.901000 2.912100
-5.890600 2.573600
-5.880300 2.262300
-5.869900 1.885300
-5.859500 1.628700
-5.849200 1.593800
-5.838800 1.571400
-5.828500 1.550800
-5.818100 1.554000
-5.807700 1.557200
-5.797400 1.560400
-5.787000 1.563600
-5.776700 1.566800
-5.766300 1.570000
-5.755900 1.573200
-5.745600 1.576500
-5.735200 1.580500
-5.724900 1.584700
-5.714500 1.588900
-5.704100 1.593900
-5.693800 1.599100
-5.683400 1.604200
-5.673100 1.609300
-5.662700 1.614500
-5.652300 1.619600
-5.642000 1.624800
-5.631600 1.629900
-5.621300 1.635100
-5.610900 1.642800
-5.600500 1.653500
-5.590200 1.664200
-5.579800 1.675300
-5.569500 1.689000
-5.559100 1.699600
-5.548700 1.709000
-5.538400 2.004300
-5.528000 1.999400
-5.517700 1.993100
-5.507300 1.986800
-5.496900 1.980600
-5.486600 1.974300
-5.476200 1.968100
-5.465900 1.961800
-5.455500 1.955600
-5.445100 1.949300
-5.434800 1.943100
-5.424400 1.937100
-5.414100 1.978200
-5.403700 2.022300
-5.393300 2.066500
-5.383000 2.110600
-5.372600 2.155700
-5.362300 2.202500
-5.351900 2.249500
-5.341500 2.296400
-5.331200 2.345800
-5.320800 2.405900
-5.310500 2.463500
-5.300100 2.514600
-5.289700 2.556000
-5.279400 2.602600
-5.269000 2.487800
-5.258700 3.583400
-5.248300 3.195100
-5.237900 2.804800
-5.227600 3.011300
-5.217200 3.274600
-5.206900 3.537900
-5.196500 3.801200
-5.186100 4.064500
-5.175800 3.298800
-5.165400 3.214600
-5.155100 3.137000
-5.144700 3.065900
-5.134300 3.000700
-5.124000 2.931700
-5.113600 2.857000
-5.103300 2.789500
-5.092900 2.765300
-5.082500 2.740600
-5.072200 2.714000
-5.061800 2.684300
-5.051500 2.648900
-5.041100 2.607000
-5.030700 2.566400
-5.020400 2.587000
-5.010000 2.588700
-4.999700 2.559200
-4.989300 2.509100
-4.978900 2.416500
-4.968600 2.304900
-4.958200 2.172600
-4.947800 2.086900
-4.937500 2.030600
-4.927100 1.969100
-4.916800 1.902300
-4.906400 1.830400
-4.896000 1.744200
-4.885700 1.613100
-4.875300 1.501200
-4.865000 1.410000
-4.854600 1.339400
-4.844200 1.289500
-4.833900 1.263200
-4.823500 1.258300
-4.813200 1.256000
-4.802800 1.253700
-4.792400 1.251400
-4.782100 1.249100
-4.771700 1.246800
-4.761400 1.245500
-4.751000 1.259800
-4.740600 1.274100
-4.730300 1.278100
-4.719900 1.272100
-4.709600 1.266100
-4.699200 1.260000
-4.688800 1.254000
-4.678500 1.250000
-4.668100 1.247200
-4.657800 1.244500
-4.647400 1.241800
-4.637000 1.239100
-4.626700 1.236400
-4.616300 1.233700
-4.606000 1.231000
-4.595600 1.228200
-4.585200 1.225500
-4.574900 1.229800
-4.564500 1.240000
-4.554200 1.250200
-4.543800 1.260500
-4.533400 1.270700
-4.523100 1.323500
-4.512700 1.316600
-4.502400 1.309800
-4.492000 1.302900
-4.481600 1.296100
-4.471300 1.289200
-4.460900 1.282400
-4.450600 1.277800
-4.440200 1.278900
-4.429800 1.280000
-4.419500 1.281100
-4.409100 1.282200
-4.398800 1.283300
-4.388400 1.284400
-4.378000 1.290200
-4.367700 1.340700
-4.357300 1.391100
-4.347000 1.395200
-4.336600 1.382200
-4.326200 1.369300
-4.315900 1.356400
-4.305500 1.343500
-4.295200 1.330500
-4.284800 1.317600
-4.274400 1.323300
-4.264100 1.332000
-4.253700 1.340700
-4.243400 1.349400
-4.233000 1.457500
-4.222600 1.428300
-4.212300 1.399100
-4.201900 1.369900
-4.191600 1.340700
-4.181200 1.311400
-4.170800 1.282200
-4.160500 1.303600
-4.150100 1.380000
-4.139800 1.432300
-4.129400 1.354600
-4.119000 1.277000
-4.108700 1.199300
-4.098300 1.121700
-4.088000 1.757800
-4.077600 0.946700
-4.067200 0.137500
-4.056900 0.000000
-4.046500 0.000000
-4.036200 0.000000
-4.025800 0.000000
-4.015400 0.000000
-4.005100 0.000000
-3.994700 0.000000
-3.984400 0.000000
-3.974000 0.000000
-3.963600 0.000000
-3.953300 0.000000
-3.942900 0.000000
-3.932600 0.000000
-3.922200 0.000000
-3.911800 0.000000
-3.901500 0.000000
-3.891100 0.000000
-3.880700 0.000000
-3.870400 0.000000
-3.860000 0.000000
-3.849700 0.000000
-3.839300 0.000000
-3.828900 0.000000
-3.818600 0.000000
-3.808200 0.000000
-3.797900 0.000000
-3.787500 0.000000
-3.777100 0.000000
-3.766800 0.000000
-3.756400 0.000000
-3.746100 0.000000
-3.735700 0.000000
-3.725300 0.000000
-3.715000 0.000000
-3.704600 0.000000
-3.694300 0.000000
-3.683900 0.000000
-3.673500 0.000000
-3.663200 0.000000
-3.652800 0.000000
-3.642500 0.000000
-3.632100 0.000000
-3.621700 0.000000
-3.611400 0.000000
-3.601000 0.000000
-3.590700 0.000000
-3.580300 0.000000
-3.569900 0.000000
-3.559600 0.000000
-3.549200 0.000000
-3.538900 0.000000
-3.528500 0.000000
-3.518100 0.000000
-3.507800 0.000000
-3.497400 0.000000
-3.487100 0.000000
-3.476700 0.000000
-3.466300 0.000000
-3.456000 0.000000
-3.445600 0.000000
-3.435300 0.000000
-3.424900 0.000000
-3.414500 0.000000
-3.404200 0.000000
-3.393800 0.000000
-3.383500 0.000000
-3.373100 0.000000
-3.362700 0.000000
-3.352400 0.000000
-3.342000 0.000000
-3.331700 0.000000
-3.321300 0.000000
-3.310900 0.000000
-3.300600 0.000000
-3.290200 0.000000
-3.279900 0.000000
-3.269500 0.000000
-3.259100 0.000000
-3.248800 0.000000
-3.238400 0.000000
-3.228100 0.000000
-3.217700 0.000000
-3.207300 0.000000
-3.197000 0.000000
-3.186600 0.000000
-3.176300 0.000000
-3.165900 0.000000
-3.155500 0.000000
-3.145200 0.000000
-3.134800 0.000000
-3.124500 0.000000
-3.114100 0.000000
-3.103700 0.000000
-3.093400 0.000000
-3.083000 0.000000
-3.072700 0.000000
-3.062300 0.000000
-3.051900 0.000000
-3.041600 0.000000
-3.031200 0.000000
-3.020900 0.000000
-3.010500 0.000000
-3.000100 0.000000
-2.989800 0.000000
-2.979400 0.000000
-2.969100 0.000000
-2.958700 0.000000
-2.948300 0.000000
-2.938000 0.000000
-2.927600 0.000000
-2.917300 0.000000
-2.906900 0.000000
-2.896500 0.000000
-2.886200 0.000000
-2.875800 0.000000
-2.865400 0.000000
-2.855100 0.000000
-2.844700 0.000000
-2.834400 0.000000
-2.824000 0.000000
-2.813600 0.000000
-2.803300 0.000000
-2.792900 0.000000
-2.782600 0.000000
-2.772200 0.000000
-2.761800 0.000000
-2.751500 0.000000
-2.741100 0.000000
-2.730800 0.000000
-2.720400 0.000000
-2.710000 0.000000
-2.699700 0.000000
-2.689300 0.000000
-2.679000 0.000000
-2.668600 0.000000
-2.658200 0.000000
-2.647900 0.000000
-2.637500 0.000000
-2.627200 0.000000
-2.616800 0.000000
-2.606400 0.000000
-2.596100 0.000000
-2.585700 0.000000
-2.575400 0.000000
-2.565000 0.000000
-2.554600 0.000000
-2.544300 0.000000
-2.533900 0.000000
-2.523600 0.000000
-2.513200 0.000000
-2.502800 0.000000
-2.492500 0.000000
-2.482100 0.000000
-2.471800 0.000000
-2.461400 0.000000
-2.451000 0.000000
-2.440700 0.000000
-2.430300 0.000000
-2.420000 0.000000
-2.409600 0.000000
-2.399200 0.000000
-2.388900 0.000000
-2.378500 0.000000
-2.368200 0.000000
-2.357800 0.000000
-2.347400 0.000000
-2.337100 0.000000
-2.326700 0.000000
-2.316400 0.000000
-2.306000 0.000000
-2.295600 0.000000
-2.285300 0.000000
-2.274900 0.000000
-2.264600 0.000000
-2.254200 0.000000
-2.243800 0.000000
-2.233500 0.000000
-2.223100 0.000000
-2.212800 0.000000
-2.202400 0.000000
-2.192000 0.000000
-2.181700 0.000000
-2.171300 0.000000
-2.161000 0.000000
-2.150600 0.000000
-2.140200 0.000000
-2.129900 0.000000
-2.119500 0.000000
-2.109200 0.000000
-2.098800 0.000000
-2.088400 0.000000
-2.078100 0.000000
-2.067700 0.000000
-2.057400 0.000000
-2.047000 0.000000
-2.036600 0.000000
-2.026300 0.000000
-2.015900 0.000000
-2.005600 0.000000
-1.995200 0.000000
-1.984800 0.000000
-1.974500 0.000000
-1.964100 0.000000
-1.953800 0.000000
-1.943400 0.000000
-1.933000 0.000000
-1.922700 0.000000
-1.912300 0.000000
-1.902000 0.000000
-1.891600 0.000000
-1.881200 0.000000
-1.870900 0.000000
-1.860500 0.000000
-1.850200 0.000000
-1.839800 0.000000
-1.829400 0.000000
-1.819100 0.000000
-1.808700 0.000000
-1.798300 0.000000
-1.788000 0.000000
-1.777600 0.000000
-1.767300 0.000000
-1.756900 0.000000
-1.746500 0.000000
-1.736200 0.000000
-1.725800 0.000000
-1.715500 0.000000
-1.705100 0.000000
-1.694700 0.000000
-1.684400 0.000000
-1.674000 0.000000
-1.663700 0.000000
-1.653300 0.000000
-1.642900 0.000000
-1.632600 0.000000
-1.622200 0.000000
-1.611900 0.000000
-1.601500 0.000000
-1.591100 0.000000
-1.580800 0.000000
-1.570400 0.000000
-1.560100 0.000000
-1.549700 0.000000
-1.539300 0.000000
-1.529000 0.000000
-1.518600 0.000000
-1.508300 0.000000
-1.497900 0.000000
-1.487500 0.000000
-1.477200 0.000000
-1.466800 0.000000
-1.456500 0.000000
-1.446100 0.000000
-1.435700 0.000000
-1.425400 0.000000
-1.415000 0.000000
-1.404700 0.000000
-1.394300 0.000000
-1.383900 0.000000
-1.373600 0.000000
-1.363200 0.000000
-1.352900 0.000000
-1.342500 0.000000
-1.332100 0.000000
-1.321800 0.000000
-1.311400 0.000000
-1.301100 0.000000
-1.290700 0.000000
-1.280300 0.000000
-1.270000 0.000000
-1.259600 0.000000
-1.249300 2.661400
-1.238900 1.779600
-1.228500 1.658100
-1.218200 1.792400
-1.207800 1.930200
-1.197500 2.071500
-1.187100 4.667300
-1.176700 3.973800
-1.166400 3.888700
-1.156000 3.844900
-1.145700 3.854700
-1.135300 3.986800
-1.124900 4.124500
-1.114600 4.250900
-1.104200 4.176000
-1.093900 4.054700
-1.083500 4.023100
-1.073100 4.049600
-1.062800 4.079200
-1.052400 4.132200
-1.042100 4.223800
-1.031700 4.334800
-1.021300 4.446300
-1.011000 4.518300
-1.000600 4.547600
-0.990300 4.592600
-0.979900 4.657000
-0.969500 4.723400
-0.959200 4.801700
-0.948800 4.847200
-0.938500 4.853600
-0.928100 4.846000
-0.917700 7.947500
-0.907400 5.580700
-0.897000 5.633200
-0.886700 7.377600
-0.876300 4.373300
-0.865900 4.194800
-0.855600 4.083200
-0.845200 3.971900
-0.834900 3.862300
-0.824500 3.755100
-0.814100 3.648000
-0.803800 3.541200
-0.793400 3.434500
-0.783100 5.518600
-0.772700 2.906800
-0.762300 2.827900
-0.752000 2.750300
-0.741600 2.737300
-0.731200 3.266300
-0.720900 3.761000
-0.710500 2.257000
-0.700200 2.230000
-0.689800 2.237100
-0.679400 2.289900
-0.669100 2.349100
-0.658700 2.406900
-0.648400 2.464900
-0.638000 2.532000
-0.627600 2.639100
-0.617300 2.790000
-0.606900 2.958100
-0.596600 3.126800
-0.586200 3.296000
-0.575800 3.465600
-0.565500 3.886000
-0.555100 4.593000
-0.544800 4.582200
-0.534400 4.563300
-0.524000 4.546900
-0.513700 4.958900
-0.503300 5.284600
-0.493000 5.048200
-0.482600 4.818000
-0.472200 4.613700
-0.461900 4.751200
-0.451500 4.651200
-0.441200 4.485400
-0.430800 4.339700
-0.420400 4.233100
-0.410100 4.476900
-0.399700 4.579500
-0.389400 4.416000
-0.379000 4.310500
-0.368600 4.240500
-0.358300 4.178500
-0.347900 3.957300
-0.337600 3.861100
-0.327200 3.894600
-0.316800 3.939700
-0.306500 3.994900
-0.296100 4.076000
-0.285800 4.158000
-0.275400 4.110700
-0.265000 4.119200
-0.254700 4.197100
-0.244300 4.275000
-0.234000 4.353000
-0.223600 4.859300
-0.213200 4.806300
-0.202900 4.753700
-0.192500 4.701500
-0.182200 4.649700
-0.171800 4.619700
-0.161400 5.716100
-0.151100 5.812600
-0.140700 5.220600
-0.130400 5.115500
-0.120000 5.572800
-0.109600 6.202200
-0.099300 6.720300
-0.088900 8.256200
-0.078600 8.484700
-0.068200 9.777000
-0.057800 10.505800
-0.047500 10.762100
-0.037100 10.521600
-0.026800 9.946000
-0.016400 9.059100
-0.006000 8.276800
0.004300 8.269200
0.014700 7.984900
0.025000 7.777600
0.035400 8.238200
0.045800 9.262200
0.056100 10.031400
0.066500 8.970300
0.076800 8.740900
0.087200 8.900400
0.097600 9.227400
0.107900 9.746200
0.118300 10.465500
0.128600 11.137500
0.139000 11.554000
0.149400 11.775000
0.159700 11.866000
0.170100 11.781700
0.180400 11.103000
0.190800 9.988400
0.201200 9.865000
0.211500 9.881200
0.221900 10.390000
0.232200 10.482500
0.242600 10.544200
0.253000 10.592300
0.263300 10.608700
0.273700 10.566200
0.284100 10.538500
0.294400 10.738500
0.304800 10.943000
0.315100 10.999400
0.325500 11.319600
0.335900 15.171500
0.346200 12.382000
0.356600 11.529800
0.366900 11.746400
0.377300 11.961400
0.387700 12.074800
0.398000 12.195900
0.408400 11.721100
0.418700 11.239000
0.429100 10.218200
0.439500 9.790000
0.449800 9.325100
0.460200 8.869300
0.470500 8.610000
0.480900 8.391300
0.491300 8.203900
0.501600 8.044900
0.512000 7.900700
0.522300 7.809300
0.532700 7.775500
0.543100 7.790700
0.553400 7.849100
0.563800 7.964800
0.574100 8.138400
0.584500 8.375900
0.594900 8.687600
0.605200 9.092100
0.615600 9.732100
0.625900 10.106900
0.636300 9.164200
0.646700 8.560300
0.657000 8.526100
0.667400 8.521800
0.677700 8.599600
0.688100 8.690500
0.698500 8.779900
0.708800 9.001600
0.719200 9.219300
0.729500 9.429700
0.739900 9.642500
0.750300 9.853500
0.760600 10.063500
0.771000 10.216800
0.781300 10.334900
0.791700 10.646200
0.802100 10.887900
0.812400 10.857500
0.822800 10.812200
0.833100 10.648700
0.843500 10.407200
0.853900 9.888500
0.864200 9.696700
0.874600 9.622600
0.884900 9.575300
0.895300 9.741400
0.905700 10.156300
0.916000 10.431400
0.926400 10.808300
0.936700 11.157700
0.947100 11.492200
0.957500 11.884900
0.967800 11.682700
0.978200 12.776200
0.988500 13.673100
0.998900 13.442400
1.009300 12.724900
1.019600 12.746500
1.030000 12.209700
1.040300 11.948300
1.050700 11.920700
1.061100 11.925300
1.071400 12.035900
1.081800 12.080100
1.092100 11.378300
1.102500 11.197700
1.112900 11.474100
1.123200 12.187900
1.133600 13.295100
1.143900 12.520300
1.154300 12.595100
1.164700 12.654600
1.175000 12.194200
1.185400 13.008500
1.195700 18.417400
1.206100 11.773100
1.216500 10.512700
1.226800 10.448100
1.237200 10.957800
1.247500 10.769300
1.257900 10.688800
1.268300 10.748500
1.278600 10.871600
1.289000 11.030400
1.299300 11.333500
1.309700 12.033400
1.320100 11.907200
1.330400 11.786900
1.340800 11.654400
1.351200 11.763200
1.361500 11.839000
1.371900 11.614300
1.382200 11.243800
1.392600 11.042600
1.403000 11.313300
1.413300 11.501700
1.423700 11.561900
1.434000 11.554900
1.444400 11.513300
1.454800 11.305000
1.465100 11.480900
1.475500 12.023600
1.485800 11.455100
1.496200 10.861900
1.506600 10.313200
1.516900 9.880200
1.527300 9.544100
1.537600 9.184800
1.548000 8.871100
1.558400 8.601300
1.568700 8.360700
1.579100 8.152100
1.589400 7.984400
1.599800 7.914800
1.610200 7.953500
1.620500 7.999300
1.630900 8.037800
1.641200 8.071400
1.651600 8.110900
1.662000 8.174600
1.672300 8.518800
1.682700 9.047700
1.693000 9.034900
1.703400 9.048500
1.713800 9.052700
1.724100 8.887600
1.734500 8.593100
1.744800 8.152800
1.755200 7.580900
1.765600 6.889200
1.775900 6.061300
1.786300 5.302400
1.796600 5.178600
1.807000 5.150800
1.817400 5.208300
1.827700 5.282700
1.838100 5.383800
1.848400 5.565000
1.858800 5.837200
1.869200 6.304200
1.879500 7.777400
1.889900 7.556800
1.900200 7.867100
1.910600 8.163200
1.921000 8.830700
1.931300 10.033700
1.941700 12.564500
1.952000 14.048100
1.962400 12.794500
1.972800 12.993300
1.983100 12.569400
1.993500 13.612800
2.003800 11.932000
2.014200 10.829200
2.024600 10.238800
2.034900 13.731300
2.045300 10.842200
2.055600 10.063800
2.066000 10.464600
2.076400 11.082800
2.086700 11.151700
2.097100 11.459500
2.107400 12.436500
2.117800 11.336800
2.128200 10.159100
2.138500 8.658200
2.148900 7.574000
2.159200 7.162900
2.169600 6.944000
2.180000 7.026600
2.190300 7.812700
2.200700 8.008000
2.211000 8.414700
2.221400 9.538300
2.231800 12.546100
2.242100 14.297500
2.252500 13.956300
2.262800 14.373200
2.273200 14.724100
2.283600 14.874300
2.293900 14.956900
2.304300 15.100300
2.314600 14.535800
2.325000 14.212300
2.335400 13.747800
2.345700 13.243100
2.356100 14.966600
2.366500 13.943700
2.376800 13.171600
2.387200 12.405700
2.397500 12.469700
2.407900 12.972500
2.418300 13.652300
2.428600 16.635800
2.439000 16.301600
2.449300 13.312900
2.459700 11.786900
2.470100 11.222400
2.480400 11.090400
2.490800 11.001000
2.501100 11.027400
2.511500 11.190400
2.521900 11.126500
2.532200 11.098000
2.542600 11.043600
2.552900 11.049100
2.563300 10.540800
2.573700 10.457500
2.584000 9.549700
2.594400 9.533800
2.604700 9.642800
2.615100 9.764200
2.625500 9.891600
2.635800 10.663500
2.646200 11.371400
2.656500 11.875600
2.666900 12.143400
2.677300 12.501400
2.687600 13.538800
2.698000 14.790200
2.708300 14.254900
2.718700 15.929800
2.729100 13.346000
2.739400 13.191700
2.749800 11.923700
2.760100 10.970800
2.770500 11.092800
2.780900 12.417900
2.791200 12.692200
2.801600 12.643900
2.811900 12.799000
2.822300 12.509300
2.832700 12.241000
2.843000 11.950600
2.853400 11.120100
2.863700 10.516000
2.874100 9.114700
2.884500 7.993700
2.894800 7.064800
2.905200 6.398900
2.915500 5.953200
2.925900 6.145600
2.936300 6.254000
2.946600 6.585800
2.957000 7.975500
2.967300 11.044300
2.977700 10.353200
2.988100 9.223500
2.998400 9.525600
3.008800 10.865300
3.019100 11.745100
3.029500 11.847100
3.039900 11.941100
3.050200 11.576400
3.060600 11.424600
3.070900 11.453500
3.081300 11.032400
3.091700 9.861100
3.102000 9.789700
3.112400 9.815900
3.122700 10.383100
3.133100 7.833600
3.143500 6.732200
3.153800 6.684000
3.164200 6.521000
3.174500 6.225400
3.184900 5.883300
3.195300 5.574200
3.205600 5.286900
3.216000 5.410900
3.226300 5.613300
3.236700 5.912800
3.247100 5.070900
3.257400 5.054200
3.267800 5.065500
3.278100 5.038900
3.288500 4.974300
3.298900 4.867500
3.309200 4.715600
3.319600 4.518600
3.329900 4.321500
3.340300 4.340500
3.350700 3.950300
3.361000 3.697600
3.371400 3.541500
3.381700 3.404700
3.392100 3.247900
3.402500 3.181800
3.412800 3.136100
3.423200 3.099300
3.433600 3.063400
3.443900 3.028400
3.454300 2.994400
3.464600 2.961300
3.475000 2.929200
3.485400 2.898000
3.495700 2.867700
3.506100 2.836100
3.516400 2.800800
3.526800 2.764500
3.537200 2.715300
3.547500 2.659500
3.557900 2.604700
3.568200 2.557200
3.578600 2.530100
3.589000 2.502900
3.599300 2.474800
3.609700 2.461700
3.620000 2.450800
3.630400 2.436500
3.640800 2.420100
3.651100 2.403500
3.661500 2.386700
3.671800 2.369700
3.682200 2.352500
3.692600 2.335000
3.702900 2.317400
3.713300 2.294700
3.723600 2.260500
3.734000 2.215100
3.744400 2.187800
3.754700 2.217800
3.765100 2.224900
3.775400 2.234600
3.785800 2.246600
3.796200 2.260300
3.806500 2.276500
3.816900 2.294900
3.827200 2.349300
3.837600 2.361600
3.848000 2.376000
3.858300 2.392500
3.868700 2.411200
3.879000 2.431700
3.889400 2.436400
3.899800 2.426700
3.910100 2.396700
3.920500 2.351800
3.930800 2.304100
3.941200 2.257300
3.951600 2.216200
3.961900 2.177500
3.972300 2.141000
3.982600 2.106900
3.993000 2.076000
4.003400 2.049000
4.013700 2.095100
4.024100 2.168100
4.034400 2.302700
4.044800 2.557900
4.055200 4.240600
4.065500 3.101300
4.075900 1.361200
4.086200 0.881400
4.096600 0.860200
4.107000 0.839200
4.117300 0.807200
4.127700 0.803900
4.138000 0.843100
4.148400 0.882700
4.158800 0.922700
4.169100 0.963000
4.179500 1.001200
4.189800 1.017200
4.200200 1.033100
4.210600 1.048900
4.220900 1.064600
4.231300 1.080100
4.241600 1.095500
4.252000 1.110800
4.262400 1.831900
4.272700 1.748100
4.283100 0.217300
4.293400 0.207400
4.303800 0.197400
4.314200 0.187500
4.324500 0.177600
4.334900 0.167600
4.345200 0.157700
4.355600 0.147700
4.366000 0.137800
4.376300 0.127900
4.386700 0.117900
4.397000 0.108000
4.407400 0.098000
4.417800 1.308900
4.428100 1.502900
4.438500 1.527000
4.448800 1.496300
4.459200 1.430400
4.469600 1.329100
4.479900 1.192400
4.490300 1.022300
4.500700 0.840100
4.511000 0.662400
4.521400 0.764100
4.531700 1.048700
4.542100 1.347700
4.552500 1.407900
4.562800 1.364800
4.573200 1.342000
4.583500 1.495400
4.593900 1.757900
4.604300 1.961800
4.614600 2.171800
4.625000 2.380300
4.635300 2.563000
4.645700 2.715300
4.656100 2.839500
4.666400 2.937200
4.676800 3.009600
4.687100 3.061600
4.697500 3.093600
4.707900 3.110200
4.718200 3.122000
4.728600 3.132700
4.738900 3.149600
4.749300 3.172600
4.759700 3.195100
4.770000 3.200500
4.780400 3.209700
4.790700 3.222200
4.801100 3.238100
4.811500 3.261500
4.821800 3.276700
4.832200 3.353500
4.842500 3.525000
4.852900 3.630100
4.863300 3.698500
4.873600 3.751100
4.884000 3.790200
4.894300 3.818600
4.904700 3.847500
4.915100 4.283100
4.925400 4.432500
4.935800 4.613800
4.946100 4.827100
4.956500 5.068600
4.966900 5.363500
4.977200 5.733200
4.987600 6.175200
4.997900 6.820600
5.008300 7.682100
5.018700 8.401900
5.029000 8.814900
5.039400 8.932300
5.049700 7.104700
5.060100 5.293300
5.070500 4.696800
5.080800 4.465400
5.091200 4.338200
5.101500 4.329500
5.111900 4.412400
5.122300 4.534100
5.132600 4.728700
5.143000 5.006500
5.153300 5.524500
5.163700 6.381500
5.174100 6.496000
5.184400 6.612700
5.194800 6.847800
5.205100 6.566000
5.215500 7.044400
5.225900 7.301500
5.236200 7.418800
5.246600 7.458400
5.256900 7.366800
5.267300 7.383600
5.277700 7.511800
5.288000 7.681300
5.298400 7.919600
5.308700 8.125800
5.319100 8.472100
5.329500 8.839900
5.339800 9.162900
5.350200 10.233500
5.360500 10.439000
5.370900 10.204000
5.381300 10.097700
5.391600 10.113600
5.402000 10.035800
5.412300 9.362500
5.422700 9.238300
5.433100 9.290300
5.443400 9.404700
5.453800 9.347800
5.464100 9.350900
5.474500 9.372600
5.484900 9.480300
5.495200 9.418400
5.505600 9.298500
5.516000 9.276100
5.526300 9.392500
5.536700 9.725600
5.547000 10.233800
5.557400 10.809000
5.567800 11.207800
5.578100 11.544400
5.588500 11.504400
5.598800 11.147900
5.609200 10.754500
5.619600 10.042900
5.629900 9.462000
5.640300 9.328100
5.650600 9.469100
5.661000 10.443500
5.671400 11.361900
5.681700 11.639800
5.692100 11.379900
5.702400 11.166800
5.712800 11.946600
5.723200 12.257000
5.733500 12.144200
5.743900 11.733900
5.754200 11.446100
5.764600 12.069700
5.775000 10.909200
5.785300 8.999900
5.795700 8.017800
5.806000 7.108500
5.816400 8.202200
5.826800 9.521100
5.837100 10.674000
5.847500 11.511300
5.857800 12.114400
5.868200 12.481800
5.878600 12.469700
5.888900 11.870600
5.899300 10.953400
5.909600 9.644100
5.920000 7.449500
5.930400 6.762800
5.940700 6.334000
5.951100 6.002300
5.961400 5.806400
5.971800 5.806100
5.982200 5.960600
5.992500 6.147800
6.002900 6.324600
6.013200 6.781400
6.023600 7.231300
6.034000 7.512900
6.044300 7.441900
6.054700 6.938500
6.065000 6.799200
6.075400 7.073200
6.085800 7.380200
6.096100 7.482300
6.106500 7.418300
6.116800 7.510600
6.127200 7.923600
6.137600 8.389800
6.147900 8.703200
6.158300 8.700700
6.168600 9.039500
6.179000 9.242500
6.189400 9.224300
6.199700 8.936900
6.210100 8.403500
6.220400 8.227600
6.230800 8.489800
6.241200 8.944200
6.251500 9.466900
6.261900 9.672900
6.272200 9.806200
6.282600 9.967700
6.293000 10.555000
6.303300 8.480000
6.313700 8.097200
6.324000 7.848800
6.334400 7.621200
6.344800 7.380200
6.355100 7.126600
6.365500 6.838000
6.375800 6.444200
6.386200 6.002000
6.396600 5.695300
6.406900 5.762300
6.417300 5.902500
6.427600 6.074800
6.438000 6.095900
6.448400 6.084300
6.458700 6.133400
6.469100 6.224100
6.479400 6.368400
6.489800 6.551600
6.500200 6.836400
6.510500 6.967700
6.520900 6.979500
6.531200 7.055900
6.541600 7.174100
6.552000 7.312500
6.562300 7.459700
6.572700 7.837800
6.583100 7.922800
6.593400 7.725500
6.603800 7.656400
6.614100 8.115000
6.624500 8.874000
6.634900 9.366300
6.645200 9.398100
6.655600 9.523100
6.665900 9.585100
6.676300 9.983000
6.686700 11.500700
6.697000 12.133000
6.707400 12.407400
6.717700 12.677100
6.728100 13.134200
6.738500 13.051800
6.748800 11.811500
6.759200 10.431800
6.769500 9.320300
6.779900 8.512700
6.790300 8.061500
6.800600 9.180900
6.811000 10.944300
6.821300 11.528300
6.831700 11.257700
6.842100 10.869700
6.852400 10.599000
6.862800 10.197000
6.873100 9.670900
6.883500 9.110700
6.893900 8.440700
6.904200 7.733600
6.914600 7.003400
6.924900 6.395400
6.935300 6.012900
6.945700 5.822900
6.956000 5.924400
6.966400 6.098600
6.976700 6.277500
6.987100 6.466300
6.997500 6.695300
7.007800 7.029900
7.018200 7.603100
7.028500 8.225100
7.038900 8.801200
7.049300 9.469000
7.059600 10.210700
7.070000 10.521100
7.080300 10.455700
7.090700 10.313100
7.101100 10.130100
7.111400 10.640700
7.121800 10.243900
7.132100 10.255700
7.142500 10.340800
7.152900 11.127700
7.163200 12.743100
7.173600 10.809300
7.183900 11.066800
7.194300 11.510400
7.204700 11.794500
7.215000 11.690200
7.225400 11.580700
7.235700 11.526600
7.246100 11.666900
7.256500 11.979400
7.266800 12.035900
7.277200 11.772000
7.287500 11.529600
7.297900 10.930300
7.308300 10.642000
7.318600 10.593700
7.329000 10.730700
7.339300 10.707900
7.349700 10.384100
7.360100 10.006500
7.370400 9.703200
7.380800 9.768700
7.391100 9.831700
7.401500 10.047000
7.411900 10.433400
7.422200 10.588500
7.432600 10.625600
7.442900 10.685700
7.453300 10.773300
7.463700 10.919900
7.474000 10.944200
7.484400 10.661800
7.494700 8.962700
7.505100 9.009200
7.515500 8.662700
7.525800 8.220100
7.536200 7.868100
7.546500 7.705200
7.556900 7.652400
7.567300 7.431000
7.577600 7.245100
7.588000 7.092000
7.598400 7.062400
7.608700 7.108100
7.619100 7.199000
7.629400 7.304600
7.639800 7.418600
7.650200 7.496500
7.660500 7.553200
7.670900 7.253700
7.681200 7.618900
7.691600 9.429600
7.702000 15.241300
7.712300 16.435300
7.722700 10.597600
7.733000 7.905000
7.743400 7.643700
7.753800 7.413000
7.764100 7.237700
7.774500 7.085600
7.784800 6.955400
7.795200 6.846900
7.805600 6.759600
7.815900 6.693700
7.826300 6.461300
7.836600 6.135400
7.847000 5.822900
7.857400 5.243600
7.867700 4.352600
7.878100 4.255600
7.888400 4.250600
7.898800 4.467000
7.909200 4.774000
7.919500 5.105800
7.929900 5.451500
7.940200 5.902200
7.950600 6.680600
7.961000 6.759100
7.971300 7.303300
7.981700 7.855800
7.992000 9.373900
8.002400 9.510000
8.012800 9.727900
8.023100 9.562900
8.033500 7.741800
8.043800 7.230100
8.054200 6.794600
8.064600 6.442400
8.074900 6.173600
8.085300 6.006200
8.095600 6.036400
8.106000 6.400000
8.116400 6.550600
8.126700 5.971400
8.137100 5.771200
8.147400 5.758200
8.157800 5.969300
8.168200 6.119000
8.178500 6.189500
8.188900 6.183700
8.199200 6.095500
8.209600 5.932200
8.220000 6.513400
8.230300 6.650700
8.240700 6.357500
8.251000 5.898100
8.261400 5.331200
8.271800 4.002400
8.282100 3.484100
8.292500 3.416500
8.302800 5.375500
8.313200 4.660100
8.323600 4.757600
8.333900 4.387800
8.344300 3.758500
8.354600 2.952800
8.365000 2.653000
8.375400 2.405400
8.385700 2.210000
8.396100 1.967400
8.406400 1.649000
8.416800 1.362600
8.427200 1.108400
8.437500 0.886300
8.447900 0.696300
8.458200 0.538400
8.468600 0.412600
8.479000 0.315600
8.489300 0.232900
8.499700 0.162700
8.510000 0.105100
8.520400 0.060000
8.530800 0.027400
8.541100 0.007500
8.551500 0.000100
8.561800 0.000000
8.572200 0.000000
8.582600 0.000000
8.592900 0.000000
8.603300 0.000000
8.613600 0.000000
8.624000 0.000000
8.634400 0.000000
8.644700 0.000000
8.655100 0.000000
8.665500 0.000000
8.675800 0.000000
8.686200 0.000000
8.696500 0.000000
8.706900 0.000000
8.717300 0.000000
8.727600 0.000000
8.738000 0.000000
8.748300 0.000000
8.758700 0.000000
8.769100 0.000000
8.779400 0.000000
8.789800 0.000000
8.800100 0.000000
8.810500 0.000000
8.820900 0.000000
8.831200 0.000000
8.841600 0.000000
8.851900 0.000000
8.862300 0.000000
8.872700 0.000000
8.883000 0.000000
8.893400 0.000000
8.903700 0.000000
8.914100 0.000000
8.924500 0.000000
8.934800 0.000000
8.945200 0.000000
8.955500 0.000000
8.965900 0.000000
8.976300 0.000000
8.986600 0.000000
8.997000 0.000000
9.007300 0.000000
9.017700 0.000000
9.028100 0.000000
9.038400 0.000000
9.048800 0.000000
9.059100 0.000000
9.069500 0.000000
9.079900 0.000000
9.090200 0.000000
9.100600 0.000000
9.110900 0.000000
9.121300 0.000000
9.131700 0.000000
9.142000 0.000000
9.152400 0.000000
9.162700 0.000000
9.173100 0.000000
9.183500 0.000000
9.193800 0.000000
9.204200 0.000000
9.214500 0.000000
9.224900 0.000000
9.235300 0.000000
9.245600 0.000000
9.256000 0.000000
9.266300 0.000000
9.276700 0.000000
9.287100 0.000000
9.297400 0.000000
9.307800 0.000000
9.318100 0.000000
9.328500 0.000000
9.338900 0.000000
9.349200 0.000000
9.359600 0.000000
9.369900 0.000000
9.380300 0.000000
9.390700 0.000000
9.401000 0.000000
9.411400 0.000000
9.421700 0.000000
9.432100 0.000000
9.442500 0.000000
9.452800 0.000000
9.463200 0.000000
9.473500 0.000000
9.483900 0.000000
9.494300 0.000000
e
