set title 'mp-1227339 - Density of States'
set xlabel 'Energy (eV)'
set ylabel 'DOS (states/eV)'
set grid
set xrange [-10:10]
set yrange [0:2.510]
set xzeroaxis lt -1
set terminal png size 800,600
set output 'mp-1227339_dos_gnuplot.png'
plot '-' using 1:2 with lines title 'DOS'
-9.820500 0.000000
-9.793500 0.000000
-9.766600 0.000000
-9.739600 0.000000
-9.712600 0.000000
-9.685600 0.000000
-9.658600 0.000000
-9.631600 0.000000
-9.604600 0.000000
-9.577700 0.000000
-9.550700 0.000000
-9.523700 0.000000
-9.496700 0.000000
-9.469700 0.000000
-9.442700 0.000000
-9.415800 0.000000
-9.388800 0.000000
-9.361800 0.000000
-9.334800 0.000000
-9.307800 0.000000
-9.280800 0.000000
-9.253900 0.000000
-9.226900 0.000000
-9.199900 0.000000
-9.172900 0.000000
-9.145900 0.000000
-9.118900 0.000000
-9.092000 0.000000
-9.065000 0.000000
-9.038000 0.000000
-9.011000 0.000000
-8.984000 0.000000
-8.957000 0.000000
-8.930100 0.000000
-8.903100 0.000000
-8.876100 0.000000
-8.849100 0.000000
-8.822100 0.000000
-8.795100 0.000000
-8.768200 0.000000
-8.741200 0.000000
-8.714200 0.000000
-8.687200 0.000000
-8.660200 0.000000
-8.633200 0.000000
-8.606200 0.000000
-8.579300 0.000000
-8.552300 0.000000
-8.525300 0.000000
-8.498300 0.000000
-8.471300 0.000000
-8.444300 0.000000
-8.417400 0.000000
-8.390400 0.000000
-8.363400 0.000000
-8.336400 0.000000
-8.309400 0.000000
-8.282400 0.000000
-8.255500 0.000000
-8.228500 0.000000
-8.201500 0.000000
-8.174500 0.000000
-8.147500 0.000000
-8.120500 0.000000
-8.093600 0.000000
-8.066600 0.000000
-8.039600 0.000000
-8.012600 0.000000
-7.985600 0.000000
-7.958600 0.000000
-7.931700 0.000000
-7.904700 0.000000
-7.877700 0.000000
-7.850700 0.000000
-7.823700 0.000000
-7.796700 0.000000
-7.769700 0.000000
-7.742800 0.000000
-7.715800 0.000000
-7.688800 0.000000
-7.661800 0.000000
-7.634800 0.000000
-7.607800 0.000000
-7.580900 0.000000
-7.553900 0.000000
-7.526900 0.000000
-7.499900 0.000000
-7.472900 0.000000
-7.445900 0.000000
-7.419000 0.000000
-7.392000 0.000000
-7.365000 0.014000
-7.338000 0.105100
-7.311000 0.135200
-7.284000 0.172700
-7.257100 0.206900
-7.230100 0.227900
-7.203100 0.246500
-7.176100 0.264100
-7.149100 0.284500
-7.122100 0.306200
-7.095200 0.328600
-7.068200 0.343500
-7.041200 0.361100
-7.014200 0.375900
-6.987200 0.388500
-6.960200 0.401400
-6.933300 0.415800
-6.906300 0.431800
-6.879300 0.448400
-6.852300 0.465200
-6.825300 0.481400
-6.798300 0.494900
-6.771300 0.507800
-6.744400 0.519700
-6.717400 0.532100
-6.690400 0.545200
-6.663400 0.558300
-6.636400 0.571500
-6.609400 0.585400
-6.582500 0.599700
-6.555500 0.614400
-6.528500 0.629500
-6.501500 0.644900
-6.474500 0.658900
-6.447500 0.673200
-6.420600 0.686400
-6.393600 0.699500
-6.366600 0.713200
-6.339600 0.727600
-6.312600 0.742700
-6.285600 0.758100
-6.258700 0.773700
-6.231700 0.789700
-6.204700 0.806000
-6.177700 0.822700
-6.150700 0.840000
-6.123700 0.857700
-6.096800 0.875800
-6.069800 0.894400
-6.042800 0.913600
-6.015800 0.933800
-5.988800 0.955000
-5.961800 0.977000
-5.934800 1.000100
-5.907900 1.024400
-5.880900 1.050700
-5.853900 1.079000
-5.826900 1.109400
-5.799900 1.142500
-5.772900 1.179500
-5.746000 1.221000
-5.719000 1.267900
-5.692000 1.321000
-5.665000 1.395300
-5.638000 1.526200
-5.611000 1.675400
-5.584100 1.723900
-5.557100 1.756900
-5.530100 1.853500
-5.503100 1.810100
-5.476100 1.898600
-5.449100 1.850700
-5.422200 1.646100
-5.395200 1.574900
-5.368200 1.518500
-5.341200 1.486500
-5.314200 1.475600
-5.287200 1.461500
-5.260300 1.625200
-5.233300 1.871300
-5.206300 1.278900
-5.179300 1.145900
-5.152300 1.105100
-5.125300 1.181900
-5.098400 0.683300
-5.071400 0.493000
-5.044400 0.400800
-5.017400 0.436200
-4.990400 0.576600
-4.963400 0.947700
-4.936400 1.097800
-4.909500 0.983000
-4.882500 1.004100
-4.855500 1.047500
-4.828500 1.119500
-4.801500 1.222500
-4.774500 1.492800
-4.747600 1.631000
-4.720600 1.869900
-4.693600 1.941700
-4.666600 1.840200
-4.639600 1.666100
-4.612600 1.442900
-4.585700 1.395500
-4.558700 1.360300
-4.531700 1.332400
-4.504700 1.311300
-4.477700 1.296400
-4.450700 1.282200
-4.423800 1.266300
-4.396800 1.248400
-4.369800 1.227200
-4.342800 1.216000
-4.315800 1.207300
-4.288800 1.203100
-4.261900 1.203900
-4.234900 1.193200
-4.207900 1.177000
-4.180900 1.162700
-4.153900 1.146900
-4.126900 1.133200
-4.100000 1.129300
-4.073000 1.136300
-4.046000 1.145200
-4.019000 1.131200
-3.992000 1.146400
-3.965000 1.135600
-3.938000 1.095200
-3.911100 1.043500
-3.884100 0.958200
-3.857100 0.869200
-3.830100 0.814300
-3.803100 0.768400
-3.776100 0.740600
-3.749200 0.717200
-3.722200 0.694500
-3.695200 0.672300
-3.668200 0.650400
-3.641200 0.628600
-3.614200 0.605200
-3.587300 0.581000
-3.560300 0.558400
-3.533300 0.535100
-3.506300 0.510300
-3.479300 0.486900
-3.452300 0.467000
-3.425400 0.452900
-3.398400 0.440800
-3.371400 0.428800
-3.344400 0.417000
-3.317400 0.405300
-3.290400 0.393700
-3.263500 0.382100
-3.236500 0.370200
-3.209500 0.358000
-3.182500 0.345600
-3.155500 0.333300
-3.128500 0.320900
-3.101500 0.309000
-3.074600 0.296800
-3.047600 0.284700
-3.020600 0.273600
-2.993600 0.263700
-2.966600 0.255100
-2.939600 0.246500
-2.912700 0.238000
-2.885700 0.229500
-2.858700 0.221200
-2.831700 0.212900
-2.804700 0.204700
-2.777700 0.196500
-2.750800 0.188400
-2.723800 0.180300
-2.696800 0.172300
-2.669800 0.164300
-2.642800 0.156300
-2.615800 0.148200
-2.588900 0.140000
-2.561900 0.131700
-2.534900 0.123400
-2.507900 0.115400
-2.480900 0.107400
-2.453900 0.099600
-2.427000 0.092800
-2.400000 0.088400
-2.373000 0.079600
-2.346000 0.071500
-2.319000 0.062900
-2.292000 0.046800
-2.265100 0.031400
-2.238100 0.016600
-2.211100 0.002500
-2.184100 0.000000
-2.157100 0.000000
-2.130100 0.000000
-2.103100 0.000000
-2.076200 0.000000
-2.049200 0.000000
-2.022200 0.000000
-1.995200 0.000000
-1.968200 0.000000
-1.941200 0.000000
-1.914300 0.000000
-1.887300 0.000000
-1.860300 0.000000
-1.833300 0.000000
-1.806300 0.000000
-1.779300 0.000000
-1.752400 0.000000
-1.725400 0.000000
-1.698400 0.000000
-1.671400 0.000000
-1.644400 0.000000
-1.617400 0.000000
-1.590500 0.000000
-1.563500 0.000000
-1.536500 0.000000
-1.509500 0.000000
-1.482500 0.000000
-1.455500 0.000000
-1.428600 0.000000
-1.401600 0.000000
-1.374600 0.000000
-1.347600 0.000000
-1.320600 0.000000
-1.293600 0.000000
-1.266700 0.000000
-1.239700 0.000000
-1.212700 0.000000
-1.185700 0.000000
-1.158700 0.000000
-1.131700 0.000000
-1.104700 0.000000
-1.077800 0.000000
-1.050800 0.000000
-1.023800 0.000000
-0.996800 0.000000
-0.969800 0.000000
-0.942800 0.000000
-0.915900 0.000000
-0.888900 0.000000
-0.861900 0.000000
-0.834900 0.000000
-0.807900 0.000000
-0.780900 0.000000
-0.754000 0.000000
-0.727000 0.000000
-0.700000 0.000000
-0.673000 0.000000
-0.646000 0.000000
-0.619000 0.000000
-0.592100 0.000000
-0.565100 0.000000
-0.538100 0.000000
-0.511100 0.000000
-0.484100 0.000000
-0.457100 0.000000
-0.430200 0.000000
-0.403200 0.000000
-0.376200 0.000000
-0.349200 0.000000
-0.322200 0.000000
-0.295200 0.000000
-0.268200 0.000000
-0.241300 0.000000
-0.214300 0.000000
-0.187300 0.000000
-0.160300 0.000000
-0.133300 0.000000
-0.106300 0.000000
-0.079400 0.000000
-0.052400 0.000000
-0.025400 0.000000
0.001600 0.000000
0.028600 0.000000
0.055600 0.000000
0.082500 0.000000
0.109500 0.000000
0.136500 0.000000
0.163500 0.000000
0.190500 0.000000
0.217500 0.000000
0.244400 0.000000
0.271400 0.000000
0.298400 0.000000
0.325400 0.000000
0.352400 0.000000
0.379400 0.000000
0.406300 0.000000
0.433300 0.000000
0.460300 0.000000
0.487300 0.000000
0.514300 0.000000
0.541300 0.000000
0.568200 0.112900
0.595200 0.182600
0.622200 0.213300
0.649200 0.247700
0.676200 0.290700
0.703200 0.335300
0.730200 0.367900
0.757100 0.417900
0.784100 0.444200
0.811100 0.437900
0.838100 0.445800
0.865100 0.456500
0.892100 0.487300
0.919000 0.515000
0.946000 0.546400
0.973000 0.581000
1.000000 0.615400
1.027000 0.646400
1.054000 0.696800
1.080900 0.758100
1.107900 0.777800
1.134900 0.759300
1.161900 0.719800
1.188900 0.739100
1.215900 0.749400
1.242800 0.757300
1.269800 0.762900
1.296800 0.765700
1.323800 0.766200
1.350800 0.765600
1.377800 0.764000
1.404700 0.824600
1.431700 1.069600
1.458700 1.044200
1.485700 1.050900
1.512700 1.062300
1.539700 1.072900
1.566600 1.088900
1.593600 1.112800
1.620600 1.148000
1.647600 1.219200
1.674600 1.356700
1.701600 1.498700
1.728600 1.667400
1.755500 2.191200
1.782500 1.916100
1.809500 1.972600
1.836500 1.891400
1.863500 1.908300
1.890500 1.902800
1.917400 1.856000
1.944400 1.781100
1.971400 1.727700
1.998400 1.705200
2.025400 1.684300
2.052400 1.660200
2.079300 1.634800
2.106300 1.617500
2.133300 1.615300
2.160300 1.626900
2.187300 1.637700
2.214300 1.641300
2.241200 1.633900
2.268200 1.622700
2.295200 1.610200
2.322200 1.592500
2.349200 1.579800
2.376200 1.572000
2.403100 1.562200
2.430100 1.533100
2.457100 1.506000
2.484100 1.472400
2.511100 1.461400
2.538100 1.467000
2.565100 1.473400
2.592000 1.467900
2.619000 1.446100
2.646000 1.409000
2.673000 1.375800
2.700000 1.357200
2.727000 1.355600
2.753900 1.414800
2.780900 1.524300
2.807900 1.724000
2.834900 1.872000
2.861900 1.915300
2.888900 1.947300
2.915800 1.973500
2.942800 1.985600
2.969800 1.965300
2.996800 1.949100
3.023800 1.944600
3.050800 1.938600
3.077700 1.971700
3.104700 1.994200
3.131700 1.984300
3.158700 1.986300
3.185700 1.831500
3.212700 1.747300
3.239600 1.747900
3.266600 1.755900
3.293600 1.766200
3.320600 1.781000
3.347600 1.785900
3.374600 1.778900
3.401500 1.801300
3.428500 1.833200
3.455500 1.883700
3.482500 1.950400
3.509500 2.060300
3.536500 2.176300
3.563500 2.251500
3.590400 2.281400
3.617400 2.257300
3.644400 2.130700
3.671400 2.061400
3.698400 2.041800
3.725400 2.024900
3.752300 2.008700
3.779300 2.009900
3.806300 2.009000
3.833300 1.975900
3.860300 1.912200
3.887300 1.887100
3.914200 1.874600
3.941200 1.891000
3.968200 1.913600
3.995200 1.938400
4.022200 1.944400
4.049200 1.942400
4.076100 1.917600
4.103100 1.876600
4.130100 1.785100
4.157100 1.633600
4.184100 1.543200
4.211100 1.464400
4.238000 1.387000
4.265000 1.317800
4.292000 1.259200
4.319000 1.202900
4.346000 1.145600
4.373000 1.109900
4.399900 1.198600
4.426900 1.282300
4.453900 1.382100
4.480900 1.879200
4.507900 1.353300
4.534900 1.155400
4.561900 1.041000
4.588800 0.990700
4.615800 0.939300
4.642800 0.980900
4.669800 0.915500
4.696800 0.816900
4.723800 0.718700
4.750700 0.633900
4.777700 0.566300
4.804700 0.450900
4.831700 0.342400
4.858700 0.256300
4.885700 0.211600
4.912600 0.303800
4.939600 0.189200
4.966600 0.164900
4.993600 0.148200
5.020600 0.155600
5.047600 0.166100
5.074500 0.176500
5.101500 0.187500
5.128500 0.202400
5.155500 0.222000
5.182500 0.247000
5.209500 0.275700
5.236400 0.308500
5.263400 0.407600
5.290400 0.392600
5.317400 0.417500
5.344400 0.443500
5.371400 0.479900
5.398400 0.533800
5.425300 0.622400
5.452300 0.744500
5.479300 0.833900
5.506300 0.906400
5.533300 0.976100
5.560300 1.038800
5.587200 1.083000
5.614200 1.097300
5.641200 1.111400
5.668200 1.135300
5.695200 1.162200
5.722200 1.182700
5.749100 1.182000
5.776100 1.182400
5.803100 1.188900
5.830100 1.203100
5.857100 1.231800
5.884100 1.267300
5.911000 1.297300
5.938000 1.320100
5.965000 1.365200
5.992000 1.401600
6.019000 1.428800
6.046000 1.448100
6.072900 1.477500
6.099900 1.401800
6.126900 1.383600
6.153900 1.373700
6.180900 1.365500
6.207900 1.359100
6.234800 1.355800
6.261800 1.361000
6.288800 1.395800
6.315800 1.435400
6.342800 1.432200
6.369800 1.459300
6.396800 1.485200
6.423700 1.499800
6.450700 1.494100
6.477700 1.485600
6.504700 1.472900
6.531700 1.458400
6.558700 1.440600
6.585600 1.420700
6.612600 1.399100
6.639600 1.377000
6.666600 1.355300
6.693600 1.334100
6.720600 1.315400
6.747500 1.299200
6.774500 1.285200
6.801500 1.273000
6.828500 1.262500
6.855500 1.254500
6.882500 1.248100
6.909400 1.242700
6.936400 1.238000
6.963400 1.233800
6.990400 1.230600
7.017400 1.228200
7.044400 1.226700
7.071300 1.225500
7.098300 1.224500
7.125300 1.223700
7.152300 1.223000
7.179300 1.222200
7.206300 1.221300
7.233300 1.220600
7.260200 1.220100
7.287200 1.219400
7.314200 1.218800
7.341200 1.218700
7.368200 1.219100
7.395200 1.219500
7.422100 1.219900
7.449100 1.220500
7.476100 1.221800
7.503100 1.223400
7.530100 1.225400
7.557100 1.228300
7.584000 1.231800
7.611000 1.235800
7.638000 1.239500
7.665000 1.242100
7.692000 1.244200
7.719000 1.246500
7.745900 1.248200
7.772900 1.249200
7.799900 1.249700
7.826900 1.249800
7.853900 1.249900
7.880900 1.253600
7.907800 1.261000
7.934800 1.269300
7.961800 1.278700
7.988800 1.289200
8.015800 1.301400
8.042800 1.313800
8.069700 1.325700
8.096700 1.337000
8.123700 1.348100
8.150700 1.358700
8.177700 1.368300
8.204700 1.377200
8.231700 1.386500
8.258600 1.396300
8.285600 1.404700
8.312600 1.420600
8.339600 1.447700
8.366600 1.481600
8.393600 1.516600
8.420500 1.553800
8.447500 1.598400
8.474500 1.669200
8.501500 1.839700
8.528500 1.909800
8.555500 1.840100
8.582400 1.845500
8.609400 1.847100
8.636400 1.876100
8.663400 1.724500
8.690400 1.530400
8.717400 1.461200
8.744300 1.467400
8.771300 1.498900
8.798300 1.617000
8.825300 1.722500
8.852300 1.801200
8.879300 1.824800
8.906200 1.888700
8.933200 1.780200
8.960200 1.682700
8.987200 1.651900
9.014200 1.637300
9.041200 1.626100
9.068100 1.602300
9.095100 1.582300
9.122100 1.608900
9.149100 1.495000
9.176100 1.347600
9.203100 1.306400
9.230100 1.312100
9.257000 1.320100
9.284000 1.317400
9.311000 1.331100
9.338000 1.408900
9.365000 1.463800
9.392000 1.489300
9.418900 1.476800
9.445900 1.459100
9.472900 1.482000
9.499900 1.483900
9.526900 1.470300
9.553900 1.437700
9.580800 1.355700
9.607800 1.249900
9.634800 1.162400
9.661800 1.157300
9.688800 1.152500
9.715800 1.158200
9.742700 1.159700
9.769700 1.154300
9.796700 1.138600
9.823700 1.117400
9.850700 1.095800
9.877700 1.085300
9.904600 1.096400
9.931600 1.103200
9.958600 1.100100
9.985600 1.088000
10.012600 1.071200
10.039600 1.061500
10.066600 1.082900
10.093500 1.082900
10.120500 1.048400
10.147500 1.018600
10.174500 1.073200
10.201500 1.124300
10.228500 1.233800
10.255400 1.212300
10.282400 1.187100
10.309400 1.184400
10.336400 1.204800
10.363400 1.223000
10.390400 1.210800
10.417300 1.206100
10.444300 1.188300
10.471300 1.145300
10.498300 1.082700
10.525300 1.025400
10.552300 1.000000
10.579200 0.964200
10.606200 0.931600
10.633200 0.908100
10.660200 0.908400
10.687200 0.903100
10.714200 0.893400
10.741100 0.894300
10.768100 0.897800
10.795100 0.903700
10.822100 0.911800
10.849100 0.921300
10.876100 0.931500
10.903000 0.940700
10.930000 0.949000
10.957000 0.956600
10.984000 0.959400
11.011000 0.960500
11.038000 0.958300
11.065000 0.952900
11.091900 0.944200
11.118900 0.932600
11.145900 0.917600
11.172900 0.905100
11.199900 0.898900
11.226900 0.893500
11.253800 0.888700
11.280800 0.885100
11.307800 0.887800
11.334800 0.897700
11.361800 0.911500
11.388800 0.925200
11.415700 0.936300
11.442700 0.945500
11.469700 0.938400
11.496700 0.922000
11.523700 0.900600
11.550700 0.878800
11.577600 0.856500
11.604600 0.844900
11.631600 0.841400
11.658600 0.837200
11.685600 0.835900
11.712600 0.835600
11.739500 0.836300
11.766500 0.836800
11.793500 0.836500
11.820500 0.919900
11.847500 0.854100
11.874500 0.851500
11.901400 0.849000
11.928400 0.836900
11.955400 0.832100
11.982400 0.832200
12.009400 0.838000
12.036400 0.846900
12.063400 0.856700
12.090300 0.866800
12.117300 0.877000
12.144300 0.883800
12.171300 0.889300
12.198300 0.894500
12.225300 0.899900
12.252200 0.907500
12.279200 0.914800
12.306200 0.922800
12.333200 0.944300
12.360200 0.997700
12.387200 1.043400
12.414100 1.079300
12.441100 1.116300
12.468100 1.194600
12.495100 1.239500
12.522100 1.265900
12.549100 1.291800
12.576000 1.361000
12.603000 1.332300
12.630000 1.272600
12.657000 1.246700
12.684000 1.233400
12.711000 1.226400
12.737900 1.223600
12.764900 1.222900
12.791900 1.232700
12.818900 1.249200
12.845900 1.266100
12.872900 1.301200
12.899900 1.393700
12.926800 1.344900
12.953800 1.290500
12.980800 1.249000
13.007800 1.267800
13.034800 1.209000
13.061800 1.196200
13.088700 1.188800
13.115700 1.185500
13.142700 1.191200
13.169700 1.211200
13.196700 1.241500
13.223700 1.279200
13.250600 1.323800
13.277600 1.481700
13.304600 1.623400
13.331600 1.646100
13.358600 1.638400
13.385600 1.625300
13.412500 1.662600
13.439500 1.724900
13.466500 1.860100
13.493500 1.929700
13.520500 1.930100
13.547500 1.870500
13.574400 1.811000
13.601400 1.772200
13.628400 1.756200
13.655400 1.724100
13.682400 1.688700
13.709400 1.659800
13.736300 1.649500
13.763300 1.652700
13.790300 1.686300
13.817300 1.709800
13.844300 1.734200
13.871300 1.759700
13.898300 1.783300
13.925200 1.805900
13.952200 1.827700
13.979200 1.850500
14.006200 1.879400
14.033200 1.931400
14.060200 1.998400
14.087100 2.055400
14.114100 2.121200
14.141100 2.203500
14.168100 2.265400
14.195100 2.318500
14.222100 2.350200
14.249000 2.447600
14.276000 2.510000
14.303000 2.531100
14.330000 2.489300
14.357000 2.398400
14.384000 2.308900
14.410900 2.211300
14.437900 2.169500
14.464900 2.144000
14.491900 2.144200
14.518900 2.204900
14.545900 2.239300
14.572800 2.284200
14.599800 2.327500
14.626800 2.403000
14.653800 2.503300
14.680800 2.657000
14.707800 2.632300
14.734700 2.636900
14.761700 2.604800
14.788700 2.583300
14.815700 2.993800
14.842700 2.615000
14.869700 2.471200
14.896700 2.366200
14.923600 2.278200
14.950600 2.196100
14.977600 2.124800
15.004600 2.180100
15.031600 2.204800
15.058600 2.193100
15.085500 2.170900
15.112500 2.154900
15.139500 2.150100
15.166500 2.162500
15.193500 2.219600
15.220500 2.297300
15.247400 2.571600
15.274400 2.543900
15.301400 2.514100
15.328400 2.445700
15.355400 2.320200
15.382400 2.177100
15.409300 2.177100
15.436300 2.049700
15.463300 2.042000
15.490300 2.040200
15.517300 2.024000
15.544300 1.978200
15.571200 1.971600
15.598200 2.032500
15.625200 2.124100
15.652200 2.125100
15.679200 2.082000
15.706200 2.051600
15.733200 2.049100
15.760100 2.062300
15.787100 2.065200
15.814100 2.061200
15.841100 2.076800
15.868100 2.117300
15.895100 2.090300
15.922000 2.227600
15.949000 2.319000
15.976000 2.290300
16.003000 2.276100
16.030000 2.276500
16.057000 2.276100
16.083900 2.258200
16.110900 2.177200
16.137900 2.126200
16.164900 2.095300
16.191900 2.052800
16.218900 2.020200
16.245800 2.139400
16.272800 2.011200
16.299800 2.012400
16.326800 2.038700
16.353800 2.061300
16.380800 2.083200
16.407700 2.093100
16.434700 2.251200
16.461700 2.218600
16.488700 2.278600
16.515700 2.333700
16.542700 2.368900
16.569600 2.271400
16.596600 2.253100
16.623600 2.242400
16.650600 2.263000
16.677600 2.297400
16.704600 2.341400
16.731600 2.353500
16.758500 2.364000
16.785500 2.366300
16.812500 2.336600
16.839500 2.268400
16.866500 2.183200
16.893500 2.125500
16.920400 2.065600
16.947400 2.003000
16.974400 1.943100
17.001400 1.897400
17.028400 1.805800
17.055400 1.794600
17.082300 1.778800
17.109300 1.801100
17.136300 1.841900
17.163300 1.921400
17.190300 2.049400
17.217300 2.273100
17.244200 2.396600
17.271200 2.410500
17.298200 2.426900
17.325200 2.478300
17.352200 2.516200
17.379200 2.462900
17.406100 2.338500
17.433100 2.266900
17.460100 2.188100
17.487100 2.144800
17.514100 2.149700
17.541100 2.156000
17.568000 2.116100
17.595000 2.138500
17.622000 2.185600
17.649000 2.259900
17.676000 2.270300
17.703000 2.184200
17.730000 2.128700
17.756900 2.124500
17.783900 2.129400
17.810900 2.129100
17.837900 2.117100
17.864900 2.166000
17.891900 2.196100
17.918800 2.181200
17.945800 2.113500
17.972800 2.030500
17.999800 1.982700
18.026800 1.952700
18.053800 1.896700
18.080700 1.835000
18.107700 1.832800
18.134700 1.854800
18.161700 1.901600
18.188700 1.955700
18.215700 2.007100
18.242600 2.103100
18.269600 2.132000
18.296600 2.061600
18.323600 2.060800
18.350600 2.065500
18.377600 2.064400
18.404500 2.065200
18.431500 2.086900
18.458500 2.126600
18.485500 2.182600
18.512500 2.244800
18.539500 2.293900
18.566500 2.332100
18.593400 2.377600
18.620400 2.435500
18.647400 2.502000
18.674400 2.614000
18.701400 2.745300
18.728400 2.742300
18.755300 2.928000
18.782300 2.793000
18.809300 2.807900
18.836300 2.824400
18.863300 2.795100
18.890300 2.769700
18.917200 2.753700
18.944200 2.736900
18.971200 2.756000
18.998200 2.695700
19.025200 2.637300
19.052200 2.549100
19.079100 2.479300
19.106100 2.380900
19.133100 2.251000
19.160100 2.192900
19.187100 2.183800
19.214100 2.179700
19.241000 2.139900
19.268000 2.187700
19.295000 2.254600
19.322000 2.250700
19.349000 2.233900
19.376000 2.262100
19.402900 2.193000
19.429900 2.143800
19.456900 2.115600
19.483900 2.103200
19.510900 2.129500
19.537900 2.193600
19.564900 2.371600
19.591800 2.608200
19.618800 2.800700
19.645800 2.493500
19.672800 2.492600
19.699800 2.462100
19.726800 2.471700
19.753700 2.538000
19.780700 2.530600
19.807700 2.495200
19.834700 2.526800
19.861700 2.596400
19.888700 2.632600
19.915600 2.812800
19.942600 2.777000
19.969600 2.763800
19.996600 2.812200
20.023600 2.811200
20.050600 2.773900
20.077500 2.729700
20.104500 2.717700
20.131500 2.682400
20.158500 2.671700
20.185500 2.593600
20.212500 2.545400
20.239400 2.567800
20.266400 2.496600
20.293400 2.547300
20.320400 2.567600
20.347400 2.572900
20.374400 2.605100
20.401300 2.611900
20.428300 2.628100
20.455300 2.733300
20.482300 2.774200
20.509300 2.791100
20.536300 2.743900
20.563300 2.700600
20.590200 2.636800
20.617200 2.588800
20.644200 2.625100
20.671200 2.619500
20.698200 2.664500
20.725200 2.701400
20.752100 2.802700
20.779100 2.761000
20.806100 2.661600
20.833100 2.592000
20.860100 2.540600
20.887100 2.514300
20.914000 2.499100
20.941000 2.490400
20.968000 2.483200
20.995000 2.485400
21.022000 2.536600
21.049000 2.618900
21.075900 2.634100
21.102900 2.779600
21.129900 2.713600
21.156900 2.711200
21.183900 2.727100
21.210900 2.746500
21.237800 2.773300
21.264800 2.799400
21.291800 2.809000
21.318800 2.839200
21.345800 2.885900
21.372800 2.876000
21.399800 2.859900
21.426700 2.794200
21.453700 2.759800
21.480700 2.776400
21.507700 2.838700
21.534700 2.795800
21.561700 2.770700
21.588600 2.749200
21.615600 2.759900
21.642600 2.769800
21.669600 2.785600
21.696600 2.838400
21.723600 2.865100
21.750500 2.846100
21.777500 2.799900
21.804500 2.781700
21.831500 2.774500
21.858500 2.771100
21.885500 2.811900
21.912400 2.809100
21.939400 2.786700
21.966400 2.811200
21.993400 2.886300
22.020400 2.968000
22.047400 2.910300
22.074300 2.751400
22.101300 2.728100
22.128300 2.717700
22.155300 2.713300
22.182300 2.722100
22.209300 2.717700
22.236200 2.706000
22.263200 2.675100
22.290200 2.663800
22.317200 2.682600
22.344200 2.687600
22.371200 2.699900
22.398200 2.718700
22.425100 2.742000
22.452100 2.770000
22.479100 2.789600
22.506100 2.854800
22.533100 2.841200
22.560100 2.661500
22.587000 2.642700
22.614000 2.663600
22.641000 2.690100
22.668000 2.713700
22.695000 2.746500
22.722000 2.834600
22.748900 2.974900
22.775900 3.033600
22.802900 3.005300
22.829900 2.908200
22.856900 2.827500
22.883900 2.786800
22.910800 2.755300
22.937800 2.741300
22.964800 2.822200
22.991800 2.804900
23.018800 2.831800
23.045800 2.894800
23.072700 2.862300
23.099700 2.863600
23.126700 2.904600
23.153700 2.872000
23.180700 2.818100
23.207700 2.784500
23.234700 2.782900
23.261600 2.932900
23.288600 3.006800
23.315600 3.016600
23.342600 3.024600
23.369600 2.978000
23.396600 2.952600
23.423500 2.952100
23.450500 2.952300
23.477500 2.943000
23.504500 2.942700
23.531500 2.955900
23.558500 2.984600
23.585400 3.021200
23.612400 3.104200
23.639400 3.121200
23.666400 3.094300
23.693400 3.092100
23.720400 3.075000
23.747300 3.070200
23.774300 3.057100
23.801300 3.036700
23.828300 3.047500
23.855300 3.061600
23.882300 3.081800
23.909200 3.102700
23.936200 3.112600
23.963200 3.119200
23.990200 3.135500
24.017200 3.119500
24.044200 3.105100
24.071100 3.103400
24.098100 3.110500
24.125100 3.094400
24.152100 3.048700
24.179100 2.997700
24.206100 2.926000
24.233100 2.826400
24.260000 2.737700
24.287000 2.659000
24.314000 2.606700
24.341000 2.549100
24.368000 2.532900
24.395000 2.532300
24.421900 2.532400
24.448900 2.559200
24.475900 2.634700
24.502900 2.724400
24.529900 2.799400
24.556900 3.044800
24.583800 2.862100
24.610800 2.859000
24.637800 2.868700
24.664800 2.888800
24.691800 2.902900
24.718800 2.912100
24.745700 2.927600
24.772700 2.946500
24.799700 2.960500
24.826700 2.988000
24.853700 3.034500
24.880700 3.079900
24.907600 3.079500
24.934600 3.068500
24.961600 3.043500
24.988600 3.043100
25.015600 3.062300
25.042600 3.147400
25.069500 3.210000
25.096500 3.167800
25.123500 3.172400
25.150500 3.192400
25.177500 3.303500
25.204500 3.252100
25.231500 3.139300
25.258400 3.119900
25.285400 3.139700
25.312400 3.195000
25.339400 3.296600
25.366400 3.343500
25.393400 3.317400
25.420300 3.283300
25.447300 3.270200
25.474300 3.262100
25.501300 3.260200
25.528300 3.250400
25.555300 3.227100
25.582200 3.186100
25.609200 3.154700
25.636200 3.185300
25.663200 3.222100
25.690200 3.203900
25.717200 3.165300
25.744100 3.165000
25.771100 3.072400
25.798100 3.091600
25.825100 3.142500
25.852100 3.157400
25.879100 3.103300
25.906000 3.085900
25.933000 3.105600
25.960000 3.126500
25.987000 3.157000
26.014000 3.184700
26.041000 3.096900
26.068000 3.099100
26.094900 3.131500
26.121900 3.141000
26.148900 3.151500
26.175900 3.162700
26.202900 3.175500
26.229900 3.195700
26.256800 3.234500
26.283800 3.264900
26.310800 3.224800
26.337800 3.207300
26.364800 3.271000
26.391800 3.209700
26.418700 3.302100
26.445700 3.236400
26.472700 3.345200
26.499700 3.285800
26.526700 3.227600
26.553700 3.178600
26.580600 3.209400
26.607600 3.213800
26.634600 3.241600
26.661600 3.300700
26.688600 3.376000
26.715600 3.453800
26.742500 3.502400
26.769500 3.504300
26.796500 3.469900
26.823500 3.492100
26.850500 3.527000
26.877500 3.588500
26.904400 3.686100
26.931400 3.765500
26.958400 3.558400
26.985400 3.363600
27.012400 3.279100
27.039400 3.253400
27.066400 3.284500
27.093300 3.323100
27.120300 3.358400
27.147300 3.361000
27.174300 3.405000
27.201300 3.466500
27.228300 3.596800
27.255200 3.618500
27.282200 3.793300
27.309200 3.660400
27.336200 3.552100
27.363200 3.460800
27.390200 3.375100
27.417100 3.365500
27.444100 3.281700
27.471100 3.090800
27.498100 2.919800
27.525100 2.836800
27.552100 2.866500
27.579000 2.771600
27.606000 2.717500
27.633000 2.728100
27.660000 2.908600
27.687000 2.948000
27.714000 2.721600
27.740900 2.612200
27.767900 2.533900
27.794900 2.470000
27.821900 2.427300
27.848900 2.414800
27.875900 2.501000
27.902800 2.640200
27.929800 2.709300
27.956800 2.832500
27.983800 3.023200
28.010800 3.187300
28.037800 3.305600
28.064800 3.178900
28.091700 3.042700
28.118700 2.996600
28.145700 2.996500
28.172700 3.001200
28.199700 3.030600
28.226700 3.137600
28.253600 3.571200
28.280600 3.319100
28.307600 3.311800
28.334600 3.421600
28.361600 3.572700
28.388600 3.576200
28.415500 3.451000
28.442500 3.323000
28.469500 3.224900
28.496500 3.247500
28.523500 3.381800
28.550500 3.392100
28.577400 3.421300
28.604400 3.437400
28.631400 3.551100
28.658400 3.385000
28.685400 3.390000
28.712400 3.409900
28.739300 3.450700
28.766300 3.494800
28.793300 3.528600
28.820300 3.567900
28.847300 3.613000
28.874300 3.666300
28.901300 3.727500
28.928200 3.753200
28.955200 3.778200
28.982200 3.903100
29.009200 3.945800
29.036200 3.815400
29.063200 3.716900
29.090100 3.642000
29.117100 3.579700
29.144100 3.583200
29.171100 3.488500
29.198100 3.399500
29.225100 3.316800
29.252000 3.313600
29.279000 3.238600
29.306000 3.216000
29.333000 3.306800
29.360000 3.161700
29.387000 3.142900
29.413900 3.124000
29.440900 3.100500
29.467900 3.051800
29.494900 3.017500
29.521900 2.990900
29.548900 2.989200
29.575800 2.940400
29.602800 2.863100
29.629800 2.915100
29.656800 3.026400
29.683800 3.125600
29.710800 3.183800
29.737700 3.258900
29.764700 3.315700
29.791700 3.213300
29.818700 3.265700
29.845700 3.291500
29.872700 3.238900
29.899700 3.132700
29.926600 3.118400
29.953600 3.174200
29.980600 3.222000
30.007600 3.301900
30.034600 3.725800
30.061600 3.732800
30.088500 3.649100
30.115500 3.557700
30.142500 3.558600
30.169500 3.724400
30.196500 3.791200
30.223500 3.802800
30.250400 3.734900
30.277400 3.673300
30.304400 3.649900
30.331400 3.695800
30.358400 3.860700
30.385400 3.900400
30.412300 3.803700
30.439300 3.785300
30.466300 3.740500
30.493300 4.300800
30.520300 4.101000
30.547300 3.980800
30.574200 3.854000
30.601200 3.744100
30.628200 3.628400
30.655200 3.552300
30.682200 3.406000
30.709200 3.323400
30.736100 3.274800
30.763100 3.216800
30.790100 3.216100
30.817100 3.232600
30.844100 3.329100
30.871100 3.398900
30.898100 3.325800
30.925000 3.174100
30.952000 3.120900
30.979000 3.130500
31.006000 3.160700
31.033000 3.189400
31.060000 3.200600
31.086900 3.198600
31.113900 3.247400
31.140900 3.303100
31.167900 3.342500
31.194900 3.336200
31.221900 3.270000
31.248800 3.229700
31.275800 3.202700
31.302800 3.214300
31.329800 3.272800
31.356800 3.243100
31.383800 3.206100
31.410700 3.171000
31.437700 3.137400
31.464700 3.118100
31.491700 3.111400
31.518700 3.071600
31.545700 3.058500
31.572600 3.050300
31.599600 3.055100
31.626600 3.103500
31.653600 3.178600
31.680600 3.245900
31.707600 3.299300
31.734600 3.311100
31.761500 3.317600
31.788500 3.250300
31.815500 3.142400
31.842500 3.088600
31.869500 3.050700
31.896500 3.036600
31.923400 3.082900
31.950400 3.140400
31.977400 3.228200
32.004400 3.332200
32.031400 3.413600
32.058400 3.456500
32.085300 3.506000
32.112300 3.561600
32.139300 3.665800
32.166300 3.710800
32.193300 3.723900
32.220300 3.703000
32.247200 3.666500
32.274200 3.673300
32.301200 3.756400
32.328200 4.080300
32.355200 3.864800
32.382200 3.880200
32.409100 3.723800
32.436100 3.636300
32.463100 3.559800
32.490100 3.555000
32.517100 3.638900
32.544100 3.698900
32.571000 3.691800
32.598000 3.759600
32.625000 3.814800
32.652000 3.824100
32.679000 3.807200
32.706000 3.815800
32.733000 3.793800
32.759900 3.798500
32.786900 3.812800
32.813900 3.840300
32.840900 3.878300
32.867900 3.988700
32.894900 4.061800
32.921800 4.028600
32.948800 3.968100
32.975800 3.850300
33.002800 3.573700
33.029800 3.556900
33.056800 3.489600
33.083700 3.475700
33.110700 3.488600
33.137700 3.486200
33.164700 3.471100
33.191700 3.483900
33.218700 3.482700
33.245600 3.446900
33.272600 3.384100
33.299600 3.329300
33.326600 3.303700
33.353600 3.305400
33.380600 3.267300
33.407500 3.222500
33.434500 3.203200
33.461500 3.148200
33.488500 2.949700
33.515500 2.877800
33.542500 2.838200
33.569400 2.784100
33.596400 2.761900
33.623400 2.815500
33.650400 2.899300
33.677400 3.022700
33.704400 3.130800
33.731400 3.158900
33.758300 3.145800
33.785300 3.094900
33.812300 3.033200
33.839300 3.016900
33.866300 3.018900
33.893300 3.159400
33.920200 3.391600
33.947200 3.246000
33.974200 3.080500
34.001200 3.056100
34.028200 3.059500
34.055200 3.011700
34.082100 2.966300
34.109100 2.902400
34.136100 2.816300
34.163100 2.787400
34.190100 2.778600
34.217100 2.796900
34.244000 2.813500
34.271000 2.849300
34.298000 2.914600
34.325000 3.030700
34.352000 3.078200
34.379000 3.089800
34.405900 3.092300
34.432900 3.049300
34.459900 3.164400
34.486900 2.962700
34.513900 2.875600
34.540900 2.794900
34.567900 2.761200
34.594800 2.760800
34.621800 2.769900
34.648800 2.784300
34.675800 2.812200
34.702800 2.860300
34.729800 2.907200
34.756700 2.947400
34.783700 2.992500
34.810700 3.049100
34.837700 3.248400
34.864700 3.298400
34.891700 3.150300
34.918600 3.170700
34.945600 3.209400
34.972600 3.180400
34.999600 3.201700
35.026600 3.162000
35.053600 3.233200
35.080500 3.151200
35.107500 2.933200
35.134500 2.887000
35.161500 2.895300
35.188500 3.061700
35.215500 3.063300
35.242400 3.002600
35.269400 2.978400
35.296400 2.989400
35.323400 3.020200
35.350400 3.007000
35.377400 3.052400
35.404300 3.037200
35.431300 3.113300
35.458300 3.248800
35.485300 3.329900
35.512300 3.401600
35.539300 3.469700
35.566300 3.461300
35.593200 3.417200
35.620200 3.365100
35.647200 3.326200
35.674200 3.380200
35.701200 3.476100
35.728200 3.548800
35.755100 3.621500
35.782100 3.762100
35.809100 3.477200
35.836100 3.483200
35.863100 3.452600
35.890100 3.403100
35.917000 3.431200
35.944000 3.252300
35.971000 3.231800
35.998000 3.241600
36.025000 3.255100
36.052000 3.282100
36.078900 3.356000
36.105900 3.385800
36.132900 3.374200
36.159900 3.399800
36.186900 3.427400
36.213900 3.448000
36.240800 3.578600
36.267800 3.552500
36.294800 3.436900
36.321800 3.365200
36.348800 3.327100
36.375800 3.310000
36.402800 3.309700
36.429700 3.284000
36.456700 3.251000
36.483700 3.244600
36.510700 3.273700
36.537700 3.298000
36.564700 3.322600
36.591600 3.319800
36.618600 3.360900
36.645600 3.319100
36.672600 3.289900
36.699600 3.248400
36.726600 3.019400
36.753500 2.947300
36.780500 2.877600
36.807500 2.843600
36.834500 2.869900
36.861500 3.045800
36.888500 2.968400
36.915400 3.050400
36.942400 2.972300
36.969400 3.005900
36.996400 3.101600
37.023400 3.259800
37.050400 3.454500
37.077300 3.572600
37.104300 3.509100
37.131300 3.479700
37.158300 3.430600
37.185300 3.390300
37.212300 3.320500
37.239200 3.338300
37.266200 3.385100
37.293200 3.448600
37.320200 3.461600
37.347200 3.436300
37.374200 3.409200
37.401200 3.393300
37.428100 3.430600
37.455100 3.446000
37.482100 3.483800
37.509100 3.630900
37.536100 3.767400
37.563100 3.724800
37.590000 3.623200
37.617000 3.587200
37.644000 3.611100
37.671000 3.350600
37.698000 3.418100
37.725000 3.500300
37.751900 3.776400
37.778900 3.610900
37.805900 3.569400
37.832900 3.536100
37.859900 3.478700
37.886900 3.424600
37.913800 3.373800
37.940800 3.330400
37.967800 3.450000
37.994800 3.733500
38.021800 3.906700
38.048800 3.972200
38.075700 3.856800
38.102700 3.644800
38.129700 3.463700
38.156700 3.348300
38.183700 3.275700
38.210700 3.256800
38.237600 3.253100
38.264600 3.275000
38.291600 3.334000
38.318600 3.326000
38.345600 3.312100
38.372600 3.177300
38.399600 3.122600
38.426500 3.130600
38.453500 3.241200
38.480500 3.691800
38.507500 3.321600
38.534500 3.213900
38.561500 3.152600
38.588400 3.098000
38.615400 3.046800
38.642400 3.095400
38.669400 3.142300
38.696400 3.162000
38.723400 3.214000
38.750300 3.341600
38.777300 3.526200
38.804300 3.672600
38.831300 3.709500
38.858300 3.783600
38.885300 3.779100
38.912200 3.683600
38.939200 3.349800
38.966200 3.118900
38.993200 2.936700
39.020200 2.730900
39.047200 2.495100
39.074100 2.312200
39.101100 2.176300
39.128100 2.038000
39.155100 1.944700
39.182100 1.862700
39.209100 1.789200
39.236100 1.698600
39.263000 1.742500
39.290000 1.468400
39.317000 1.347400
39.344000 1.215900
39.371000 1.105200
39.398000 1.009500
39.424900 0.922600
39.451900 0.861900
39.478900 0.816200
39.505900 0.754900
39.532900 0.686200
39.559900 0.627600
39.586800 0.579400
39.613800 0.542400
39.640800 0.516800
39.667800 0.461200
39.694800 0.388500
39.721800 0.346300
39.748700 0.330900
39.775700 0.322900
39.802700 0.312600
39.829700 0.301100
39.856700 0.300100
39.883700 0.293500
39.910600 0.281000
39.937600 0.262700
39.964600 0.238500
39.991600 0.208300
40.018600 0.192600
40.045600 0.180600
40.072500 0.169500
40.099500 0.159300
40.126500 0.148900
40.153500 0.138200
40.180500 0.127100
40.207500 0.115600
40.234500 0.105600
40.261400 0.100400
40.288400 0.096000
40.315400 0.092300
40.342400 0.088900
40.369400 0.085900
40.396400 0.083100
40.423300 0.080200
40.450300 0.077300
40.477300 0.074300
40.504300 0.071600
40.531300 0.068900
40.558300 0.070100
40.585200 0.070400
40.612200 0.068400
40.639200 0.066500
40.666200 0.064700
40.693200 0.062800
40.720200 0.061000
40.747100 0.059100
40.774100 0.057300
40.801100 0.055600
40.828100 0.053800
40.855100 0.052000
40.882100 0.050300
40.909000 0.048600
40.936000 0.046900
40.963000 0.045300
40.990000 0.043600
41.017000 0.042000
41.044000 0.040400
41.070900 0.038800
41.097900 0.037200
41.124900 0.035600
41.151900 0.035000
41.178900 0.039100
41.205900 0.040600
41.232900 0.039400
41.259800 0.035400
41.286800 0.028700
41.313800 0.019300
41.340800 0.018200
41.367800 0.017100
41.394800 0.016000
41.421700 0.014700
41.448700 0.013500
41.475700 0.012200
41.502700 0.010800
41.529700 0.009400
41.556700 0.008000
41.583600 0.006500
41.610600 0.005000
41.637600 0.003400
41.664600 0.001800
41.691600 0.000200
41.718600 0.000000
41.745500 0.000000
41.772500 0.000000
41.799500 0.000000
41.826500 0.000000
41.853500 0.000000
41.880500 0.000000
41.907400 0.000000
41.934400 0.000000
41.961400 0.000000
41.988400 0.000000
42.015400 0.000000
42.042400 0.000000
42.069400 0.000000
42.096300 0.000000
42.123300 0.000000
42.150300 0.000000
42.177300 0.000000
42.204300 0.000000
42.231300 0.000000
42.258200 0.000000
42.285200 0.000000
42.312200 0.000000
42.339200 0.000000
42.366200 0.000000
42.393200 0.000000
42.420100 0.000000
42.447100 0.000000
42.474100 0.000000
42.501100 0.000000
42.528100 0.000000
42.555100 0.000000
42.582000 0.000000
42.609000 0.000000
42.636000 0.000000
42.663000 0.000000
42.690000 0.000000
42.717000 0.000000
42.743900 0.000000
42.770900 0.000000
42.797900 0.000000
42.824900 0.000000
42.851900 0.000000
42.878900 0.000000
42.905800 0.000000
42.932800 0.000000
42.959800 0.000000
42.986800 0.000000
43.013800 0.000000
43.040800 0.000000
43.067800 0.000000
43.094700 0.000000
43.121700 0.000000
43.148700 0.000000
43.175700 0.000000
43.202700 0.000000
43.229700 0.000000
43.256600 0.000000
43.283600 0.000000
43.310600 0.000000
43.337600 0.000000
43.364600 0.000000
43.391600 0.000000
43.418500 0.000000
43.445500 0.000000
43.472500 0.000000
43.499500 0.000000
43.526500 0.000000
43.553500 0.000000
43.580400 0.000000
43.607400 0.000000
43.634400 0.000000
43.661400 0.000000
43.688400 0.000000
43.715400 0.000000
43.742300 0.000000
43.769300 0.000000
43.796300 0.000000
43.823300 0.000000
43.850300 0.000000
43.877300 0.000000
43.904200 0.000000
43.931200 0.000000
43.958200 0.000000
43.985200 0.000000
44.012200 0.000000
44.039200 0.000000
44.066200 0.000000
44.093100 0.000000
44.120100 0.000000
44.147100 0.000000
e
