set title 'mp-1219462 - Density of States'
set xlabel 'Energy (eV)'
set ylabel 'DOS (states/eV)'
set grid
set xrange [-10:10]
set yrange [0:6.424]
set xzeroaxis lt -1
set terminal png size 800,600
set output 'mp-1219462_dos_gnuplot.png'
plot '-' using 1:2 with lines title 'DOS'
-8.576500 0.000000
-8.555500 0.000000
-8.534600 0.000000
-8.513600 0.000000
-8.492600 0.000000
-8.471700 0.000000
-8.450700 0.000000
-8.429700 0.000000
-8.408800 0.000000
-8.387800 0.000000
-8.366800 0.000000
-8.345900 0.000000
-8.324900 0.000000
-8.303900 0.000000
-8.283000 0.000000
-8.262000 0.000000
-8.241000 0.000000
-8.220100 0.000000
-8.199100 0.000000
-8.178100 0.000000
-8.157200 0.000000
-8.136200 0.000000
-8.115200 0.000000
-8.094300 0.000000
-8.073300 0.000000
-8.052300 0.000000
-8.031400 0.000000
-8.010400 0.000000
-7.989400 0.000000
-7.968500 0.000000
-7.947500 0.000000
-7.926500 0.000000
-7.905600 0.000000
-7.884600 0.000000
-7.863600 0.000000
-7.842700 0.000000
-7.821700 0.000000
-7.800700 0.000000
-7.779800 0.000000
-7.758800 0.000000
-7.737800 0.000000
-7.716900 0.000000
-7.695900 0.000000
-7.674900 0.000000
-7.654000 0.000000
-7.633000 0.000000
-7.612000 0.000000
-7.591100 0.000000
-7.570100 0.000000
-7.549100 0.000000
-7.528200 0.000000
-7.507200 0.000000
-7.486200 0.000000
-7.465300 0.000000
-7.444300 0.000000
-7.423300 0.000000
-7.402400 0.000000
-7.381400 0.000000
-7.360500 0.000000
-7.339500 0.000000
-7.318500 0.000000
-7.297600 0.000000
-7.276600 0.000000
-7.255600 0.000000
-7.234700 0.000000
-7.213700 0.000000
-7.192700 0.000000
-7.171800 0.000000
-7.150800 0.000000
-7.129800 0.000000
-7.108900 0.000000
-7.087900 0.000000
-7.066900 0.000000
-7.046000 0.000000
-7.025000 0.000000
-7.004000 0.000000
-6.983100 0.000000
-6.962100 0.000000
-6.941100 0.000000
-6.920200 0.000000
-6.899200 0.000000
-6.878200 0.000000
-6.857300 0.000000
-6.836300 0.000000
-6.815300 0.000000
-6.794400 0.000000
-6.773400 0.000000
-6.752400 0.000000
-6.731500 0.000000
-6.710500 0.000000
-6.689500 0.000000
-6.668600 0.000200
-6.647600 0.026900
-6.626600 0.098800
-6.605700 0.206800
-6.584700 0.249300
-6.563700 0.258100
-6.542800 0.276100
-6.521800 0.311600
-6.500800 0.348500
-6.479900 0.386700
-6.458900 0.421900
-6.437900 0.444600
-6.417000 0.454600
-6.396000 0.467000
-6.375000 0.483700
-6.354100 0.504300
-6.333100 0.525900
-6.312100 0.547500
-6.291200 0.569000
-6.270200 0.590900
-6.249200 0.614300
-6.228300 0.638700
-6.207300 0.659900
-6.186300 0.672600
-6.165400 0.685500
-6.144400 0.702200
-6.123400 0.718500
-6.102500 0.734300
-6.081500 0.749800
-6.060500 0.765600
-6.039600 0.783200
-6.018600 0.802700
-5.997700 0.822600
-5.976700 0.843000
-5.955700 0.863700
-5.934800 0.884900
-5.913800 0.934900
-5.892800 1.018900
-5.871900 1.093400
-5.850900 1.025100
-5.829900 1.035500
-5.809000 1.047600
-5.788000 1.060600
-5.767000 1.073600
-5.746100 1.080600
-5.725100 1.079500
-5.704100 1.080800
-5.683200 1.089500
-5.662200 1.100000
-5.641200 1.110800
-5.620300 1.121700
-5.599300 1.132800
-5.578300 1.143900
-5.557400 1.155000
-5.536400 1.161000
-5.515400 1.172600
-5.494500 1.202500
-5.473500 1.301600
-5.452500 1.407100
-5.431600 1.374000
-5.410600 1.410400
-5.389600 1.448400
-5.368700 1.490600
-5.347700 1.535500
-5.326700 1.576400
-5.305800 1.613700
-5.284800 1.656900
-5.263800 1.710600
-5.242900 1.769300
-5.221900 1.871100
-5.200900 1.998300
-5.180000 2.088400
-5.159000 2.139400
-5.138000 2.176600
-5.117100 2.204000
-5.096100 2.220200
-5.075100 2.249000
-5.054200 2.579000
-5.033200 2.465600
-5.012200 2.468900
-4.991300 2.540700
-4.970300 2.580900
-4.949300 2.388500
-4.928400 2.062900
-4.907400 1.935700
-4.886400 1.889500
-4.865500 1.832000
-4.844500 1.716500
-4.823500 1.636700
-4.802600 1.611900
-4.781600 1.813700
-4.760600 1.554900
-4.739700 1.471200
-4.718700 1.422800
-4.697800 1.410600
-4.676800 1.494200
-4.655800 1.378900
-4.634900 1.538100
-4.613900 1.703200
-4.592900 1.962500
-4.572000 2.524500
-4.551000 3.174800
-4.530000 5.840200
-4.509100 5.644000
-4.488100 5.117600
-4.467100 4.063600
-4.446200 3.497000
-4.425200 3.033500
-4.404200 2.705500
-4.383300 2.319700
-4.362300 2.143800
-4.341300 2.011500
-4.320400 1.905900
-4.299400 1.811800
-4.278400 1.725800
-4.257500 1.688100
-4.236500 1.589000
-4.215500 1.489100
-4.194600 1.391400
-4.173600 1.307900
-4.152600 1.237700
-4.131700 1.176600
-4.110700 1.124900
-4.089700 1.079700
-4.068800 1.040900
-4.047800 1.051500
-4.026800 1.171100
-4.005900 1.165100
-3.984900 1.094200
-3.963900 0.945600
-3.943000 0.814300
-3.922000 0.695100
-3.901000 0.575400
-3.880100 0.445100
-3.859100 0.298200
-3.838100 0.071800
-3.817200 0.000000
-3.796200 0.000000
-3.775200 0.000000
-3.754300 0.000000
-3.733300 0.000000
-3.712300 0.000000
-3.691400 0.000000
-3.670400 0.000000
-3.649400 0.000000
-3.628500 0.000000
-3.607500 0.000000
-3.586500 0.000000
-3.565600 0.000000
-3.544600 0.000000
-3.523600 0.000000
-3.502700 0.000000
-3.481700 0.000000
-3.460700 0.000000
-3.439800 0.000000
-3.418800 0.000000
-3.397900 0.000000
-3.376900 0.000000
-3.355900 0.000000
-3.335000 0.000000
-3.314000 0.000000
-3.293000 0.000000
-3.272100 0.000000
-3.251100 0.000000
-3.230100 0.000000
-3.209200 0.000000
-3.188200 0.000000
-3.167200 0.000000
-3.146300 0.000000
-3.125300 0.000000
-3.104300 0.000000
-3.083400 0.000000
-3.062400 0.000000
-3.041400 0.000000
-3.020500 0.000000
-2.999500 0.000000
-2.978500 0.313200
-2.957600 0.455400
-2.936600 0.586900
-2.915600 0.846500
-2.894700 1.041500
-2.873700 1.263500
-2.852700 1.494300
-2.831800 2.168700
-2.810800 2.242200
-2.789800 2.129100
-2.768900 2.058500
-2.747900 1.990600
-2.726900 1.926100
-2.706000 1.908400
-2.685000 1.878100
-2.664000 1.832100
-2.643100 1.800300
-2.622100 1.783000
-2.601100 1.760000
-2.580200 1.732000
-2.559200 1.707400
-2.538200 1.703100
-2.517300 1.717500
-2.496300 1.736400
-2.475300 1.713300
-2.454400 1.676300
-2.433400 1.628200
-2.412400 1.559900
-2.391500 1.492400
-2.370500 1.396600
-2.349500 1.298800
-2.328600 1.254600
-2.307600 1.222800
-2.286600 1.196400
-2.265700 1.175500
-2.244700 1.175900
-2.223700 1.171100
-2.202800 1.155500
-2.181800 1.137600
-2.160800 1.119800
-2.139900 1.103000
-2.118900 1.086400
-2.097900 1.062200
-2.077000 1.047500
-2.056000 1.054800
-2.035100 1.066700
-2.014100 1.058600
-1.993100 1.043300
-1.972200 1.036900
-1.951200 1.085700
-1.930200 1.130000
-1.909300 1.067700
-1.888300 1.018800
-1.867300 0.970700
-1.846400 0.922400
-1.825400 0.876200
-1.804400 0.832400
-1.783500 0.788300
-1.762500 0.739900
-1.741500 0.694800
-1.720600 0.648800
-1.699600 0.610500
-1.678600 0.592500
-1.657700 0.574800
-1.636700 0.556700
-1.615700 0.538100
-1.594800 0.519800
-1.573800 0.501800
-1.552800 0.484100
-1.531900 0.466700
-1.510900 0.448700
-1.489900 0.430600
-1.469000 0.414000
-1.448000 0.400100
-1.427000 0.389600
-1.406100 0.379000
-1.385100 0.368300
-1.364100 0.357600
-1.343200 0.346800
-1.322200 0.336100
-1.301200 0.325600
-1.280300 0.314900
-1.259300 0.304000
-1.238300 0.293300
-1.217400 0.282800
-1.196400 0.272500
-1.175400 0.262700
-1.154500 0.254100
-1.133500 0.246700
-1.112500 0.239300
-1.091600 0.231800
-1.070600 0.224300
-1.049600 0.216600
-1.028700 0.209000
-1.007700 0.201300
-0.986700 0.193600
-0.965800 0.185900
-0.944800 0.178100
-0.923800 0.170000
-0.902900 0.161900
-0.881900 0.153900
-0.860900 0.148400
-0.840000 0.144000
-0.819000 0.139000
-0.798000 0.133400
-0.777100 0.127200
-0.756100 0.120300
-0.735200 0.112900
-0.714200 0.105200
-0.693200 0.097700
-0.672300 0.090300
-0.651300 0.083100
-0.630300 0.076000
-0.609400 0.087600
-0.588400 0.073700
-0.567400 0.060700
-0.546500 0.048700
-0.525500 0.037600
-0.504500 0.027400
-0.483600 0.018100
-0.462600 0.009800
-0.441600 0.002400
-0.420700 0.000000
-0.399700 0.000000
-0.378700 0.000000
-0.357800 0.000000
-0.336800 0.000000
-0.315800 0.000000
-0.294900 0.000000
-0.273900 0.000000
-0.252900 0.000000
-0.232000 0.000000
-0.211000 0.000000
-0.190000 0.000000
-0.169100 0.000000
-0.148100 0.000000
-0.127100 0.000000
-0.106200 0.000000
-0.085200 0.000000
-0.064200 0.000000
-0.043300 0.000000
-0.022300 0.000000
-0.001300 0.000000
0.019600 0.000000
0.040600 0.000000
0.061600 0.000000
0.082500 0.000000
0.103500 0.000000
0.124500 0.000000
0.145400 0.000000
0.166400 0.000000
0.187400 0.000000
0.208300 0.000000
0.229300 0.000000
0.250300 0.000000
0.271200 0.000000
0.292200 0.000000
0.313200 0.000000
0.334100 0.000000
0.355100 0.000000
0.376100 0.000000
0.397000 0.000000
0.418000 0.000000
0.439000 0.000000
0.459900 0.000000
0.480900 0.000000
0.501900 0.000000
0.522800 0.000000
0.543800 0.000000
0.564700 0.000000
0.585700 0.000000
0.606700 0.000000
0.627600 0.000000
0.648600 0.000000
0.669600 0.000000
0.690500 0.000000
0.711500 0.000000
0.732500 0.000000
0.753400 0.000000
0.774400 0.000000
0.795400 0.000000
0.816300 0.012600
0.837300 0.103400
0.858300 0.207900
0.879200 0.277100
0.900200 0.314400
0.921200 0.326000
0.942100 0.374400
0.963100 0.437400
0.984100 0.515100
1.005000 0.603900
1.026000 0.614600
1.047000 0.628600
1.067900 0.645800
1.088900 0.667300
1.109900 0.697500
1.130800 0.725900
1.151800 0.758400
1.172800 0.797000
1.193700 0.841700
1.214700 0.887600
1.235700 1.028800
1.256600 1.067000
1.277600 1.105500
1.298600 1.127300
1.319500 1.131100
1.340500 1.116900
1.361500 1.150000
1.382400 1.108100
1.403400 1.074900
1.424400 1.036300
1.445300 1.010700
1.466300 1.012000
1.487300 1.016300
1.508200 1.216300
1.529200 1.225300
1.550200 1.227000
1.571100 1.230600
1.592100 1.249700
1.613100 1.261300
1.634000 1.247800
1.655000 1.254700
1.676000 1.267200
1.696900 1.287100
1.717900 1.314600
1.738900 1.344500
1.759800 1.372000
1.780800 1.459700
1.801800 1.490700
1.822700 1.519500
1.843700 1.550300
1.864600 1.579700
1.885600 1.620600
1.906600 1.663200
1.927500 1.706900
1.948500 1.730400
1.969500 1.759400
1.990400 1.793900
2.011400 1.836600
2.032400 1.885700
2.053300 1.917000
2.074300 1.940800
2.095300 1.979600
2.116200 1.988500
2.137200 1.994900
2.158200 1.999100
2.179100 2.001900
2.200100 1.995200
2.221100 2.015100
2.242000 2.033400
2.263000 2.062500
2.284000 2.105200
2.304900 2.161800
2.325900 2.233400
2.346900 2.314500
2.367800 2.409800
2.388800 2.443300
2.409800 2.486900
2.430700 2.569500
2.451700 2.665200
2.472700 2.762900
2.493600 2.875400
2.514600 2.928600
2.535600 2.946600
2.556500 2.923000
2.577500 2.925100
2.598500 2.961900
2.619400 2.944200
2.640400 2.942800
2.661400 2.928800
2.682300 2.912100
2.703300 2.863900
2.724300 2.817000
2.745200 2.767800
2.766200 2.719300
2.787200 2.675100
2.808100 2.636200
2.829100 2.617600
2.850100 2.598700
2.871000 2.583700
2.892000 2.576100
2.913000 2.575200
2.933900 2.579800
2.954900 2.588700
2.975900 2.585400
2.996800 2.607900
3.017800 2.631400
3.038800 2.650000
3.059700 2.670200
3.080700 2.854600
3.101700 2.969400
3.122600 2.853400
3.143600 2.802800
3.164600 2.815000
3.185500 2.828400
3.206500 2.842300
3.227400 2.856600
3.248400 2.874200
3.269400 2.906300
3.290300 2.927300
3.311300 2.938700
3.332300 2.915600
3.353200 2.879300
3.374200 2.856800
3.395200 2.846500
3.416100 2.841300
3.437100 2.840200
3.458100 2.861500
3.479000 2.829700
3.500000 2.750800
3.521000 2.622000
3.541900 2.474000
3.562900 2.355600
3.583900 2.254500
3.604800 2.147100
3.625800 2.108900
3.646800 2.093300
3.667700 2.060900
3.688700 2.061000
3.709700 2.057100
3.730600 2.054400
3.751600 2.025200
3.772600 1.939400
3.793500 1.939700
3.814500 1.944400
3.835500 1.957600
3.856400 1.989200
3.877400 2.048400
3.898400 2.129500
3.919300 2.212500
3.940300 2.295300
3.961300 2.375600
3.982200 2.449600
4.003200 2.503400
4.024200 2.546200
4.045100 2.606300
4.066100 2.619600
4.087100 2.617200
4.108000 2.612600
4.129000 2.592500
4.150000 2.555500
4.170900 2.520300
4.191900 2.452700
4.212900 2.364800
4.233800 2.277600
4.254800 2.204800
4.275800 2.158200
4.296700 2.105400
4.317700 2.043500
4.338700 2.029300
4.359600 2.025700
4.380600 2.002300
4.401600 1.933600
4.422500 1.910000
4.443500 1.888400
4.464500 1.868100
4.485400 1.851000
4.506400 1.838000
4.527300 1.833600
4.548300 1.841600
4.569300 1.857600
4.590200 1.879300
4.611200 1.906200
4.632200 1.938400
4.653100 1.972600
4.674100 2.005200
4.695100 2.038500
4.716000 2.072000
4.737000 2.105900
4.758000 2.135400
4.778900 2.160900
4.799900 2.183000
4.820900 2.191800
4.841800 2.193600
4.862800 2.198400
4.883800 2.201300
4.904700 2.200100
4.925700 2.199200
4.946700 2.191700
4.967600 2.174600
4.988600 2.150600
5.009600 2.126700
5.030500 2.103100
5.051500 2.082100
5.072500 2.062900
5.093400 2.044800
5.114400 2.031200
5.135400 2.021700
5.156300 2.013500
5.177300 2.004400
5.198300 1.994300
5.219200 1.983700
5.240200 1.974300
5.261200 1.967000
5.282100 1.960500
5.303100 1.955100
5.324100 1.950400
5.345000 1.946200
5.366000 1.943600
5.387000 1.940200
5.407900 1.935300
5.428900 1.927700
5.449900 1.922600
5.470800 1.926400
5.491800 1.926700
5.512800 1.918800
5.533700 1.906800
5.554700 1.899100
5.575700 1.900400
5.596600 1.903100
5.617600 1.901600
5.638600 1.904200
5.659500 1.917000
5.680500 1.934800
5.701500 1.965500
5.722400 1.994600
5.743400 2.018900
5.764400 2.040600
5.785300 2.060500
5.806300 2.078700
5.827200 2.095900
5.848200 2.112700
5.869200 2.128900
5.890100 2.142200
5.911100 2.155900
5.932100 2.173500
5.953000 2.192500
5.974000 2.202400
5.995000 2.213000
6.015900 2.194900
6.036900 2.202800
6.057900 2.169700
6.078800 2.165500
6.099800 2.155400
6.120800 2.147000
6.141700 2.144700
6.162700 2.138200
6.183700 2.128500
6.204600 2.120700
6.225600 2.078400
6.246600 2.065100
6.267500 2.048900
6.288500 2.035400
6.309500 2.021200
6.330400 2.026200
6.351400 2.033200
6.372400 2.038800
6.393300 2.037100
6.414300 2.023200
6.435300 1.996600
6.456200 1.959000
6.477200 1.912100
6.498200 1.878800
6.519100 1.870700
6.540100 1.892500
6.561100 1.793900
6.582000 1.789900
6.603000 1.539500
6.624000 1.468700
6.644900 1.400600
6.665900 1.337100
6.686900 1.276200
6.707800 1.287900
6.728800 1.138000
6.749800 1.050000
6.770700 0.992600
6.791700 0.942600
6.812700 0.891900
6.833600 0.844800
6.854600 0.803400
6.875600 0.755100
6.896500 0.702900
6.917500 0.643600
6.938500 0.577100
6.959400 0.461400
6.980400 0.383800
7.001400 0.368200
7.022300 0.358600
7.043300 0.348600
7.064300 0.344300
7.085200 0.349000
7.106200 0.364200
7.127100 0.281500
7.148100 0.303300
7.169100 0.325600
7.190000 0.349500
7.211000 0.388700
7.232000 0.426100
7.252900 0.460200
7.273900 0.490500
7.294900 0.517000
7.315800 0.541100
7.336800 0.568400
7.357800 0.590900
7.378700 0.608100
7.399700 0.622700
7.420700 0.648200
7.441600 0.681500
7.462600 0.726400
7.483600 0.781400
7.504500 0.837400
7.525500 0.893700
7.546500 0.950700
7.567400 1.015100
7.588400 1.084400
7.609400 1.149800
7.630300 1.207900
7.651300 1.267300
7.672300 1.334900
7.693200 1.407000
7.714200 1.487100
7.735200 1.582600
7.756100 1.684500
7.777100 1.779700
7.798100 1.837200
7.819000 1.871700
7.840000 1.897400
7.861000 1.921900
7.881900 1.942100
7.902900 1.959000
7.923900 1.976000
7.944800 1.994300
7.965800 2.007900
7.986800 2.039000
8.007700 2.071700
8.028700 2.112600
8.049700 2.172700
8.070600 2.252300
8.091600 2.327800
8.112600 2.399400
8.133500 2.467000
8.154500 2.386100
8.175500 2.381500
8.196400 2.385800
8.217400 2.391900
8.238400 2.403800
8.259300 2.418800
8.280300 2.453400
8.301300 2.490400
8.322200 2.507700
8.343200 2.518300
8.364200 2.511000
8.385100 2.506500
8.406100 2.522400
8.427100 2.553700
8.448000 2.595100
8.469000 3.135200
8.489900 2.631000
8.510900 2.634100
8.531900 2.629900
8.552800 2.611600
8.573800 2.580500
8.594800 2.540900
8.615700 2.513500
8.636700 2.495000
8.657700 2.476700
8.678600 2.458600
8.699600 2.439300
8.720600 2.417200
8.741500 2.392200
8.762500 2.393400
8.783500 2.373400
8.804400 2.350400
8.825400 2.323900
8.846400 2.297800
8.867300 2.274700
8.888300 2.259200
8.909300 2.259100
8.930200 2.272200
8.951200 2.267600
8.972200 2.263400
8.993100 2.270000
9.014100 2.288000
9.035100 2.326300
9.056000 2.370200
9.077000 2.413900
9.098000 2.451300
9.118900 2.487800
9.139900 2.519000
9.160900 2.535400
9.181800 2.518100
9.202800 2.467000
9.223800 2.449600
9.244700 2.424500
9.265700 2.390200
9.286700 2.357000
9.307600 2.315600
9.328600 2.278800
9.349600 2.252500
9.370500 2.235700
9.391500 2.230100
9.412500 2.235700
9.433400 2.249100
9.454400 2.279300
9.475400 2.302300
9.496300 2.317600
9.517300 2.340400
9.538300 2.337400
9.559200 2.263100
9.580200 2.165500
9.601200 1.986100
9.622100 1.968400
9.643100 2.021100
9.664100 2.077500
9.685000 2.136500
9.706000 2.198100
9.727000 2.260200
9.747900 2.318500
9.768900 2.493800
9.789800 2.467400
9.810800 2.402900
9.831800 2.318100
9.852700 2.216100
9.873700 2.148100
9.894700 2.108800
9.915600 2.074500
9.936600 2.061700
9.957600 1.995700
9.978500 1.885300
9.999500 1.871700
10.020500 1.860100
10.041400 1.856400
10.062400 1.844200
10.083400 1.813600
10.104300 1.782100
10.125300 1.776300
10.146300 1.786300
10.167200 1.780200
10.188200 1.784000
10.209200 1.803300
10.230100 1.850800
10.251100 1.883900
10.272100 1.871400
10.293000 1.863800
10.314000 1.794000
10.335000 1.794100
10.355900 1.785400
10.376900 1.770000
10.397900 1.744600
10.418800 1.714600
10.439800 1.675100
10.460800 1.629000
10.481700 1.586500
10.502700 1.552000
10.523700 1.542500
10.544600 1.538800
10.565600 1.589800
10.586600 1.563700
10.607500 1.570400
10.628500 1.587500
10.649500 1.613300
10.670400 1.643700
10.691400 1.678500
10.712400 1.688300
10.733300 1.776600
10.754300 1.889300
10.775300 2.026400
10.796200 2.345700
10.817200 2.074700
10.838200 2.096800
10.859100 2.142300
10.880100 2.157600
10.901100 2.113500
10.922000 2.056200
10.943000 2.001600
10.964000 1.942500
10.984900 1.864200
11.005900 1.791300
11.026900 1.706300
11.047800 1.624800
11.068800 1.577800
11.089700 1.508700
11.110700 1.452800
11.131700 1.415500
11.152600 1.390100
11.173600 1.365000
11.194600 1.343200
11.215500 1.342300
11.236500 1.409100
11.257500 1.413900
11.278400 1.403800
11.299400 1.386200
11.320400 1.366000
11.341300 1.293100
11.362300 1.292700
11.383300 1.281000
11.404200 1.260900
11.425200 1.236800
11.446200 1.214200
11.467100 1.191600
11.488100 1.171900
11.509100 1.158600
11.530000 1.154100
11.551000 1.154900
11.572000 1.160400
11.592900 1.162500
11.613900 1.159700
11.634900 1.165700
11.655800 1.176300
11.676800 1.188100
11.697800 1.200300
11.718700 1.214100
11.739700 1.229300
11.760700 1.245200
11.781600 1.261500
11.802600 1.275000
11.823600 1.286700
11.844500 1.298000
11.865500 1.352400
11.886500 1.356500
11.907400 1.361200
11.928400 1.364800
11.949400 1.342200
11.970300 1.358700
11.991300 1.378800
12.012300 1.398100
12.033200 1.456800
12.054200 1.479000
12.075200 1.503000
12.096100 1.529200
12.117100 1.553600
12.138100 1.536300
12.159000 1.547100
12.180000 1.552800
12.201000 1.567300
12.221900 1.549500
12.242900 1.564100
12.263900 1.577200
12.284800 1.582700
12.305800 1.576700
12.326800 1.535900
12.347700 1.519100
12.368700 1.497400
12.389600 1.477000
12.410600 1.453000
12.431600 1.435800
12.452500 1.419200
12.473500 1.402900
12.494500 1.395000
12.515400 1.393100
12.536400 1.395300
12.557400 1.406300
12.578300 1.418000
12.599300 1.436400
12.620300 1.462900
12.641200 1.505000
12.662200 1.525100
12.683200 1.523000
12.704100 1.508600
12.725100 1.510300
12.746100 1.562200
12.767000 1.618200
12.788000 1.465100
12.809000 1.408300
12.829900 1.350700
12.850900 1.302300
12.871900 1.307500
12.892800 1.332300
12.913800 1.382100
12.934800 1.464200
12.955700 1.506400
12.976700 1.526500
12.997700 1.544800
13.018600 1.561000
13.039600 1.575200
13.060600 1.587100
13.081500 1.599100
13.102500 1.614600
13.123500 1.632000
13.144400 1.657400
13.165400 1.694500
13.186400 1.768200
13.207300 1.812900
13.228300 1.829600
13.249300 1.837900
13.270200 1.837700
13.291200 1.868500
13.312200 1.902300
13.333100 1.938500
13.354100 1.975200
13.375100 1.927500
13.396000 1.948200
13.417000 1.970400
13.438000 1.981800
13.458900 1.989200
13.479900 1.997700
13.500900 2.013600
13.521800 2.030200
13.542800 2.045600
13.563800 2.058700
13.584700 2.067900
13.605700 2.076600
13.626700 2.098000
13.647600 2.131200
13.668600 2.154800
13.689600 2.263900
13.710500 2.351300
13.731500 2.415500
13.752400 2.489900
13.773400 2.460200
13.794400 2.503000
13.815300 2.494300
13.836300 2.503800
13.857300 2.524400
13.878200 2.533000
13.899200 2.528900
13.920200 2.522400
13.941100 2.542900
13.962100 2.566100
13.983100 2.597400
14.004000 2.642800
14.025000 2.698100
14.046000 2.747800
14.066900 2.771700
14.087900 2.721700
14.108900 2.665000
14.129800 2.657800
14.150800 2.676200
14.171800 2.660400
14.192700 2.620800
14.213700 2.656400
14.234700 2.702400
14.255600 2.770600
14.276600 2.936600
14.297600 2.821700
14.318500 2.724800
14.339500 2.734300
14.360500 2.741800
14.381400 2.740400
14.402400 2.740200
14.423400 2.748700
14.444300 2.764100
14.465300 2.788300
14.486300 2.805400
14.507200 2.750100
14.528200 2.736800
14.549200 2.759800
14.570100 2.789300
14.591100 2.819000
14.612100 2.826800
14.633000 2.870400
14.654000 2.886300
14.675000 2.825200
14.695900 2.777600
14.716900 2.743100
14.737900 2.729300
14.758800 2.701600
14.779800 2.676900
14.800800 2.657400
14.821700 2.650100
14.842700 2.648300
14.863700 2.655500
14.884600 2.675000
14.905600 2.722700
14.926600 2.776500
14.947500 2.837400
14.968500 2.904100
14.989500 2.970300
15.010400 3.045900
15.031400 3.112800
15.052300 3.178900
15.073300 3.263500
15.094300 3.333700
15.115200 3.444200
15.136200 3.561000
15.157200 3.665400
15.178100 3.745100
15.199100 3.852100
15.220100 3.838100
15.241000 3.827200
15.262000 3.812800
15.283000 3.734800
15.303900 3.635100
15.324900 3.568700
15.345900 3.564100
15.366800 3.569300
15.387800 3.543700
15.408800 3.519700
15.429700 3.497700
15.450700 3.480500
15.471700 3.487000
15.492600 3.503500
15.513600 3.633000
15.534600 3.550100
15.555500 3.428800
15.576500 3.494200
15.597500 3.553500
15.618400 3.535600
15.639400 3.470800
15.660400 3.312300
15.681300 3.230600
15.702300 3.133800
15.723300 2.999800
15.744200 2.903400
15.765200 2.840600
15.786200 2.875000
15.807100 2.823600
15.828100 2.791700
15.849100 2.771200
15.870000 2.763000
15.891000 2.767500
15.912000 2.778100
15.932900 2.794500
15.953900 2.817100
15.974900 2.844600
15.995800 3.017100
16.016800 2.941600
16.037800 3.036900
16.058700 3.132600
16.079700 3.287100
16.100700 3.304100
16.121600 3.096200
16.142600 2.910100
16.163600 2.694400
16.184500 2.566300
16.205500 2.440700
16.226500 2.412700
16.247400 2.387300
16.268400 2.399800
16.289400 2.362300
16.310300 2.329400
16.331300 2.314700
16.352200 2.348100
16.373200 2.412200
16.394200 2.476600
16.415100 2.533500
16.436100 2.584300
16.457100 2.520900
16.478000 2.579300
16.499000 2.589800
16.520000 2.607200
16.540900 2.641200
16.561900 2.678500
16.582900 2.729800
16.603800 2.790000
16.624800 2.865400
16.645800 2.937700
16.666700 2.922100
16.687700 2.981200
16.708700 3.049500
16.729600 3.116500
16.750600 3.185300
16.771600 3.258300
16.792500 3.318800
16.813500 3.348600
16.834500 3.354000
16.855400 3.359100
16.876400 3.333200
16.897400 3.344100
16.918300 3.364000
16.939300 3.388900
16.960300 3.424400
16.981200 3.461100
17.002200 3.495900
17.023200 3.425900
17.044100 3.378600
17.065100 3.306300
17.086100 3.232100
17.107000 3.181200
17.128000 3.187200
17.149000 3.209400
17.169900 3.234100
17.190900 3.286100
17.211900 3.375900
17.232800 3.554900
17.253800 3.819400
17.274800 3.988400
17.295700 4.075200
17.316700 4.061400
17.337700 3.991300
17.358600 3.873400
17.379600 3.730300
17.400600 3.587900
17.421500 3.493800
17.442500 3.386100
17.463500 3.319000
17.484400 3.249800
17.505400 3.182900
17.526400 3.128500
17.547300 3.083800
17.568300 3.056500
17.589300 3.041400
17.610200 3.034400
17.631200 3.031400
17.652200 3.012700
17.673100 2.974800
17.694100 2.925300
17.715000 2.873300
17.736000 2.849100
17.757000 2.894800
17.777900 2.967800
17.798900 2.982600
17.819900 2.936600
17.840800 2.941100
17.861800 2.986600
17.882800 3.043100
17.903700 3.105600
17.924700 3.171200
17.945700 3.245700
17.966600 3.321500
17.987600 3.381700
18.008600 3.420000
18.029500 3.471000
18.050500 3.429200
18.071500 3.400500
18.092400 3.294600
18.113400 3.201400
18.134400 3.172100
18.155300 3.177000
18.176300 3.155800
18.197300 3.108900
18.218200 3.061400
18.239200 3.011600
18.260200 3.027100
18.281100 3.011900
18.302100 3.010100
18.323100 2.970200
18.344000 2.915900
18.365000 2.878200
18.386000 2.886700
18.406900 2.918100
18.427900 2.979200
18.448900 3.095700
18.469800 3.233400
18.490800 3.392800
18.511800 3.567900
18.532700 3.614700
18.553700 3.601400
18.574700 3.566600
18.595600 3.639700
18.616600 3.690100
18.637600 3.728500
18.658500 3.739800
18.679500 3.733500
18.700500 3.738200
18.721400 3.770600
18.742400 3.837200
18.763400 3.893500
18.784300 3.914500
18.805300 3.909000
18.826300 3.898100
18.847200 3.873900
18.868200 3.840600
18.889200 3.796000
18.910100 3.760800
18.931100 3.771300
18.952100 3.752000
18.973000 3.771000
18.994000 3.680800
19.014900 3.778300
19.035900 3.247600
19.056900 3.177000
19.077800 3.090900
19.098800 3.069400
19.119800 3.023800
19.140700 3.021900
19.161700 3.041400
19.182700 3.112000
19.203600 3.378600
19.224600 3.334800
19.245600 3.391300
19.266500 3.474300
19.287500 3.540700
19.308500 3.600700
19.329400 3.705800
19.350400 3.906000
19.371400 3.732000
19.392300 3.641900
19.413300 3.547700
19.434300 3.389400
19.455200 3.371300
19.476200 3.376200
19.497200 3.381500
19.518100 3.410600
19.539100 3.451600
19.560100 3.501800
19.581000 3.569800
19.602000 3.646400
19.623000 3.731700
19.643900 3.725200
19.664900 3.676500
19.685900 3.513000
19.706800 3.394300
19.727800 3.347700
19.748800 3.336800
19.769700 3.384400
19.790700 3.460600
19.811700 3.543900
19.832600 3.539400
19.853600 3.501800
19.874600 3.458400
19.895500 3.440600
19.916500 3.387600
19.937500 3.297600
19.958400 3.231300
19.979400 3.216900
20.000400 3.180900
20.021300 3.162500
20.042300 3.164000
20.063300 3.195500
20.084200 3.265000
20.105200 3.316100
20.126200 3.350900
20.147100 3.409700
20.168100 3.461700
20.189100 3.594700
20.210000 3.771400
20.231000 4.113900
20.252000 4.305300
20.272900 4.306000
20.293900 4.321300
20.314800 4.308900
20.335800 4.259900
20.356800 4.175000
20.377700 4.025200
20.398700 3.872000
20.419700 3.752700
20.440600 3.663600
20.461600 3.618100
20.482600 3.567800
20.503500 3.531400
20.524500 3.486200
20.545500 3.463300
20.566400 3.450100
20.587400 3.428900
20.608400 3.339300
20.629300 3.288600
20.650300 3.262500
20.671300 3.244100
20.692200 3.233000
20.713200 3.229400
20.734200 3.248700
20.755100 3.297200
20.776100 3.399600
20.797100 3.486400
20.818000 3.547000
20.839000 3.611200
20.860000 3.617300
20.880900 3.557100
20.901900 3.550600
20.922900 3.572300
20.943800 3.639400
20.964800 3.707200
20.985800 3.699400
21.006700 3.666800
21.027700 3.672800
21.048700 3.567400
21.069600 3.624700
21.090600 3.705500
21.111600 3.822100
21.132500 3.879300
21.153500 3.909300
21.174500 3.946300
21.195400 3.988200
21.216400 3.984100
21.237400 3.930700
21.258300 3.685800
21.279300 3.699200
21.300300 3.820300
21.321200 3.981300
21.342200 4.139100
21.363200 4.301300
21.384100 4.595500
21.405100 4.379500
21.426100 4.303400
21.447000 4.041400
21.468000 4.007200
21.489000 3.986000
21.509900 3.971100
21.530900 3.958500
21.551900 3.959700
21.572800 3.967600
21.593800 3.936300
21.614700 3.942100
21.635700 3.956800
21.656700 4.100400
21.677600 4.193200
21.698600 4.277100
21.719600 4.331400
21.740500 4.342800
21.761500 4.347300
21.782500 4.351200
21.803400 4.329700
21.824400 4.241400
21.845400 4.108700
21.866300 3.993700
21.887300 3.902100
21.908300 3.795700
21.929200 3.664200
21.950200 3.601900
21.971200 3.506500
21.992100 3.467500
22.013100 3.436500
22.034100 3.413500
22.055000 3.400800
22.076000 3.669000
22.097000 3.708600
22.117900 3.800600
22.138900 3.796700
22.159900 3.832100
22.180800 3.847300
22.201800 3.849700
22.222800 4.014600
22.243700 3.871500
22.264700 3.861400
22.285700 3.827500
22.306600 3.794900
22.327600 3.749400
22.348600 3.707900
22.369500 3.690000
22.390500 3.709200
22.411500 3.797500
22.432400 3.672500
22.453400 3.621300
22.474400 3.582400
22.495300 3.614100
22.516300 3.786400
22.537300 3.934900
22.558200 3.870100
22.579200 3.684300
22.600200 3.442300
22.621100 3.495300
22.642100 3.560400
22.663100 3.623300
22.684000 3.686400
22.705000 3.740400
22.726000 3.746000
22.746900 3.820800
22.767900 3.757700
22.788900 3.747700
22.809800 3.704500
22.830800 3.664800
22.851800 3.584300
22.872700 3.407800
22.893700 3.933100
22.914700 3.568500
22.935600 3.643400
22.956600 3.741500
22.977500 3.742100
22.998500 3.766400
23.019500 3.841600
23.040400 3.849700
23.061400 3.819400
23.082400 3.862400
23.103300 4.047500
23.124300 3.871500
23.145300 3.904100
23.166200 3.996000
23.187200 3.976300
23.208200 3.937500
23.229100 3.912800
23.250100 3.898700
23.271100 3.893600
23.292000 3.996600
23.313000 4.080900
23.334000 4.145600
23.354900 4.262200
23.375900 4.262400
23.396900 4.247400
23.417800 4.079200
23.438800 3.890200
23.459800 3.781900
23.480700 3.774400
23.501700 3.769500
23.522700 3.778300
23.543600 3.801900
23.564600 3.820500
23.585600 3.835700
23.606500 3.839600
23.627500 3.841400
23.648500 3.857000
23.669400 3.894500
23.690400 3.899700
23.711400 3.912300
23.732300 3.911800
23.753300 3.899500
23.774300 3.880600
23.795200 3.860800
23.816200 3.846000
23.837200 3.832900
23.858100 3.932100
23.879100 4.047600
23.900100 4.139100
23.921000 4.209800
23.942000 4.167600
23.963000 4.171700
23.983900 4.208400
24.004900 4.331500
24.025900 4.429900
24.046800 4.495700
24.067800 4.487300
24.088800 4.470200
24.109700 4.397900
24.130700 4.512000
24.151700 4.584900
24.172600 4.612800
24.193600 4.621300
24.214600 4.573000
24.235500 4.442600
24.256500 4.404200
24.277400 4.361800
24.298400 4.336800
24.319400 4.345000
24.340300 4.360500
24.361300 4.372000
24.382300 4.325300
24.403200 4.121800
24.424200 4.048000
24.445200 3.997400
24.466100 3.961400
24.487100 3.939900
24.508100 3.929500
24.529000 3.928400
24.550000 3.945400
24.571000 3.915000
24.591900 3.902000
24.612900 3.908900
24.633900 3.877100
24.654800 3.859500
24.675800 3.867200
24.696800 3.881700
24.717700 3.945900
24.738700 4.048400
24.759700 4.108500
24.780600 4.161600
24.801600 4.205000
24.822600 4.198300
24.843500 4.286400
24.864500 4.397400
24.885500 4.549600
24.906400 4.543500
24.927400 4.516000
24.948400 4.544500
24.969300 4.576400
24.990300 4.636100
25.011300 4.662500
25.032200 4.655800
25.053200 4.683500
25.074200 4.749600
25.095100 4.697100
25.116100 4.685100
25.137100 4.685200
25.158000 4.688000
25.179000 4.521400
25.200000 4.413900
25.220900 4.401400
25.241900 4.323200
25.262900 4.344800
25.283800 4.367900
25.304800 4.427100
25.325800 4.420400
25.346700 4.459300
25.367700 4.486600
25.388700 4.543600
25.409600 4.560800
25.430600 4.516600
25.451600 4.489600
25.472500 4.478300
25.493500 4.471800
25.514500 4.462500
25.535400 4.448900
25.556400 4.460900
25.577300 4.571200
25.598300 4.456000
25.619300 4.377200
25.640200 4.406900
25.661200 4.625600
25.682200 4.799600
25.703100 4.957700
25.724100 5.038400
25.745100 5.037600
25.766000 4.884200
25.787000 4.733500
25.808000 4.610700
25.828900 4.519200
25.849900 4.373200
25.870900 4.237600
25.891800 4.183900
25.912800 4.191200
25.933800 4.202000
25.954700 4.244000
25.975700 4.312300
25.996700 4.451400
26.017600 4.395600
26.038600 4.438700
26.059600 4.468300
26.080500 4.519900
26.101500 4.682400
26.122500 4.608700
26.143400 4.710800
26.164400 4.785000
26.185400 4.821600
26.206300 4.824300
26.227300 5.008800
26.248300 4.903800
26.269200 4.821500
26.290200 4.742000
26.311200 4.675100
26.332100 4.693200
26.353100 4.606300
26.374100 4.553200
26.395000 4.547000
26.416000 4.551800
26.437000 4.614600
26.457900 4.671500
26.478900 4.799000
26.499900 4.828300
26.520800 4.709100
26.541800 4.650100
26.562800 4.582000
26.583700 4.551700
26.604700 4.537800
26.625700 4.524800
26.646600 4.511500
26.667600 4.512000
26.688600 4.514100
26.709500 4.652500
26.730500 4.619800
26.751500 4.468000
26.772400 4.428600
26.793400 4.493900
26.814400 4.617300
26.835300 4.700900
26.856300 4.693300
26.877200 4.608000
26.898200 4.577200
26.919200 4.718500
26.940100 4.608400
26.961100 4.449400
26.982100 4.310400
27.003000 4.330700
27.024000 4.300600
27.045000 4.296100
27.065900 4.341800
27.086900 4.376400
27.107900 4.363200
27.128800 4.335900
27.149800 4.339300
27.170800 4.332500
27.191700 4.335600
27.212700 4.328600
27.233700 4.337900
27.254600 4.348000
27.275600 4.392400
27.296600 4.451100
27.317500 4.638300
27.338500 4.642000
27.359500 4.663900
27.380400 4.570100
27.401400 4.470200
27.422400 4.340800
27.443300 4.302900
27.464300 4.357100
27.485300 4.456300
27.506200 4.545600
27.527200 4.969900
27.548200 4.565300
27.569100 4.506500
27.590100 4.588600
27.611100 4.672800
27.632000 4.727000
27.653000 4.720100
27.674000 4.723400
27.694900 4.742300
27.715900 4.674300
27.736900 4.661500
27.757800 4.558500
27.778800 4.544000
27.799800 4.525200
27.820700 4.496100
27.841700 4.496300
27.862700 4.590600
27.883600 4.676800
27.904600 4.737800
27.925600 4.742700
27.946500 4.714100
27.967500 4.773100
27.988500 4.889200
28.009400 5.013900
28.030400 5.301200
28.051400 5.291400
28.072300 5.409600
28.093300 5.723700
28.114300 5.356400
28.135200 5.187900
28.156200 5.137200
28.177200 5.167700
28.198100 5.152900
28.219100 5.094800
28.240000 4.990600
28.261000 4.903500
28.282000 4.907000
28.302900 4.809500
28.323900 4.631800
28.344900 4.544500
28.365800 4.485200
28.386800 4.466000
28.407800 4.455000
28.428700 4.443800
28.449700 4.445100
28.470700 4.464400
28.491600 4.482900
28.512600 4.519200
28.533600 4.622700
28.554500 4.657500
28.575500 4.693600
28.596500 4.774700
28.617400 4.783900
28.638400 4.783500
28.659400 4.779800
28.680300 4.758400
28.701300 4.786300
28.722300 4.916500
28.743200 5.009200
28.764200 5.098900
28.785200 5.146000
28.806100 5.169800
28.827100 5.117600
28.848100 5.050500
28.869000 5.038100
28.890000 5.012000
28.911000 4.937800
28.931900 4.889300
28.952900 4.790300
28.973900 4.690600
28.994800 4.598700
29.015800 4.523000
29.036800 4.430600
29.057700 4.176900
29.078700 4.035900
29.099700 3.980200
29.120600 3.951800
29.141600 3.998800
29.162600 4.006300
29.183500 3.911000
29.204500 3.934500
29.225500 4.044500
29.246400 4.530600
29.267400 5.197500
29.288400 5.010900
29.309300 5.229200
29.330300 5.181900
29.351300 5.132900
29.372200 5.118600
29.393200 5.184900
29.414200 5.292900
29.435100 5.245400
29.456100 5.164600
29.477100 5.091200
29.498000 5.033000
29.519000 4.990700
29.539900 4.938900
29.560900 4.858200
29.581900 4.843400
29.602800 4.851600
29.623800 4.973700
29.644800 5.127400
29.665700 5.278800
29.686700 5.436300
29.707700 5.657800
29.728600 5.712700
29.749600 5.695300
29.770600 5.651500
29.791500 5.833700
29.812500 5.961600
29.833500 5.920900
29.854400 5.838000
29.875400 5.815700
29.896400 5.687700
29.917300 5.530100
29.938300 5.424900
29.959300 5.351400
29.980200 5.544600
30.001200 5.490300
30.022200 5.598900
30.043100 5.429300
30.064100 5.004000
30.085100 5.083900
30.106000 5.080200
30.127000 5.107700
30.148000 5.265200
30.168900 5.640900
30.189900 5.504800
30.210900 5.317700
30.231800 5.202900
30.252800 5.109100
30.273800 5.008100
30.294700 4.967900
30.315700 4.880100
30.336700 4.799200
30.357600 4.732900
30.378600 4.811600
30.399600 4.544300
30.420500 4.378900
30.441500 4.350200
30.462500 4.041600
30.483400 3.397400
30.504400 3.021900
30.525400 2.784500
30.546300 2.579500
30.567300 2.409500
30.588300 2.291500
30.609200 2.203000
30.630200 2.111700
30.651200 2.068400
30.672100 2.052300
30.693100 2.029400
30.714100 2.003000
30.735000 1.995100
30.756000 1.949300
30.777000 1.848200
30.797900 1.733400
30.818900 1.600100
30.839800 1.464400
30.860800 1.355300
30.881800 1.116900
30.902700 0.923100
30.923700 0.705500
30.944700 0.537500
30.965600 0.409800
30.986600 0.331000
31.007600 0.281500
31.028500 0.248800
31.049500 0.218800
31.070500 0.190300
31.091400 0.164100
31.112400 0.138300
31.133400 0.114900
31.154300 0.091700
31.175300 0.070600
31.196300 0.052600
31.217200 0.037700
31.238200 0.029000
31.259200 0.025100
31.280100 0.021400
31.301100 0.018000
31.322100 0.014700
31.343000 0.011700
31.364000 0.008900
31.385000 0.006400
31.405900 0.004100
31.426900 0.002000
31.447900 0.000200
31.468800 0.000000
31.489800 0.000000
31.510800 0.000000
31.531700 0.000000
31.552700 0.000000
31.573700 0.000000
31.594600 0.000000
31.615600 0.000000
31.636600 0.000000
31.657500 0.000000
31.678500 0.000000
31.699500 0.000000
31.720400 0.000000
31.741400 0.000000
31.762400 0.000000
31.783300 0.000000
31.804300 0.000000
31.825300 0.000000
31.846200 0.000000
31.867200 0.000000
31.888200 0.000000
31.909100 0.000000
31.930100 0.000000
31.951100 0.000000
31.972000 0.000000
31.993000 0.000000
32.014000 0.000000
32.034900 0.000000
32.055900 0.000000
32.076900 0.000000
32.097800 0.000000
32.118800 0.000000
32.139700 0.000000
32.160700 0.000000
32.181700 0.000000
32.202600 0.000000
32.223600 0.000000
32.244600 0.000000
32.265500 0.000000
32.286500 0.000000
32.307500 0.000000
32.328400 0.000000
32.349400 0.000000
32.370400 0.000000
32.391300 0.000000
32.412300 0.000000
32.433300 0.000000
32.454200 0.000000
32.475200 0.000000
32.496200 0.000000
32.517100 0.000000
32.538100 0.000000
32.559100 0.000000
32.580000 0.000000
32.601000 0.000000
32.622000 0.000000
32.642900 0.000000
32.663900 0.000000
32.684900 0.000000
32.705800 0.000000
32.726800 0.000000
32.747800 0.000000
32.768700 0.000000
32.789700 0.000000
32.810700 0.000000
32.831600 0.000000
32.852600 0.000000
32.873600 0.000000
32.894500 0.000000
32.915500 0.000000
32.936500 0.000000
32.957400 0.000000
32.978400 0.000000
32.999400 0.000000
33.020300 0.000000
33.041300 0.000000
33.062300 0.000000
33.083200 0.000000
33.104200 0.000000
33.125200 0.000000
33.146100 0.000000
33.167100 0.000000
33.188100 0.000000
33.209000 0.000000
33.230000 0.000000
33.251000 0.000000
33.271900 0.000000
33.292900 0.000000
33.313900 0.000000
33.334800 0.000000
33.355800 0.000000
e
