set title 'mp-1182030 - Density of States'
set xlabel 'Energy (eV)'
set ylabel 'DOS (states/eV)'
set grid
set xrange [-10:10]
set yrange [0:5.148]
set xzeroaxis lt -1
set terminal png size 800,600
set output 'mp-1182030_dos_gnuplot.png'
plot '-' using 1:2 with lines title 'DOS'
-18.186200 0.000000
-18.157200 0.000000
-18.128300 0.000000
-18.099300 0.000000
-18.070400 0.000000
-18.041400 0.000000
-18.012400 0.000000
-17.983500 0.000000
-17.954500 0.000000
-17.925600 0.000000
-17.896600 0.000000
-17.867700 0.000000
-17.838700 0.000000
-17.809700 0.000000
-17.780800 0.000000
-17.751800 0.000000
-17.722900 0.000000
-17.693900 0.000000
-17.665000 0.000000
-17.636000 0.000000
-17.607000 0.000000
-17.578100 0.000000
-17.549100 0.000000
-17.520200 0.000000
-17.491200 0.000000
-17.462300 0.000000
-17.433300 0.000000
-17.404300 0.000000
-17.375400 0.000000
-17.346400 0.000000
-17.317500 0.000000
-17.288500 0.000000
-17.259600 0.000000
-17.230600 0.000000
-17.201600 0.000000
-17.172700 0.000000
-17.143700 0.000000
-17.114800 0.000000
-17.085800 0.000000
-17.056900 0.000000
-17.027900 0.000000
-16.998900 0.000000
-16.970000 0.000000
-16.941000 0.000000
-16.912100 0.000000
-16.883100 0.000000
-16.854200 0.000000
-16.825200 0.000000
-16.796200 0.000000
-16.767300 0.000000
-16.738300 0.000000
-16.709400 0.000000
-16.680400 0.000000
-16.651500 0.000000
-16.622500 0.000000
-16.593500 0.000000
-16.564600 0.000000
-16.535600 0.000000
-16.506700 0.000000
-16.477700 0.000000
-16.448800 0.000000
-16.419800 0.000000
-16.390800 0.000000
-16.361900 0.000000
-16.332900 0.000000
-16.304000 0.000000
-16.275000 0.000000
-16.246100 0.000000
-16.217100 0.000000
-16.188100 0.000000
-16.159200 0.000000
-16.130200 0.000000
-16.101300 0.000000
-16.072300 0.000000
-16.043400 0.000000
-16.014400 0.000000
-15.985400 0.000000
-15.956500 0.000000
-15.927500 0.000000
-15.898600 0.000000
-15.869600 0.000000
-15.840700 0.000000
-15.811700 0.000000
-15.782700 0.000000
-15.753800 0.000000
-15.724800 0.000000
-15.695900 0.000000
-15.666900 0.000000
-15.638000 0.000000
-15.609000 0.000000
-15.580000 0.000000
-15.551100 0.001100
-15.522100 0.118100
-15.493200 0.317700
-15.464200 0.408500
-15.435300 0.462600
-15.406300 0.546600
-15.377300 0.646700
-15.348400 0.767000
-15.319400 0.913800
-15.290500 1.041900
-15.261500 1.033700
-15.232600 1.001000
-15.203600 1.021900
-15.174600 1.044500
-15.145700 1.058400
-15.116700 1.053900
-15.087800 1.046100
-15.058800 1.047800
-15.029900 1.049300
-15.000900 1.054100
-14.971900 1.059000
-14.943000 1.063100
-14.914000 1.066500
-14.885100 1.066400
-14.856100 1.059200
-14.827200 1.060700
-14.798200 1.070100
-14.769200 1.080400
-14.740300 1.090200
-14.711300 1.092700
-14.682400 1.095000
-14.653400 1.098900
-14.624500 1.102700
-14.595500 1.105900
-14.566500 1.107500
-14.537600 1.105100
-14.508600 1.103500
-14.479700 1.108200
-14.450700 1.114800
-14.421800 1.122600
-14.392800 1.130900
-14.363800 1.139600
-14.334900 1.149100
-14.305900 1.457400
-14.277000 1.517400
-14.248000 1.445100
-14.219100 1.435000
-14.190100 1.438800
-14.161100 1.459200
-14.132200 1.565300
-14.103200 1.306200
-14.074300 1.106800
-14.045300 1.043100
-14.016400 0.981400
-13.987400 0.921800
-13.958400 0.845400
-13.929500 0.808900
-13.900500 0.770200
-13.871600 0.736400
-13.842600 0.758100
-13.813700 1.172000
-13.784700 1.179200
-13.755700 1.224800
-13.726800 1.325600
-13.697800 1.481700
-13.668900 1.739500
-13.639900 1.491900
-13.611000 1.514600
-13.582000 1.535800
-13.553000 1.551200
-13.524100 1.539200
-13.495100 1.581600
-13.466200 1.616700
-13.437200 1.654900
-13.408300 1.750000
-13.379300 1.729900
-13.350300 1.758700
-13.321400 2.142200
-13.292400 2.328500
-13.263500 2.337400
-13.234500 2.143800
-13.205600 2.199600
-13.176600 2.296600
-13.147600 2.245400
-13.118700 1.784900
-13.089700 1.691800
-13.060800 1.620400
-13.031800 1.568900
-13.002900 1.397600
-12.973900 1.339500
-12.944900 1.281300
-12.916000 1.223000
-12.887000 1.193300
-12.858100 1.216400
-12.829100 1.265500
-12.800200 1.316300
-12.771200 1.377200
-12.742200 1.247300
-12.713300 1.188300
-12.684300 1.129200
-12.655400 1.070000
-12.626400 1.010800
-12.597500 0.967100
-12.568500 0.982500
-12.539500 1.059800
-12.510600 1.118400
-12.481600 1.237600
-12.452700 1.133400
-12.423700 1.029200
-12.394800 0.925000
-12.365800 0.833800
-12.336800 1.278500
-12.307900 0.986300
-12.278900 0.252600
-12.250000 0.000000
-12.221000 0.000000
-12.192100 0.000000
-12.163100 0.000000
-12.134100 0.000000
-12.105200 0.000000
-12.076200 0.000000
-12.047300 0.000000
-12.018300 0.000000
-11.989400 0.000000
-11.960400 0.000000
-11.931400 0.000000
-11.902500 0.000000
-11.873500 0.000000
-11.844600 0.000000
-11.815600 0.000000
-11.786700 0.000000
-11.757700 0.000000
-11.728700 0.000000
-11.699800 0.000000
-11.670800 0.000000
-11.641900 0.000000
-11.612900 0.000000
-11.584000 0.000000
-11.555000 0.000000
-11.526000 0.000000
-11.497100 0.000000
-11.468100 0.000000
-11.439200 0.000000
-11.410200 0.000000
-11.381300 0.000000
-11.352300 0.000000
-11.323300 0.000000
-11.294400 0.000000
-11.265400 0.000000
-11.236500 0.000000
-11.207500 0.215400
-11.178600 0.259600
-11.149600 0.340700
-11.120600 0.462600
-11.091700 0.913700
-11.062700 0.756200
-11.033800 0.964000
-11.004800 1.063400
-10.975900 1.008600
-10.946900 1.044600
-10.917900 1.119000
-10.889000 0.930100
-10.860000 0.973400
-10.831100 1.016700
-10.802100 1.060000
-10.773200 1.215400
-10.744200 1.232800
-10.715200 1.256300
-10.686300 1.347900
-10.657300 1.261800
-10.628400 1.233000
-10.599400 1.245200
-10.570500 1.263900
-10.541500 1.288000
-10.512500 1.314400
-10.483600 1.339200
-10.454600 1.396800
-10.425700 1.459900
-10.396700 1.512600
-10.367800 1.574400
-10.338800 1.609900
-10.309800 1.640400
-10.280900 1.679700
-10.251900 1.725600
-10.223000 1.780400
-10.194000 1.838400
-10.165100 1.893900
-10.136100 1.950100
-10.107100 2.161800
-10.078200 2.492300
-10.049200 2.901200
-10.020300 3.270600
-9.991300 3.546100
-9.962400 3.226000
-9.933400 2.767400
-9.904400 2.485200
-9.875500 2.327700
-9.846500 2.172200
-9.817600 1.951300
-9.788600 1.714200
-9.759700 1.451000
-9.730700 1.248500
-9.701700 1.121200
-9.672800 1.088400
-9.643800 1.117700
-9.614900 1.265200
-9.585900 1.215700
-9.557000 1.156000
-9.528000 1.092500
-9.499000 1.028900
-9.470100 0.569000
-9.441100 0.579100
-9.412200 0.589300
-9.383200 0.599500
-9.354300 0.609700
-9.325300 0.619800
-9.296300 0.630000
-9.267400 0.640200
-9.238400 0.650400
-9.209500 0.660500
-9.180500 0.921300
-9.151600 0.957000
-9.122600 0.992700
-9.093600 1.028400
-9.064700 1.063500
-9.035700 1.098300
-9.006800 0.706800
-8.977800 0.699800
-8.948900 0.692800
-8.919900 0.685700
-8.890900 0.678700
-8.862000 0.671700
-8.833000 0.664600
-8.804100 0.657600
-8.775100 0.650600
-8.746200 0.643500
-8.717200 0.636500
-8.688200 0.629500
-8.659300 0.622400
-8.630300 0.614200
-8.601400 0.604900
-8.572400 0.595600
-8.543500 0.586300
-8.514500 0.577000
-8.485500 0.567400
-8.456600 0.560700
-8.427600 0.555200
-8.398700 0.549700
-8.369700 0.544100
-8.340800 0.538600
-8.311800 0.533100
-8.282800 0.527600
-8.253900 0.522100
-8.224900 0.516600
-8.196000 0.511100
-8.167000 0.505600
-8.138100 0.500100
-8.109100 0.494600
-8.080100 0.489100
-8.051200 0.483600
-8.022200 0.478400
-7.993300 0.473200
-7.964300 0.468000
-7.935400 0.462900
-7.906400 0.458200
-7.877400 0.453500
-7.848500 0.448100
-7.819500 0.442600
-7.790600 0.437200
-7.761600 0.431800
-7.732700 0.426300
-7.703700 0.420900
-7.674700 0.415400
-7.645800 0.410000
-7.616800 0.404500
-7.587900 0.399100
-7.558900 0.393600
-7.530000 0.388200
-7.501000 0.382800
-7.472000 0.378800
-7.443100 0.379900
-7.414100 0.381000
-7.385200 0.382200
-7.356200 0.383300
-7.327300 0.384400
-7.298300 0.380400
-7.269300 0.370800
-7.240400 0.361100
-7.211400 0.351500
-7.182500 0.341900
-7.153500 0.332200
-7.124600 0.322600
-7.095600 0.312900
-7.066600 0.303300
-7.037700 0.295600
-7.008700 0.305500
-6.979800 0.318400
-6.950800 0.331300
-6.921900 0.344200
-6.892900 0.357100
-6.863900 0.365600
-6.835000 0.319900
-6.806000 0.260200
-6.777100 0.200500
-6.748100 0.140800
-6.719200 0.081100
-6.690200 0.021300
-6.661200 0.000000
-6.632300 0.000000
-6.603300 0.000000
-6.574400 0.000000
-6.545400 0.000000
-6.516500 0.000000
-6.487500 0.000000
-6.458500 0.000000
-6.429600 0.000000
-6.400600 0.000000
-6.371700 0.000000
-6.342700 0.000000
-6.313800 0.000000
-6.284800 0.000000
-6.255800 0.000000
-6.226900 0.000000
-6.197900 0.000000
-6.169000 0.000000
-6.140000 0.000000
-6.111100 0.000000
-6.082100 0.000000
-6.053100 0.000000
-6.024200 0.000000
-5.995200 0.000000
-5.966300 0.000000
-5.937300 0.000000
-5.908400 0.000000
-5.879400 0.000000
-5.850400 0.000000
-5.821500 0.000000
-5.792500 0.000000
-5.763600 0.000000
-5.734600 0.000000
-5.705700 0.000000
-5.676700 0.000000
-5.647700 0.000000
-5.618800 0.000000
-5.589800 0.000000
-5.560900 0.000000
-5.531900 0.000000
-5.503000 0.000000
-5.474000 0.000000
-5.445000 0.000000
-5.416100 0.000000
-5.387100 0.000000
-5.358200 0.000000
-5.329200 0.000000
-5.300300 0.000000
-5.271300 0.000000
-5.242300 0.000000
-5.213400 0.000000
-5.184400 0.000000
-5.155500 0.000000
-5.126500 0.000000
-5.097600 0.000000
-5.068600 0.000000
-5.039600 0.000000
-5.010700 0.000000
-4.981700 0.000000
-4.952800 0.000000
-4.923800 0.000000
-4.894900 0.000000
-4.865900 0.000000
-4.836900 0.000000
-4.808000 0.000000
-4.779000 0.000000
-4.750100 0.023200
-4.721100 0.160700
-4.692200 0.212200
-4.663200 0.279400
-4.634200 0.366700
-4.605300 0.465100
-4.576300 0.586700
-4.547400 0.729700
-4.518400 0.949400
-4.489500 1.132100
-4.460500 1.154100
-4.431500 1.162400
-4.402600 1.193000
-4.373600 1.221700
-4.344700 1.224600
-4.315700 1.176100
-4.286800 1.138500
-4.257800 1.120400
-4.228800 1.133500
-4.199900 1.148200
-4.170900 1.165000
-4.142000 1.179800
-4.113000 1.186500
-4.084100 1.190400
-4.055100 1.192100
-4.026100 1.201000
-3.997200 1.214800
-3.968200 1.228800
-3.939300 1.242700
-3.910300 1.256100
-3.881400 1.267300
-3.852400 1.274900
-3.823400 1.273400
-3.794500 1.264500
-3.765500 1.268700
-3.736600 1.280900
-3.707600 1.289900
-3.678700 1.300000
-3.649700 1.310200
-3.620700 1.381300
-3.591800 1.420300
-3.562800 1.447200
-3.533900 1.467100
-3.504900 1.488600
-3.476000 1.544100
-3.447000 1.577700
-3.418000 1.528400
-3.389100 1.423200
-3.360100 1.210000
-3.331200 1.197700
-3.302200 1.186000
-3.273300 1.174500
-3.244300 1.162400
-3.215300 1.149600
-3.186400 1.212600
-3.157400 1.263400
-3.128500 1.316600
-3.099500 1.376700
-3.070600 1.480700
-3.041600 1.627000
-3.012600 1.690600
-2.983700 1.759400
-2.954700 1.749900
-2.925800 1.668600
-2.896800 1.716500
-2.867900 1.742600
-2.838900 1.750800
-2.809900 1.750500
-2.781000 1.747600
-2.752000 1.742000
-2.723100 1.718800
-2.694100 1.670500
-2.665200 1.602700
-2.636200 1.506900
-2.607200 1.456300
-2.578300 1.423900
-2.549300 1.401400
-2.520400 1.393700
-2.491400 1.427800
-2.462500 1.445500
-2.433500 1.459900
-2.404500 1.468200
-2.375600 1.480900
-2.346600 1.504000
-2.317700 1.537800
-2.288700 1.620600
-2.259800 1.724200
-2.230800 1.821200
-2.201800 1.910900
-2.172900 1.982900
-2.143900 2.053500
-2.115000 2.110200
-2.086000 2.167800
-2.057100 2.171000
-2.028100 2.194600
-1.999100 2.213500
-1.970200 2.211400
-1.941200 2.228000
-1.912300 2.311300
-1.883300 2.374300
-1.854400 2.415300
-1.825400 2.441500
-1.796400 2.451400
-1.767500 2.434400
-1.738500 2.425700
-1.709600 2.499200
-1.680600 2.459500
-1.651700 2.552400
-1.622700 3.100900
-1.593700 3.068400
-1.564800 3.081300
-1.535800 2.909600
-1.506900 2.667500
-1.477900 2.499500
-1.449000 2.463200
-1.420000 2.443000
-1.391000 2.442900
-1.362100 2.335800
-1.333100 2.178900
-1.304200 2.221600
-1.275200 2.278200
-1.246300 2.262000
-1.217300 2.305600
-1.188300 2.296800
-1.159400 2.316200
-1.130400 2.368900
-1.101500 2.469700
-1.072500 2.494800
-1.043600 2.529600
-1.014600 2.600300
-0.985600 2.671400
-0.956700 2.783100
-0.927700 2.950500
-0.898800 3.120800
-0.869800 3.217400
-0.840900 3.012200
-0.811900 3.066600
-0.782900 3.026300
-0.754000 2.807000
-0.725000 2.623600
-0.696100 2.535900
-0.667100 2.504800
-0.638200 2.445500
-0.609200 2.380100
-0.580200 2.348300
-0.551300 2.347000
-0.522300 2.375500
-0.493400 2.437400
-0.464400 2.451900
-0.435500 2.495700
-0.406500 2.527100
-0.377500 2.359700
-0.348600 2.288800
-0.319600 2.224400
-0.290700 2.126800
-0.261700 2.069300
-0.232800 2.020500
-0.203800 1.944800
-0.174800 1.856700
-0.145900 1.767100
-0.116900 1.672500
-0.088000 1.427000
-0.059000 1.315600
-0.030100 1.267100
-0.001100 1.240200
0.027900 1.238800
0.056800 1.315500
0.085800 1.464000
0.114700 1.582900
0.143700 1.665800
0.172600 1.729600
0.201600 1.641200
0.230600 1.859500
0.259500 2.021800
0.288500 2.190000
0.317400 2.741800
0.346400 3.269000
0.375300 3.042800
0.404300 3.078500
0.433300 3.248700
0.462200 3.179300
0.491200 3.089000
0.520100 3.128300
0.549100 3.124900
0.578000 3.156600
0.607000 3.191700
0.636000 3.244700
0.664900 3.317400
0.693900 3.356100
0.722800 3.390500
0.751800 3.439500
0.780700 3.868200
0.809700 4.144900
0.838700 3.731000
0.867600 3.798100
0.896600 4.089900
0.925500 4.178900
0.954500 3.619700
0.983400 3.042800
1.012400 2.746500
1.041400 2.303700
1.070300 2.102000
1.099300 1.780800
1.128200 1.559400
1.157200 1.222700
1.186100 0.678900
1.215100 0.631600
1.244100 0.586600
1.273000 0.543900
1.302000 0.503400
1.330900 0.465200
1.359900 0.429300
1.388800 0.395700
1.417800 0.365000
1.446800 0.350300
1.475700 0.349500
1.504700 0.358900
1.533600 0.375300
1.562600 0.403700
1.591500 0.441100
1.620500 0.486400
1.649500 0.537600
1.678400 0.599400
1.707400 0.562100
1.736300 0.649700
1.765300 0.958900
1.794200 1.164200
1.823200 1.334800
1.852200 1.319000
1.881100 1.310800
1.910100 1.318000
1.939000 1.365500
1.968000 1.418600
1.996900 1.488100
2.025900 1.738200
2.054900 1.846400
2.083800 2.065700
2.112800 2.487000
2.141700 2.477700
2.170700 3.266000
2.199600 3.915500
2.228600 3.850900
2.257600 4.024200
2.286500 4.105000
2.315500 4.270500
2.344400 4.492200
2.373400 4.450200
2.402300 4.319300
2.431300 4.680000
2.460300 3.958500
2.489200 2.796400
2.518200 2.414500
2.547100 2.273800
2.576100 2.173500
2.605000 1.869000
2.634000 1.668900
2.663000 1.455000
2.691900 1.414400
2.720900 1.666000
2.749800 1.774400
2.778800 1.987800
2.807700 2.248500
2.836700 2.491400
2.865700 2.661000
2.894600 2.924900
2.923600 2.815100
2.952500 3.367300
2.981500 4.069600
3.010400 3.941300
3.039400 4.246400
3.068400 4.512000
3.097300 2.928700
3.126300 2.125800
3.155200 1.992100
3.184200 0.710700
3.213100 0.640400
3.242100 0.610000
3.271100 0.579600
3.300000 0.553800
3.329000 0.557700
3.357900 0.593700
3.386900 0.635800
3.415800 0.590200
3.444800 0.889600
3.473800 0.533600
3.502700 1.561400
3.531700 1.482500
3.560600 1.244600
3.589600 1.062100
3.618500 0.990200
3.647500 0.928600
3.676500 0.888000
3.705400 0.840300
3.734400 0.782500
3.763300 0.680400
3.792300 0.749800
3.821200 0.933200
3.850200 1.257300
3.879200 1.308400
3.908100 1.359500
3.937100 1.410500
3.966000 1.461500
3.995000 1.512600
4.023900 1.563600
4.052900 1.843300
4.081900 3.073100
4.110800 3.531400
4.139800 3.397400
4.168700 2.283100
4.197700 3.004500
4.226600 1.309000
4.255600 1.130400
4.284600 1.154100
4.313500 1.155000
4.342500 1.229500
4.371400 1.226600
4.400400 1.229900
4.429300 1.241600
4.458300 1.257800
4.487300 1.299900
4.516200 1.276900
4.545200 1.235900
4.574100 1.216200
4.603100 1.218400
4.632000 1.226100
4.661000 1.250600
4.690000 1.280200
4.718900 1.314000
4.747900 1.337000
4.776800 1.366000
4.805800 1.397500
4.834700 1.439000
4.863700 1.485400
4.892700 1.664600
4.921600 1.815700
4.950600 1.882100
4.979500 1.952200
5.008500 2.206500
5.037400 2.443000
5.066400 2.591800
5.095400 2.591400
5.124300 2.361000
5.153300 2.028800
5.182200 2.053000
5.211200 2.285500
5.240100 2.732300
5.269100 2.980300
5.298100 2.842900
5.327000 2.725700
5.356000 2.631800
5.384900 2.714800
5.413900 2.813500
5.442800 3.050700
5.471800 2.812400
5.500800 2.810500
5.529700 2.818300
5.558700 2.837800
5.587600 2.834400
5.616600 2.911400
5.645500 2.847200
5.674500 2.782800
5.703500 2.729100
5.732400 2.747200
5.761400 2.637000
5.790300 2.551300
5.819300 2.470800
5.848200 2.432100
5.877200 2.374100
5.906200 2.334700
5.935100 2.322700
5.964100 2.388600
5.993000 2.512400
6.022000 2.519100
6.050900 2.513500
6.079900 2.468500
6.108900 2.812700
6.137800 2.394100
6.166800 2.227400
6.195700 2.004200
6.224700 1.929100
6.253600 1.857400
6.282600 1.766200
6.311600 1.752000
6.340500 1.747400
6.369500 1.750900
6.398400 1.752700
6.427400 1.758500
6.456300 2.014800
6.485300 2.200400
6.514300 2.169200
6.543200 2.067800
6.572200 2.090000
6.601100 2.025900
6.630100 1.945700
6.659000 1.880700
6.688000 1.793400
6.717000 1.766000
6.745900 1.769100
6.774900 1.778100
6.803800 1.819100
6.832800 1.877100
6.861700 1.903200
6.890700 1.882700
6.919700 1.803400
6.948600 1.748200
6.977600 1.734500
7.006500 1.717500
7.035500 1.701000
7.064400 1.687700
7.093400 1.678600
7.122400 1.680800
7.151300 1.684300
7.180300 1.687600
7.209200 1.704300
7.238200 1.718900
7.267100 1.723000
7.296100 1.723800
7.325100 1.727300
7.354000 1.739300
7.383000 1.710800
7.411900 1.680400
7.440900 1.659100
7.469800 1.662800
7.498800 1.802000
7.527800 1.910400
7.556700 1.741200
7.585700 1.829200
7.614600 1.345500
7.643600 1.048800
7.672500 0.901500
7.701500 0.720300
7.730500 0.373900
7.759400 0.112800
7.788400 0.000000
7.817300 0.000000
7.846300 0.000000
7.875200 0.000000
7.904200 0.000000
7.933200 0.000000
7.962100 0.000000
7.991100 0.000000
8.020000 0.000000
8.049000 0.000000
8.077900 0.000000
8.106900 0.000000
8.135900 0.000000
8.164800 0.000000
8.193800 0.000000
8.222700 0.000000
8.251700 0.000000
8.280600 0.000000
8.309600 0.000000
8.338600 0.000000
8.367500 0.000000
8.396500 0.000000
8.425400 0.000000
8.454400 0.000000
8.483300 0.000000
8.512300 0.000000
8.541300 0.000000
8.570200 0.000000
8.599200 0.000000
8.628100 0.000000
8.657100 0.000000
8.686000 0.000000
8.715000 0.000000
8.744000 0.000000
8.772900 0.000000
8.801900 0.000000
8.830800 0.000000
8.859800 0.000000
8.888700 0.000000
8.917700 0.000000
8.946700 0.000000
8.975600 0.000000
9.004600 0.000000
9.033500 0.000000
9.062500 0.000000
9.091400 0.000000
9.120400 0.000000
9.149400 0.000300
9.178300 0.005900
9.207300 0.018600
9.236200 0.038200
9.265200 0.060800
9.294100 0.085000
9.323100 0.112100
9.352100 0.142100
9.381000 0.175600
9.410000 0.220400
9.438900 0.283400
9.467900 0.358300
9.496800 0.451400
9.525800 0.569000
9.554800 0.696900
9.583700 0.798600
9.612700 0.833400
9.641600 0.845700
9.670600 0.846800
9.699500 0.827100
9.728500 0.840800
9.757500 0.972900
9.786400 0.978800
9.815400 0.957500
9.844300 0.932400
9.873300 0.905600
9.902200 0.854700
9.931200 0.755700
9.960200 0.660200
9.989100 0.672100
10.018100 0.691400
10.047000 0.719100
10.076000 0.746500
10.104900 0.790400
10.133900 0.919400
10.162900 0.934700
10.191800 0.937200
10.220800 0.924800
10.249700 0.902200
10.278700 0.880800
10.307600 0.801100
10.336600 0.800300
10.365600 0.799600
10.394500 0.799200
10.423500 0.794100
10.452400 0.784700
10.481400 0.788300
10.510300 0.791400
10.539300 0.795800
10.568300 0.800700
10.597200 0.813000
10.626200 0.830800
10.655100 0.851900
10.684100 0.875800
10.713000 0.904400
10.742000 0.931400
10.771000 0.954200
10.799900 0.972700
10.828900 0.983400
10.857800 1.007100
10.886800 1.034000
10.915700 1.041900
10.944700 1.044800
10.973700 1.045900
11.002600 1.049700
11.031600 1.057800
11.060500 1.070400
11.089500 1.087500
11.118400 1.110400
11.147400 1.140900
11.176400 1.178100
11.205300 1.228200
11.234300 1.299800
11.263200 1.427200
11.292200 1.521600
11.321100 1.524800
11.350100 1.601200
11.379100 1.678000
11.408000 1.745700
11.437000 1.881800
11.465900 1.654600
11.494900 1.621500
11.523800 1.697700
11.552800 1.700800
11.581800 1.746200
11.610700 1.800000
11.639700 1.920100
11.668600 1.928800
11.697600 1.918000
11.726500 2.047500
11.755500 2.327700
11.784500 2.455100
11.813400 3.430400
11.842400 3.010200
11.871300 2.971600
11.900300 2.877600
11.929200 2.828000
11.958200 2.780800
11.987200 2.745200
12.016100 2.915200
12.045100 3.111700
12.074000 3.417900
12.103000 3.998800
12.131900 4.200500
12.160900 3.897400
12.189900 3.162200
12.218800 2.789200
12.247800 2.516500
12.276700 2.332000
12.305700 2.118700
12.334600 2.071200
12.363600 2.068300
12.392600 2.200500
12.421500 2.362300
12.450500 2.425300
12.479400 2.398400
12.508400 2.862000
12.537300 2.027800
12.566300 2.052900
12.595300 2.142600
12.624200 2.239000
12.653200 2.796400
12.682100 3.476900
12.711100 3.531200
12.740000 3.399500
12.769000 3.094900
12.798000 2.740600
12.826900 2.496300
12.855900 2.279800
12.884800 2.068100
12.913800 2.066800
12.942700 2.175300
12.971700 2.430600
13.000700 2.704400
13.029600 2.686900
13.058600 2.781900
13.087500 2.969500
13.116500 2.621200
13.145400 2.262400
13.174400 2.126100
13.203400 1.880600
13.232300 1.823000
13.261300 1.770400
13.290200 1.746800
13.319200 1.720300
13.348100 1.693800
13.377100 1.672000
13.406100 1.655400
13.435000 1.639100
13.464000 1.612300
13.492900 1.645100
13.521900 1.634300
13.550800 1.623200
13.579800 1.515800
13.608800 1.555900
13.637700 1.606200
13.666700 1.625900
13.695600 1.675700
13.724600 1.687900
13.753500 1.627000
13.782500 1.706800
13.811500 1.773300
13.840400 1.757700
13.869400 1.721000
13.898300 1.680400
13.927300 1.641200
13.956200 1.598300
13.985200 1.470500
14.014200 1.264800
14.043100 1.216100
14.072100 1.114500
14.101000 0.981800
14.130000 0.788000
14.158900 0.643400
14.187900 0.525100
14.216900 0.431200
14.245800 0.361100
14.274800 0.379100
14.303700 0.380500
14.332700 0.370800
14.361600 0.351700
14.390600 0.329500
14.419600 0.308800
14.448500 0.312100
14.477500 0.347800
14.506400 0.373600
14.535400 0.411200
14.564300 0.450900
14.593300 0.491200
14.622300 0.543800
14.651200 0.600100
14.680200 0.656000
14.709100 0.763500
14.738100 0.883600
14.767000 1.039100
14.796000 1.269700
14.825000 1.511000
14.853900 1.852800
14.882900 2.136900
14.911800 2.361700
14.940800 2.558300
14.969700 2.638300
14.998700 2.516900
15.027700 2.382900
15.056600 2.054200
15.085600 1.796300
15.114500 1.635900
15.143500 1.562500
15.172400 1.516000
15.201400 1.506900
15.230400 1.520900
15.259300 1.546900
15.288300 1.622600
15.317200 1.768600
15.346200 1.764900
15.375100 1.792500
15.404100 1.835400
15.433100 1.895400
15.462000 1.957600
15.491000 2.052300
15.519900 2.194600
15.548900 2.303100
15.577800 2.390900
15.606800 2.445200
15.635800 2.443300
15.664700 2.388500
15.693700 2.289700
15.722600 2.153100
15.751600 1.938500
15.780500 1.782600
15.809500 1.717600
15.838500 1.661800
15.867400 1.604200
15.896400 1.582600
15.925300 1.599000
15.954300 1.631500
15.983200 1.678100
16.012200 1.830100
16.041200 2.000000
16.070100 2.100600
16.099100 2.397500
16.128000 2.603800
16.157000 2.396200
16.185900 2.422300
16.214900 2.443600
16.243900 2.495300
16.272800 2.577500
16.301800 2.674500
16.330700 2.797500
16.359700 2.940900
16.388600 3.054500
16.417600 3.192900
16.446600 3.297500
16.475500 3.409000
16.504500 3.344700
16.533400 3.210500
16.562400 3.105600
16.591300 2.858000
16.620300 2.855800
16.649300 2.774900
16.678200 2.725000
16.707200 2.815300
16.736100 3.148200
16.765100 3.450300
16.794000 3.643300
16.823000 3.703500
16.852000 3.813600
16.880900 3.942600
16.909900 4.017800
16.938800 4.081500
16.967800 4.039200
16.996700 3.762800
17.025700 3.601100
17.054700 3.549100
17.083600 3.502700
17.112600 3.530700
17.141500 3.634400
17.170500 3.436300
17.199400 3.230600
17.228400 3.535900
17.257400 3.155300
17.286300 3.897800
17.315300 2.904200
17.344200 2.796800
17.373200 2.689900
17.402100 2.494500
17.431100 2.357600
17.460100 2.265800
17.489000 2.175300
17.518000 2.081700
17.546900 2.035400
17.575900 2.044700
17.604800 2.067800
17.633800 2.095600
17.662800 1.851200
17.691700 1.729700
17.720700 1.762700
17.749600 1.819800
17.778600 2.820000
17.807500 2.170600
17.836500 1.802800
17.865500 1.800100
17.894400 1.785500
17.923400 1.770200
17.952300 1.784800
17.981300 1.792900
18.010200 1.808300
18.039200 1.852400
18.068200 1.890000
18.097100 1.884600
18.126100 1.887200
18.155000 1.939600
18.184000 1.960700
18.212900 1.915500
18.241900 1.849100
18.270900 1.803200
18.299800 1.816300
18.328800 1.830900
18.357700 1.845000
18.386700 1.855100
18.415600 2.111700
18.444600 2.067700
18.473600 1.822700
18.502500 1.713500
18.531500 1.625700
18.560400 1.580300
18.589400 2.526400
18.618300 2.597600
18.647300 2.973600
18.676300 2.739100
18.705200 2.634100
18.734200 2.617900
18.763100 2.512100
18.792100 2.357400
18.821000 2.210200
18.850000 2.144600
18.879000 2.126400
18.907900 2.041400
18.936900 1.991600
18.965800 2.081200
18.994800 1.863000
19.023700 1.789000
19.052700 1.737700
19.081700 1.722800
19.110600 1.709600
19.139600 1.693800
19.168500 1.704300
19.197500 1.728100
19.226400 1.750900
19.255400 1.792300
19.284400 1.846300
19.313300 1.906700
19.342300 2.022200
19.371200 2.183000
19.400200 2.458200
19.429100 2.709500
19.458100 2.912500
19.487100 3.070700
19.516000 2.912600
19.545000 2.443900
19.573900 2.190100
19.602900 2.031700
19.631800 2.027300
19.660800 1.955900
19.689800 1.772500
19.718700 1.718600
19.747700 1.668700
19.776600 1.645700
19.805600 1.646000
19.834500 1.618900
19.863500 1.605300
19.892500 1.601700
19.921400 1.612500
19.950400 1.632700
19.979300 1.735500
20.008300 1.800600
20.037200 1.886200
20.066200 1.929300
20.095200 1.968000
20.124100 2.000500
20.153100 1.993800
20.182000 2.033700
20.211000 2.107700
20.239900 2.278200
20.268900 2.436700
20.297900 2.473900
20.326800 2.449800
20.355800 2.457300
20.384700 2.509300
20.413700 2.685200
20.442600 3.663300
20.471600 3.028800
20.500600 2.924400
20.529500 2.937900
20.558500 2.968900
20.587400 3.337900
20.616400 3.198000
20.645300 2.761100
20.674300 2.603400
20.703300 2.573200
20.732200 2.426800
20.761200 2.319400
20.790100 2.372900
20.819100 2.441600
20.848000 2.395300
20.877000 2.447400
20.906000 2.517800
20.934900 2.530100
20.963900 2.872600
20.992800 3.427200
21.021800 4.377200
21.050700 3.287000
21.079700 2.896200
21.108700 2.835400
21.137600 2.845600
21.166600 2.930200
21.195500 2.953900
21.224500 2.851400
21.253400 2.734300
21.282400 2.765400
21.311400 2.774900
21.340300 2.780200
21.369300 2.889700
21.398200 2.976800
21.427200 3.277700
21.456100 3.056500
21.485100 2.938900
21.514100 2.870500
21.543000 2.801200
21.572000 2.612500
21.600900 2.486700
21.629900 2.384900
21.658800 2.394800
21.687800 2.247600
21.716800 2.246700
21.745700 2.277400
21.774700 2.308100
21.803600 2.444200
21.832600 2.687200
21.861500 2.823700
21.890500 2.801100
21.919500 2.703400
21.948400 2.608000
21.977400 2.531000
22.006300 2.488500
22.035300 2.335000
22.064200 2.146000
22.093200 2.035100
22.122200 2.007000
22.151100 1.996500
22.180100 2.000400
22.209000 2.009700
22.238000 2.018000
22.266900 2.059100
22.295900 2.113100
22.324900 2.174500
22.353800 2.262900
22.382800 2.339800
22.411700 2.424900
22.440700 2.502700
22.469600 2.595600
22.498600 2.667000
22.527600 2.716700
22.556500 2.681200
22.585500 2.702900
22.614400 2.755700
22.643400 2.824400
22.672300 2.712500
22.701300 2.548200
22.730300 2.383900
22.759200 2.322400
22.788200 2.206500
22.817100 2.124300
22.846100 2.041800
22.875000 1.959300
22.904000 1.925700
22.933000 1.919900
22.961900 2.015600
22.990900 2.116500
23.019800 2.205500
23.048800 2.123400
23.077700 1.969300
23.106700 1.814200
23.135700 1.840600
23.164600 1.870800
23.193600 1.789700
23.222500 1.754900
23.251500 1.715400
23.280400 1.726600
23.309400 1.764700
23.338400 1.819800
23.367300 1.894400
23.396300 1.987600
23.425200 2.149700
23.454200 2.159800
23.483100 2.368400
23.512100 2.305600
23.541100 2.073100
23.570000 1.964100
23.599000 1.917700
23.627900 1.902100
23.656900 1.970000
23.685800 1.973400
23.714800 1.999500
23.743800 2.047600
23.772700 2.057400
23.801700 2.117400
23.830600 2.388400
23.859600 2.530100
23.888500 2.730800
23.917500 2.971400
23.946500 3.243500
23.975400 3.311600
24.004400 3.363700
24.033300 3.489200
24.062300 3.518800
24.091200 3.522800
24.120200 3.421400
24.149200 3.412300
24.178100 3.378000
24.207100 3.369600
24.236000 3.465400
24.265000 3.639300
24.293900 3.692500
24.322900 3.714600
24.351900 3.391000
24.380800 3.241100
24.409800 3.146500
24.438700 2.954600
24.467700 2.959100
24.496600 2.855600
24.525600 2.896600
24.554600 3.205100
24.583500 3.112600
24.612500 3.057100
24.641400 3.751600
24.670400 3.339800
24.699300 2.979400
24.728300 3.166900
24.757300 3.541300
24.786200 3.782000
24.815200 3.941700
24.844100 3.692400
24.873100 3.528100
24.902000 3.373300
24.931000 3.214500
24.960000 3.218000
24.988900 2.899200
25.017900 2.466900
25.046800 2.245200
25.075800 2.258500
25.104700 2.262500
25.133700 2.284400
25.162700 2.233600
25.191600 2.125900
25.220600 2.128800
25.249500 2.159700
25.278500 2.156000
25.307400 2.094300
25.336400 2.071200
25.365400 2.140600
25.394300 2.185400
25.423300 2.172300
25.452200 2.174600
25.481200 2.168000
25.510100 2.135000
25.539100 2.107400
25.568100 2.110600
25.597000 2.102800
25.626000 2.339100
25.654900 2.112600
25.683900 2.123300
25.712800 2.132400
25.741800 2.157200
25.770800 2.208100
25.799700 2.249900
25.828700 2.224900
25.857600 2.206300
25.886600 2.192200
25.915500 2.175000
25.944500 2.122200
25.973500 2.108800
26.002400 2.060100
26.031400 2.034600
26.060300 2.012500
26.089300 2.014100
26.118200 2.022200
26.147200 2.109300
26.176200 2.066400
26.205100 2.095700
26.234100 2.125500
26.263000 2.033000
26.292000 2.050800
26.320900 2.138400
26.349900 2.234100
26.378900 2.249200
26.407800 2.320200
26.436800 2.295000
26.465700 2.256200
26.494700 2.057600
26.523600 2.123700
26.552600 2.124700
26.581600 2.132700
26.610500 2.139500
26.639500 2.186200
26.668400 2.233200
26.697400 2.389900
26.726300 2.764700
26.755300 3.296300
26.784300 3.797600
26.813200 3.825400
26.842200 3.983700
26.871100 3.903200
26.900100 3.946300
26.929000 3.876600
26.958000 3.759500
26.987000 3.812200
27.015900 3.924800
27.044900 3.610700
27.073800 3.487300
27.102800 3.256600
27.131700 3.194500
27.160700 3.114500
27.189700 2.789200
27.218600 2.793800
27.247600 3.021000
27.276500 3.119900
27.305500 3.165600
27.334400 3.289800
27.363400 3.693300
27.392400 4.057000
27.421300 4.444000
27.450300 4.653300
27.479200 4.499700
27.508200 4.739800
27.537100 4.398200
27.566100 4.420700
27.595100 4.405800
27.624000 4.011400
27.653000 3.946800
27.681900 3.896900
27.710900 3.516600
27.739800 3.361600
27.768800 3.187200
27.797800 3.133600
27.826700 3.098900
27.855700 3.247900
27.884600 3.142500
27.913600 2.964100
27.942500 3.151000
27.971500 3.409100
28.000500 3.195700
28.029400 3.183700
28.058400 3.193800
28.087300 3.300500
28.116300 3.331200
28.145200 3.425300
28.174200 3.192600
28.203200 3.104100
28.232100 3.099000
28.261100 3.083400
28.290000 3.167100
28.319000 3.049300
28.347900 3.133600
28.376900 3.277500
28.405900 3.516900
28.434800 3.393500
28.463800 3.239700
28.492700 2.997300
28.521700 2.999100
28.550600 3.000000
28.579600 2.980600
28.608600 2.953700
28.637500 2.911900
28.666500 2.548000
28.695400 2.452100
28.724400 2.408600
28.753300 2.377300
28.782300 2.371300
28.811300 2.384900
28.840200 2.395300
28.869200 2.419800
28.898100 2.483100
28.927100 2.559600
28.956000 2.587800
28.985000 2.532900
29.014000 2.574200
29.042900 2.641400
29.071900 2.787800
29.100800 2.726200
29.129800 2.598900
29.158700 2.474700
29.187700 2.406300
29.216700 2.320000
29.245600 2.237000
29.274600 2.178300
29.303500 2.121200
29.332500 2.043300
29.361400 1.994600
29.390400 1.963100
29.419400 1.934200
29.448300 1.901100
29.477300 1.921000
29.506200 1.927500
29.535200 1.998000
29.564100 2.038100
29.593100 2.094400
29.622100 2.127100
29.651000 2.389500
29.680000 2.427200
29.708900 2.499900
29.737900 2.634600
29.766800 2.630600
29.795800 2.618900
29.824800 2.560100
29.853700 2.687200
29.882700 2.618500
29.911600 2.652800
29.940600 2.678800
29.969500 2.701200
29.998500 2.707400
30.027500 2.739500
30.056400 2.754600
30.085400 2.800700
30.114300 2.883000
30.143300 2.929200
30.172200 3.238000
30.201200 3.300400
30.230200 3.120300
30.259100 2.918700
30.288100 3.087500
30.317000 3.307200
30.346000 3.386700
30.374900 3.510100
30.403900 3.567300
30.432900 3.603300
30.461800 3.788200
30.490800 3.743100
30.519700 3.513000
30.548700 3.304500
30.577600 3.233800
30.606600 3.088000
30.635600 2.995100
30.664500 2.965000
30.693500 2.931100
30.722400 3.025800
30.751400 2.962800
30.780300 2.971600
30.809300 3.104400
30.838300 3.000300
30.867200 2.953700
30.896200 2.919500
30.925100 2.871800
30.954100 2.879800
30.983000 2.926000
31.012000 2.963400
31.041000 2.919400
31.069900 2.636900
31.098900 2.599300
31.127800 2.566500
31.156800 2.553200
31.185700 2.506900
31.214700 2.549400
31.243700 2.630800
31.272600 2.827500
31.301600 2.938700
31.330500 2.888800
31.359500 2.907600
31.388400 2.953400
31.417400 3.087100
31.446400 3.168200
31.475300 3.126500
31.504300 3.167900
31.533200 3.137100
31.562200 3.117600
31.591100 3.192600
31.620100 3.079500
31.649100 2.934300
31.678000 2.834200
31.707000 2.744300
31.735900 2.607500
31.764900 2.530600
31.793800 2.430000
31.822800 2.344500
31.851800 2.265200
31.880700 2.231000
31.909700 2.187600
31.938600 2.157700
31.967600 2.155300
31.996500 2.188200
32.025500 2.245100
32.054500 2.308600
32.083400 2.370400
32.112400 2.491300
32.141300 2.794400
32.170300 2.777900
32.199200 2.861200
32.228200 3.040100
32.257200 3.215800
32.286100 3.287800
32.315100 3.292800
32.344000 3.298400
32.373000 3.262100
32.401900 3.205700
32.430900 3.179000
32.459900 3.154200
32.488800 3.115300
32.517800 3.107700
32.546700 3.147500
32.575700 3.212100
32.604600 3.340600
32.633600 3.671700
32.662600 3.640000
32.691500 3.646400
32.720500 3.752400
32.749400 3.237700
32.778400 3.129100
32.807300 3.027500
32.836300 2.979600
32.865300 2.956700
32.894200 2.984900
32.923200 3.035200
32.952100 3.059400
32.981100 3.132800
33.010000 3.155100
33.039000 3.190500
33.068000 3.411500
33.096900 3.512000
33.125900 3.422500
33.154800 3.283500
33.183800 3.388000
33.212700 3.474600
33.241700 3.545100
33.270700 3.589500
33.299600 3.743400
33.328600 3.675000
33.357500 3.678900
33.386500 3.602900
33.415400 3.621100
33.444400 3.421500
33.473400 3.305100
33.502300 3.105700
33.531300 3.083200
33.560200 3.059900
33.589200 3.056600
33.618100 3.178500
33.647100 3.154800
33.676100 3.060000
33.705000 3.021700
33.734000 3.050000
33.762900 3.011000
33.791900 2.943400
33.820800 2.890500
33.849800 2.797800
33.878800 2.762500
33.907700 2.909100
33.936700 2.677300
33.965600 2.662100
33.994600 2.633200
34.023500 2.699400
34.052500 2.720800
34.081500 2.779500
34.110400 2.835000
34.139400 2.938400
34.168300 2.906400
34.197300 2.918800
34.226200 2.857000
34.255200 2.793800
34.284200 2.738000
34.313100 2.705800
34.342100 2.673600
34.371000 2.611400
34.400000 2.625900
34.428900 2.683200
34.457900 2.734000
34.486900 2.803800
34.515800 2.887700
34.544800 2.951300
34.573700 3.155500
34.602700 3.201600
34.631600 3.062800
34.660600 3.027700
34.689600 3.173500
34.718500 3.098300
34.747500 3.035100
34.776400 2.832400
34.805400 2.777700
34.834300 2.747900
34.863300 2.730100
34.892300 2.733100
34.921200 2.778400
34.950200 2.803400
34.979100 2.929600
35.008100 3.157200
35.037000 3.144900
35.066000 3.067200
35.095000 2.970000
35.123900 2.853700
35.152900 2.735200
35.181800 2.641400
35.210800 2.635900
35.239700 2.547500
35.268700 2.434500
35.297700 2.359700
35.326600 2.316600
35.355600 2.063800
35.384500 2.042800
35.413500 1.889600
35.442400 1.704700
35.471400 1.542200
35.500400 1.379000
35.529300 1.282600
35.558300 1.211900
35.587200 1.150900
35.616200 1.084900
35.645100 1.045600
35.674100 1.014700
35.703100 0.991500
35.732000 0.973100
35.761000 0.949600
35.789900 0.918400
35.818900 0.887300
35.847800 0.855100
35.876800 0.829000
35.905800 0.810800
35.934700 0.795900
35.963700 0.790900
35.992600 0.762300
36.021600 0.729900
36.050500 0.703600
36.079500 0.678100
36.108500 0.649700
36.137400 0.621200
36.166400 0.593200
36.195300 0.565400
36.224300 0.538200
36.253200 0.511400
36.282200 0.483400
36.311200 0.462000
36.340100 0.447800
36.369100 0.434400
36.398000 0.420800
36.427000 0.405500
36.455900 0.388100
36.484900 0.370900
36.513900 0.353700
36.542800 0.334500
36.571800 0.315700
36.600700 0.302200
36.629700 0.287300
36.658600 0.272500
36.687600 0.267400
36.716600 0.248300
36.745500 0.220500
36.774500 0.199700
36.803400 0.174900
36.832400 0.150900
36.861300 0.130000
36.890300 0.112400
36.919300 0.097900
36.948200 0.096900
36.977200 0.077200
37.006100 0.034800
37.035100 0.015900
37.064000 0.004300
37.093000 0.000000
37.122000 0.000000
37.150900 0.000000
37.179900 0.000000
37.208800 0.000000
37.237800 0.000000
37.266700 0.000000
37.295700 0.000000
37.324700 0.000000
37.353600 0.000000
37.382600 0.000000
37.411500 0.000000
37.440500 0.000000
37.469400 0.000000
37.498400 0.000000
37.527400 0.000000
37.556300 0.000000
37.585300 0.000000
37.614200 0.000000
37.643200 0.000000
37.672100 0.000000
37.701100 0.000000
37.730100 0.000000
37.759000 0.000000
37.788000 0.000000
37.816900 0.000000
37.845900 0.000000
37.874800 0.000000
37.903800 0.000000
37.932800 0.000000
37.961700 0.000000
37.990700 0.000000
38.019600 0.000000
38.048600 0.000000
38.077500 0.000000
38.106500 0.000000
38.135500 0.000000
38.164400 0.000000
38.193400 0.000000
38.222300 0.000000
38.251300 0.000000
38.280200 0.000000
38.309200 0.000000
38.338200 0.000000
38.367100 0.000000
38.396100 0.000000
38.425000 0.000000
38.454000 0.000000
38.482900 0.000000
38.511900 0.000000
38.540900 0.000000
38.569800 0.000000
38.598800 0.000000
38.627700 0.000000
38.656700 0.000000
38.685600 0.000000
38.714600 0.000000
38.743600 0.000000
38.772500 0.000000
38.801500 0.000000
38.830400 0.000000
38.859400 0.000000
38.888300 0.000000
38.917300 0.000000
38.946300 0.000000
38.975200 0.000000
39.004200 0.000000
39.033100 0.000000
39.062100 0.000000
39.091000 0.000000
39.120000 0.000000
39.149000 0.000000
39.177900 0.000000
39.206900 0.000000
39.235800 0.000000
39.264800 0.000000
39.293700 0.000000
39.322700 0.000000
39.351700 0.000000
39.380600 0.000000
39.409600 0.000000
39.438500 0.000000
39.467500 0.000000
39.496400 0.000000
39.525400 0.000000
39.554400 0.000000
39.583300 0.000000
39.612300 0.000000
39.641200 0.000000
39.670200 0.000000
39.699100 0.000000
39.728100 0.000000
e
