set title 'mp-1066856 - Density of States'
set xlabel 'Energy (eV)'
set ylabel 'DOS (states/eV)'
set grid
set xrange [-10:10]
set yrange [0:19.154]
set xzeroaxis lt -1
set terminal png size 800,600
set output 'mp-1066856_dos_gnuplot.png'
plot '-' using 1:2 with lines title 'DOS'
-18.865100 0.000000
-18.842500 0.000000
-18.819900 0.000000
-18.797300 0.000000
-18.774700 0.000000
-18.752100 0.000000
-18.729500 0.000000
-18.706900 0.000000
-18.684300 0.000000
-18.661700 0.000000
-18.639100 0.000000
-18.616500 0.000000
-18.593900 0.000000
-18.571300 0.000000
-18.548600 0.000000
-18.526000 0.000000
-18.503400 0.000000
-18.480800 0.000000
-18.458200 0.000000
-18.435600 0.000000
-18.413000 0.000000
-18.390400 0.000000
-18.367800 0.000000
-18.345200 0.000000
-18.322600 0.000000
-18.300000 0.000000
-18.277400 0.000000
-18.254800 0.000000
-18.232200 0.000000
-18.209600 0.000000
-18.187000 0.000000
-18.164300 0.000000
-18.141700 0.000000
-18.119100 0.000000
-18.096500 0.000000
-18.073900 0.000000
-18.051300 0.000000
-18.028700 0.000000
-18.006100 0.000000
-17.983500 0.000000
-17.960900 0.000000
-17.938300 0.000000
-17.915700 0.000000
-17.893100 0.000000
-17.870500 0.000000
-17.847900 0.000000
-17.825300 0.000000
-17.802600 0.000000
-17.780000 0.000000
-17.757400 0.000000
-17.734800 0.000000
-17.712200 0.000000
-17.689600 0.000000
-17.667000 0.000000
-17.644400 0.000000
-17.621800 0.000000
-17.599200 0.000000
-17.576600 0.000000
-17.554000 0.000000
-17.531400 0.000000
-17.508800 0.000000
-17.486200 0.000000
-17.463600 0.000000
-17.440900 0.000000
-17.418300 0.000000
-17.395700 0.000000
-17.373100 0.000000
-17.350500 0.000000
-17.327900 0.000000
-17.305300 0.000000
-17.282700 0.000000
-17.260100 0.000000
-17.237500 0.000000
-17.214900 0.000000
-17.192300 0.000000
-17.169700 0.000000
-17.147100 0.000000
-17.124500 0.000000
-17.101900 0.000000
-17.079300 0.000000
-17.056600 0.000000
-17.034000 0.000000
-17.011400 0.000000
-16.988800 0.000000
-16.966200 0.000000
-16.943600 0.000000
-16.921000 0.000000
-16.898400 0.000000
-16.875800 0.000000
-16.853200 0.000000
-16.830600 0.000000
-16.808000 0.008300
-16.785400 0.430200
-16.762800 0.662200
-16.740200 0.864900
-16.717600 1.032200
-16.694900 1.224900
-16.672300 1.417700
-16.649700 1.612600
-16.627100 1.826500
-16.604500 2.087400
-16.581900 2.359600
-16.559300 2.721300
-16.536700 3.140500
-16.514100 3.774100
-16.491500 4.746000
-16.468900 7.785700
-16.446300 11.424500
-16.423700 6.622900
-16.401100 5.212200
-16.378500 4.431300
-16.355900 4.525500
-16.333200 4.319600
-16.310600 4.203200
-16.288000 4.244200
-16.265400 4.316500
-16.242800 4.689500
-16.220200 4.995900
-16.197600 5.681100
-16.175000 8.013000
-16.152400 12.922500
-16.129800 15.150200
-16.107200 15.147900
-16.084600 12.843800
-16.062000 8.711700
-16.039400 3.898000
-16.016800 2.175500
-15.994200 0.096300
-15.971600 0.000000
-15.948900 0.000000
-15.926300 0.000000
-15.903700 0.000000
-15.881100 0.000000
-15.858500 0.000000
-15.835900 0.000000
-15.813300 0.000000
-15.790700 0.000000
-15.768100 0.000000
-15.745500 0.000000
-15.722900 0.000000
-15.700300 0.000000
-15.677700 0.000000
-15.655100 0.000000
-15.632500 0.000000
-15.609900 0.000000
-15.587200 0.000000
-15.564600 0.000000
-15.542000 0.000000
-15.519400 0.000000
-15.496800 0.000000
-15.474200 0.000000
-15.451600 0.000000
-15.429000 0.000000
-15.406400 0.000000
-15.383800 0.000000
-15.361200 0.000000
-15.338600 0.000000
-15.316000 0.000000
-15.293400 0.000000
-15.270800 0.000000
-15.248200 0.000000
-15.225600 0.000000
-15.202900 0.000000
-15.180300 0.000000
-15.157700 0.000000
-15.135100 0.000000
-15.112500 0.000000
-15.089900 0.000000
-15.067300 0.000000
-15.044700 0.000000
-15.022100 0.000000
-14.999500 0.000000
-14.976900 0.000000
-14.954300 0.000000
-14.931700 0.000000
-14.909100 0.000000
-14.886500 0.000000
-14.863900 0.000000
-14.841200 0.000000
-14.818600 0.000000
-14.796000 0.000000
-14.773400 0.000000
-14.750800 0.000000
-14.728200 0.000000
-14.705600 0.000000
-14.683000 0.000000
-14.660400 0.000000
-14.637800 0.000000
-14.615200 0.000000
-14.592600 0.000000
-14.570000 0.000000
-14.547400 0.000000
-14.524800 0.000000
-14.502200 0.000000
-14.479500 0.000000
-14.456900 0.000000
-14.434300 0.000000
-14.411700 0.000000
-14.389100 0.000000
-14.366500 0.000000
-14.343900 0.000000
-14.321300 0.000000
-14.298700 0.000000
-14.276100 0.000000
-14.253500 0.000000
-14.230900 0.000000
-14.208300 0.000000
-14.185700 0.000000
-14.163100 0.000000
-14.140500 0.000000
-14.117900 0.000000
-14.095200 0.000000
-14.072600 0.000000
-14.050000 0.000000
-14.027400 0.000000
-14.004800 0.000000
-13.982200 0.000000
-13.959600 0.000000
-13.937000 0.000000
-13.914400 0.000000
-13.891800 0.000000
-13.869200 0.000000
-13.846600 0.000000
-13.824000 0.000000
-13.801400 0.000000
-13.778800 0.000000
-13.756200 0.000000
-13.733500 0.000000
-13.710900 0.000000
-13.688300 0.000000
-13.665700 0.000000
-13.643100 0.000000
-13.620500 0.000000
-13.597900 0.000000
-13.575300 0.000000
-13.552700 0.000000
-13.530100 0.000000
-13.507500 0.000000
-13.484900 0.000000
-13.462300 0.000000
-13.439700 0.000000
-13.417100 0.000000
-13.394500 0.000000
-13.371900 0.000000
-13.349200 0.000000
-13.326600 0.000000
-13.304000 0.000000
-13.281400 0.000000
-13.258800 0.000000
-13.236200 0.000000
-13.213600 0.000000
-13.191000 0.000000
-13.168400 0.000000
-13.145800 0.000000
-13.123200 0.000000
-13.100600 0.000000
-13.078000 0.000000
-13.055400 0.000000
-13.032800 0.000000
-13.010200 0.000000
-12.987500 0.000000
-12.964900 0.000000
-12.942300 0.000000
-12.919700 0.000000
-12.897100 0.000000
-12.874500 0.000000
-12.851900 0.000000
-12.829300 0.000000
-12.806700 0.000000
-12.784100 0.000000
-12.761500 0.000000
-12.738900 0.000000
-12.716300 0.000000
-12.693700 0.000000
-12.671100 0.000000
-12.648500 0.000000
-12.625800 0.000000
-12.603200 0.000000
-12.580600 0.000000
-12.558000 0.000000
-12.535400 0.000000
-12.512800 0.000000
-12.490200 0.000000
-12.467600 0.000000
-12.445000 0.000000
-12.422400 0.000000
-12.399800 0.000000
-12.377200 0.000000
-12.354600 0.000000
-12.332000 0.000000
-12.309400 0.000000
-12.286800 0.000000
-12.264200 0.000000
-12.241500 0.000000
-12.218900 0.000000
-12.196300 0.000000
-12.173700 0.000000
-12.151100 0.000000
-12.128500 0.000000
-12.105900 0.000000
-12.083300 0.000000
-12.060700 0.000000
-12.038100 0.000000
-12.015500 0.000000
-11.992900 0.000000
-11.970300 0.000000
-11.947700 0.000000
-11.925100 0.000000
-11.902500 0.000000
-11.879800 0.000000
-11.857200 0.000000
-11.834600 0.000000
-11.812000 0.000000
-11.789400 0.000000
-11.766800 0.000000
-11.744200 0.000000
-11.721600 0.000000
-11.699000 0.000000
-11.676400 0.000000
-11.653800 0.000000
-11.631200 0.000000
-11.608600 0.000000
-11.586000 0.000000
-11.563400 0.000000
-11.540800 0.000000
-11.518100 0.000000
-11.495500 0.000000
-11.472900 0.000000
-11.450300 0.000000
-11.427700 0.000000
-11.405100 0.000000
-11.382500 0.000000
-11.359900 0.000000
-11.337300 0.000000
-11.314700 0.000000
-11.292100 0.000000
-11.269500 0.000000
-11.246900 0.000000
-11.224300 0.000000
-11.201700 0.000000
-11.179100 0.000000
-11.156500 0.000000
-11.133800 0.000000
-11.111200 0.000000
-11.088600 0.000000
-11.066000 0.000000
-11.043400 0.000000
-11.020800 0.000000
-10.998200 0.000000
-10.975600 0.000000
-10.953000 0.000000
-10.930400 0.000000
-10.907800 0.000000
-10.885200 0.000000
-10.862600 0.000000
-10.840000 0.000000
-10.817400 0.000000
-10.794800 0.000000
-10.772100 0.000000
-10.749500 0.000000
-10.726900 0.000000
-10.704300 0.000000
-10.681700 0.000000
-10.659100 0.000000
-10.636500 0.000000
-10.613900 0.000000
-10.591300 0.000000
-10.568700 0.000000
-10.546100 0.000000
-10.523500 0.000000
-10.500900 0.000000
-10.478300 0.000000
-10.455700 0.000000
-10.433100 0.000000
-10.410500 0.000000
-10.387800 0.000000
-10.365200 0.000000
-10.342600 0.000000
-10.320000 0.000000
-10.297400 0.000000
-10.274800 0.000000
-10.252200 0.000000
-10.229600 0.000000
-10.207000 0.000000
-10.184400 0.000000
-10.161800 0.000000
-10.139200 0.000000
-10.116600 0.000000
-10.094000 0.000000
-10.071400 0.000000
-10.048800 0.000000
-10.026100 0.000000
-10.003500 0.000000
-9.980900 0.000000
-9.958300 0.000000
-9.935700 0.000000
-9.913100 0.000000
-9.890500 0.000000
-9.867900 0.000000
-9.845300 0.000000
-9.822700 0.000000
-9.800100 0.000000
-9.777500 0.000000
-9.754900 0.000000
-9.732300 0.000000
-9.709700 0.000000
-9.687100 0.000000
-9.664400 0.000000
-9.641800 0.000000
-9.619200 0.000000
-9.596600 0.000000
-9.574000 0.000000
-9.551400 0.000000
-9.528800 0.000000
-9.506200 0.000000
-9.483600 0.000000
-9.461000 0.000000
-9.438400 0.000000
-9.415800 0.000000
-9.393200 0.000000
-9.370600 0.000000
-9.348000 0.000000
-9.325400 0.000000
-9.302800 0.000000
-9.280100 0.000000
-9.257500 0.000000
-9.234900 0.000000
-9.212300 0.000000
-9.189700 0.000000
-9.167100 0.000000
-9.144500 0.000000
-9.121900 0.000000
-9.099300 0.000000
-9.076700 0.000000
-9.054100 0.000000
-9.031500 0.000000
-9.008900 0.000000
-8.986300 0.000000
-8.963700 0.000000
-8.941100 0.000000
-8.918400 0.000000
-8.895800 0.000000
-8.873200 0.000000
-8.850600 0.000000
-8.828000 0.000000
-8.805400 0.000000
-8.782800 0.000000
-8.760200 0.000000
-8.737600 0.000000
-8.715000 0.000000
-8.692400 0.000000
-8.669800 0.000000
-8.647200 0.000000
-8.624600 0.000000
-8.602000 0.000000
-8.579400 0.000000
-8.556800 0.000000
-8.534100 0.000000
-8.511500 0.000000
-8.488900 0.000000
-8.466300 0.000000
-8.443700 0.000000
-8.421100 0.000000
-8.398500 0.000000
-8.375900 0.000000
-8.353300 0.000000
-8.330700 0.000000
-8.308100 0.000000
-8.285500 0.000000
-8.262900 0.000000
-8.240300 0.000000
-8.217700 0.000000
-8.195100 0.000000
-8.172400 0.000000
-8.149800 0.000000
-8.127200 0.000000
-8.104600 0.000000
-8.082000 0.000000
-8.059400 0.000000
-8.036800 0.000000
-8.014200 0.000000
-7.991600 0.000000
-7.969000 0.000000
-7.946400 0.000000
-7.923800 0.000000
-7.901200 0.000000
-7.878600 0.000000
-7.856000 0.000000
-7.833400 0.000000
-7.810700 0.000000
-7.788100 0.000000
-7.765500 0.000000
-7.742900 0.000000
-7.720300 0.000000
-7.697700 0.000000
-7.675100 0.000000
-7.652500 0.000000
-7.629900 0.000000
-7.607300 0.000000
-7.584700 0.000000
-7.562100 0.000000
-7.539500 0.000000
-7.516900 0.000000
-7.494300 0.000000
-7.471700 0.000000
-7.449100 0.000000
-7.426400 0.000000
-7.403800 0.000000
-7.381200 0.000000
-7.358600 0.000000
-7.336000 0.000000
-7.313400 0.000000
-7.290800 0.000000
-7.268200 0.000000
-7.245600 0.000000
-7.223000 0.000000
-7.200400 0.000000
-7.177800 0.000000
-7.155200 0.000000
-7.132600 0.000000
-7.110000 0.000000
-7.087400 0.000000
-7.064700 0.000000
-7.042100 0.000000
-7.019500 0.000000
-6.996900 0.000000
-6.974300 0.000000
-6.951700 0.000000
-6.929100 0.000000
-6.906500 0.000000
-6.883900 0.000000
-6.861300 0.000000
-6.838700 0.000000
-6.816100 0.000000
-6.793500 0.000000
-6.770900 0.000000
-6.748300 0.000000
-6.725700 0.000000
-6.703000 0.000000
-6.680400 0.000000
-6.657800 0.000000
-6.635200 0.000000
-6.612600 0.000000
-6.590000 0.000000
-6.567400 0.000000
-6.544800 0.000000
-6.522200 0.000000
-6.499600 0.000000
-6.477000 0.000000
-6.454400 0.000000
-6.431800 0.000000
-6.409200 0.000000
-6.386600 0.000000
-6.364000 0.000000
-6.341400 0.000000
-6.318700 0.000000
-6.296100 0.000000
-6.273500 0.000000
-6.250900 0.000000
-6.228300 0.000000
-6.205700 0.000000
-6.183100 0.000000
-6.160500 0.000000
-6.137900 0.000000
-6.115300 0.000000
-6.092700 0.000000
-6.070100 0.000000
-6.047500 0.000000
-6.024900 0.000000
-6.002300 0.000000
-5.979700 0.000000
-5.957000 0.000000
-5.934400 0.000000
-5.911800 0.000000
-5.889200 0.000000
-5.866600 0.000000
-5.844000 0.000000
-5.821400 0.000000
-5.798800 0.000000
-5.776200 0.000000
-5.753600 0.000000
-5.731000 0.000000
-5.708400 0.000000
-5.685800 0.000000
-5.663200 0.000000
-5.640600 0.000000
-5.618000 0.000000
-5.595400 0.000000
-5.572700 0.000000
-5.550100 0.000000
-5.527500 0.000000
-5.504900 0.000000
-5.482300 0.000000
-5.459700 0.000000
-5.437100 0.005300
-5.414500 0.063900
-5.391900 0.122300
-5.369300 0.157300
-5.346700 0.185700
-5.324100 0.210400
-5.301500 0.228600
-5.278900 0.255600
-5.256300 0.287600
-5.233700 0.318400
-5.211000 0.337500
-5.188400 0.357100
-5.165800 0.382000
-5.143200 0.406900
-5.120600 0.433700
-5.098000 0.457500
-5.075400 0.487600
-5.052800 0.519400
-5.030200 0.551500
-5.007600 0.584200
-4.985000 0.622400
-4.962400 0.668700
-4.939800 0.710200
-4.917200 0.751300
-4.894600 0.798700
-4.872000 0.863000
-4.849300 0.931300
-4.826700 1.000400
-4.804100 1.116200
-4.781500 1.217200
-4.758900 1.384300
-4.736300 1.669800
-4.713700 2.093100
-4.691100 3.586100
-4.668500 3.484500
-4.645900 3.339700
-4.623300 3.254000
-4.600700 3.006700
-4.578100 3.044200
-4.555500 3.004800
-4.532900 2.975300
-4.510300 2.714900
-4.487700 2.632100
-4.465000 2.514100
-4.442400 2.354900
-4.419800 2.344400
-4.397200 2.293900
-4.374600 2.799000
-4.352000 3.678200
-4.329400 6.556000
-4.306800 9.160400
-4.284200 10.665400
-4.261600 10.132300
-4.239000 9.348700
-4.216400 9.028400
-4.193800 8.144300
-4.171200 8.204500
-4.148600 10.108900
-4.126000 8.465000
-4.103300 7.559700
-4.080700 6.691300
-4.058100 6.289600
-4.035500 6.679400
-4.012900 7.636200
-3.990300 6.986900
-3.967700 6.121600
-3.945100 5.602200
-3.922500 5.428000
-3.899900 4.903100
-3.877300 4.757600
-3.854700 4.469800
-3.832100 4.439400
-3.809500 4.431400
-3.786900 4.034400
-3.764300 3.786700
-3.741700 3.657500
-3.719000 3.313700
-3.696400 3.100000
-3.673800 3.372400
-3.651200 3.303100
-3.628600 3.172000
-3.606000 3.382200
-3.583400 3.520400
-3.560800 3.910600
-3.538200 3.817500
-3.515600 3.879800
-3.493000 3.779800
-3.470400 3.722100
-3.447800 3.751300
-3.425200 3.886000
-3.402600 4.029500
-3.380000 4.211300
-3.357300 4.315700
-3.334700 4.367700
-3.312100 4.526400
-3.289500 4.768900
-3.266900 4.545100
-3.244300 4.690800
-3.221700 4.989400
-3.199100 5.086400
-3.176500 5.432900
-3.153900 5.735500
-3.131300 5.149400
-3.108700 4.562400
-3.086100 4.353800
-3.063500 4.363600
-3.040900 4.237200
-3.018300 4.155200
-2.995600 4.295700
-2.973000 4.138400
-2.950400 4.179100
-2.927800 4.213500
-2.905200 4.296000
-2.882600 4.346000
-2.860000 4.401700
-2.837400 4.430300
-2.814800 4.585400
-2.792200 4.604500
-2.769600 4.287800
-2.747000 4.299400
-2.724400 4.467800
-2.701800 4.742100
-2.679200 4.618400
-2.656600 4.090200
-2.634000 4.028300
-2.611300 3.899400
-2.588700 4.383700
-2.566100 4.754400
-2.543500 5.603600
-2.520900 5.953900
-2.498300 5.359200
-2.475700 5.419000
-2.453100 5.942600
-2.430500 6.101900
-2.407900 5.610200
-2.385300 6.169800
-2.362700 6.743200
-2.340100 6.685400
-2.317500 6.699100
-2.294900 6.926800
-2.272300 7.226800
-2.249600 7.616200
-2.227000 8.318400
-2.204400 8.512500
-2.181800 8.861400
-2.159200 9.287700
-2.136600 8.740300
-2.114000 8.004400
-2.091400 8.756400
-2.068800 9.666100
-2.046200 11.867700
-2.023600 11.871600
-2.001000 12.799900
-1.978400 14.165600
-1.955800 12.911900
-1.933200 10.632000
-1.910600 13.038600
-1.887900 16.640400
-1.865300 16.564600
-1.842700 14.396700
-1.820100 13.956700
-1.797500 17.412700
-1.774900 16.169400
-1.752300 14.688400
-1.729700 12.812500
-1.707100 11.639400
-1.684500 10.809400
-1.661900 7.243000
-1.639300 4.317400
-1.616700 3.936000
-1.594100 3.276000
-1.571500 2.512200
-1.548900 1.654200
-1.526300 1.379900
-1.503600 1.009200
-1.481000 0.841500
-1.458400 0.967500
-1.435800 1.235900
-1.413200 1.572800
-1.390600 2.154000
-1.368000 2.919600
-1.345400 2.943900
-1.322800 2.854500
-1.300200 2.938000
-1.277600 2.991600
-1.255000 2.986100
-1.232400 3.048100
-1.209800 3.165300
-1.187200 3.411400
-1.164600 3.753400
-1.141900 4.166600
-1.119300 4.673000
-1.096700 5.219800
-1.074100 5.766100
-1.051500 6.615300
-1.028900 6.568400
-1.006300 6.745500
-0.983700 6.103800
-0.961100 5.503600
-0.938500 5.018200
-0.915900 4.939700
-0.893300 4.671700
-0.870700 4.738200
-0.848100 5.033700
-0.825500 5.845300
-0.802900 6.458300
-0.780300 6.402300
-0.757600 6.400700
-0.735000 6.996100
-0.712400 8.128300
-0.689800 9.336300
-0.667200 9.398700
-0.644600 9.074100
-0.622000 8.862900
-0.599400 8.979300
-0.576800 9.302700
-0.554200 9.024700
-0.531600 9.150300
-0.509000 8.246700
-0.486400 7.430700
-0.463800 7.684300
-0.441200 7.440200
-0.418600 7.559800
-0.395900 8.971200
-0.373300 7.997100
-0.350700 7.747800
-0.328100 8.684700
-0.305500 8.852500
-0.282900 8.603900
-0.260300 6.860200
-0.237700 5.512600
-0.215100 4.511500
-0.192500 3.868700
-0.169900 2.931900
-0.147300 2.400400
-0.124700 2.004100
-0.102100 1.828900
-0.079500 1.706900
-0.056900 1.564400
-0.034200 1.451200
-0.011600 1.024500
0.011000 0.622800
0.033600 0.480100
0.056200 0.281500
0.078800 0.280200
0.101400 0.447600
0.124000 0.514200
0.146600 0.510100
0.169200 0.561300
0.191800 0.591400
0.214400 0.581200
0.237000 0.588900
0.259600 0.645100
0.282200 0.480300
0.304800 0.452000
0.327400 0.441800
0.350100 0.441200
0.372700 0.444600
0.395300 0.451000
0.417900 0.458400
0.440500 0.467100
0.463100 0.477200
0.485700 0.494400
0.508300 0.516600
0.530900 0.561200
0.553500 0.616500
0.576100 0.677700
0.598700 0.731800
0.621300 0.784100
0.643900 0.830700
0.666500 0.890000
0.689100 0.974700
0.711800 1.092000
0.734400 1.168500
0.757000 1.243800
0.779600 1.339700
0.802200 1.448700
0.824800 1.658000
0.847400 1.797500
0.870000 1.928700
0.892600 1.986200
0.915200 2.089300
0.937800 2.207700
0.960400 2.229400
0.983000 2.179600
1.005600 2.137800
1.028200 2.039500
1.050800 1.957900
1.073400 1.905800
1.096100 1.873200
1.118700 1.876400
1.141300 1.918500
1.163900 2.007800
1.186500 2.075500
1.209100 2.109500
1.231700 2.192800
1.254300 2.275600
1.276900 2.301200
1.299500 2.329500
1.322100 2.082300
1.344700 1.945900
1.367300 1.936000
1.389900 1.953000
1.412500 1.948900
1.435100 1.889800
1.457800 1.910800
1.480400 1.944500
1.503000 1.933000
1.525600 1.987300
1.548200 1.903200
1.570800 1.885000
1.593400 1.698700
1.616000 1.623200
1.638600 1.619500
1.661200 1.651100
1.683800 1.736200
1.706400 1.746400
1.729000 1.789100
1.751600 1.842100
1.774200 1.947000
1.796800 2.006300
1.819500 2.136800
1.842100 2.257200
1.864700 2.280500
1.887300 2.387200
1.909900 2.512400
1.932500 2.664500
1.955100 2.783400
1.977700 3.061900
2.000300 3.294500
2.022900 3.821400
2.045500 4.659800
2.068100 4.721700
2.090700 5.013100
2.113300 4.185000
2.135900 3.304600
2.158500 2.872200
2.181100 2.534100
2.203800 2.316700
2.226400 2.025100
2.249000 1.713100
2.271600 1.487900
2.294200 1.172900
2.316800 0.982400
2.339400 0.828700
2.362000 0.694600
2.384600 0.545400
2.407200 0.410900
2.429800 0.355300
2.452400 0.336500
2.475000 0.307200
2.497600 0.225000
2.520200 0.145900
2.542800 0.071300
2.565500 0.043300
2.588100 0.045300
2.610700 0.048400
2.633300 0.051800
2.655900 0.055400
2.678500 0.059000
2.701100 0.062800
2.723700 0.066300
2.746300 0.069300
2.768900 0.072200
2.791500 0.074900
2.814100 0.077800
2.836700 0.080700
2.859300 0.083300
2.881900 0.085900
2.904500 0.088600
2.927200 0.091400
2.949800 0.094300
2.972400 0.097400
2.995000 0.100500
3.017600 0.103700
3.040200 0.107000
3.062800 0.110200
3.085400 0.113300
3.108000 0.116200
3.130600 0.119200
3.153200 0.122200
3.175800 0.125300
3.198400 0.128400
3.221000 0.131600
3.243600 0.135000
3.266200 0.138300
3.288800 0.141700
3.311500 0.145000
3.334100 0.148300
3.356700 0.151700
3.379300 0.155100
3.401900 0.158500
3.424500 0.162000
3.447100 0.165600
3.469700 0.169300
3.492300 0.172900
3.514900 0.176500
3.537500 0.180000
3.560100 0.183700
3.582700 0.187500
3.605300 0.191400
3.627900 0.195300
3.650500 0.199300
3.673200 0.203300
3.695800 0.207300
3.718400 0.211400
3.741000 0.215500
3.763600 0.219600
3.786200 0.223700
3.808800 0.227900
3.831400 0.232200
3.854000 0.236500
3.876600 0.240900
3.899200 0.245300
3.921800 0.249700
3.944400 0.254300
3.967000 0.259200
3.989600 0.264000
4.012200 0.268800
4.034800 0.273800
4.057500 0.278700
4.080100 0.283700
4.102700 0.288800
4.125300 0.293800
4.147900 0.298900
4.170500 0.304100
4.193100 0.309400
4.215700 0.314800
4.238300 0.322700
4.260900 0.335700
4.283500 0.350300
4.306100 0.359200
4.328700 0.361500
4.351300 0.363900
4.373900 0.365800
4.396500 0.370700
4.419200 0.376200
4.441800 0.381800
4.464400 0.387000
4.487000 0.391500
4.509600 0.395600
4.532200 0.399300
4.554800 0.402800
4.577400 0.420100
4.600000 0.439000
4.622600 0.454300
4.645200 0.464200
4.667800 0.474600
4.690400 0.486900
4.713000 0.499600
4.735600 0.526400
4.758200 0.552900
4.780900 0.570700
4.803500 0.583900
4.826100 0.598600
4.848700 0.613500
4.871300 0.629900
4.893900 0.646700
4.916500 0.663900
4.939100 0.682000
4.961700 0.700600
4.984300 0.720500
5.006900 0.744400
5.029500 0.771700
5.052100 0.801100
5.074700 0.839000
5.097300 0.882300
5.119900 0.913700
5.142500 0.925200
5.165200 0.932800
5.187800 0.956700
5.210400 0.986000
5.233000 0.996100
5.255600 1.006600
5.278200 1.024900
5.300800 1.044200
5.323400 1.063300
5.346000 1.081600
5.368600 1.099200
5.391200 1.119200
5.413800 1.139700
5.436400 1.168000
5.459000 1.195200
5.481600 1.224700
5.504200 1.259100
5.526900 1.304600
5.549500 1.355100
5.572100 1.404200
5.594700 1.453300
5.617300 1.503900
5.639900 1.615000
5.662500 1.668900
5.685100 1.714000
5.707700 1.780500
5.730300 1.866200
5.752900 1.956700
5.775500 2.061200
5.798100 2.220500
5.820700 2.788100
5.843300 2.904400
5.865900 2.859800
5.888500 2.638800
5.911200 2.047000
5.933800 1.783200
5.956400 1.594400
5.979000 1.470000
6.001600 1.442600
6.024200 1.471900
6.046800 1.105400
6.069400 0.923700
6.092000 0.828600
6.114600 0.753500
6.137200 0.725300
6.159800 0.700400
6.182400 0.679200
6.205000 0.665000
6.227600 0.657000
6.250200 0.651200
6.272900 0.645000
6.295500 0.606500
6.318100 0.634400
6.340700 0.670900
6.363300 0.708300
6.385900 0.750400
6.408500 0.796700
6.431100 0.862000
6.453700 0.955400
6.476300 1.074700
6.498900 1.294600
6.521500 3.275600
6.544100 1.535800
6.566700 1.696800
6.589300 1.660900
6.611900 1.703000
6.634600 1.813600
6.657200 1.966900
6.679800 2.032600
6.702400 2.049800
6.725000 2.057400
6.747600 2.076200
6.770200 2.135800
6.792800 2.169300
6.815400 2.182800
6.838000 2.254100
6.860600 2.259900
6.883200 2.352600
6.905800 2.053300
6.928400 1.773100
6.951000 1.624000
6.973600 1.461500
6.996200 1.200100
7.018900 1.144300
7.041500 1.094900
7.064100 1.192700
7.086700 1.152900
7.109300 1.121300
7.131900 1.089200
7.154500 1.073000
7.177100 1.054400
7.199700 1.033500
7.222300 1.015000
7.244900 0.999200
7.267500 0.984300
7.290100 0.949500
7.312700 0.904200
7.335300 0.838000
7.357900 0.809600
7.380600 0.782000
7.403200 0.747900
7.425800 0.719800
7.448400 0.744100
7.471000 0.661000
7.493600 0.618700
7.516200 0.582500
7.538800 0.550000
7.561400 0.519800
7.584000 0.494400
7.606600 0.470900
7.629200 0.445900
7.651800 0.413800
7.674400 0.401200
7.697000 0.390600
7.719600 0.382100
7.742300 0.376200
7.764900 0.371800
7.787500 0.369500
7.810100 0.368600
7.832700 0.368800
7.855300 0.369100
7.877900 0.370500
7.900500 0.374000
7.923100 0.383600
7.945700 0.396500
7.968300 0.408000
7.990900 0.420100
8.013500 0.431700
8.036100 0.442500
8.058700 0.452600
8.081300 0.463000
8.103900 0.474700
8.126600 0.486400
8.149200 0.497600
8.171800 0.510300
8.194400 0.535300
8.217000 0.557300
8.239600 0.559900
8.262200 0.563200
8.284800 0.567800
8.307400 0.564300
8.330000 0.570300
8.352600 0.576600
8.375200 0.581200
8.397800 0.581300
8.420400 0.582600
8.443000 0.580900
8.465600 0.578500
8.488300 0.575400
8.510900 0.573500
8.533500 0.579000
8.556100 0.585300
8.578700 0.591400
8.601300 0.597500
8.623900 0.603600
8.646500 0.610300
8.669100 0.616100
8.691700 0.621200
8.714300 0.627300
8.736900 0.684600
8.759500 0.680400
8.782100 0.690700
8.804700 0.704600
8.827300 0.720500
8.849900 0.732700
8.872600 0.747900
8.895200 0.763700
8.917800 0.779200
8.940400 0.794000
8.963000 0.810600
8.985600 0.835200
9.008200 0.859400
9.030800 0.876800
9.053400 0.887400
9.076000 0.893100
9.098600 0.898700
9.121200 0.910200
9.143800 0.926300
9.166400 0.939300
9.189000 0.963800
9.211600 0.978200
9.234300 0.987400
9.256900 0.996000
9.279500 1.005400
9.302100 1.017000
9.324700 1.024600
9.347300 1.036400
9.369900 1.054300
9.392500 1.068700
9.415100 1.078900
9.437700 1.096000
9.460300 1.112800
9.482900 1.127800
9.505500 1.145900
9.528100 1.167000
9.550700 1.189100
9.573300 1.207300
9.596000 1.231900
9.618600 1.264300
9.641200 1.309900
9.663800 1.352900
9.686400 1.413300
9.709000 1.476500
9.731600 1.571500
9.754200 1.630100
9.776800 1.657300
9.799400 1.793800
9.822000 1.970400
9.844600 1.556800
9.867200 1.313500
9.889800 1.522900
9.912400 1.577900
9.935000 1.547300
9.957600 1.573100
9.980300 1.666000
10.002900 1.803700
10.025500 1.829600
10.048100 1.856700
10.070700 1.825100
10.093300 1.816800
10.115900 1.786800
10.138500 1.762200
10.161100 1.752000
10.183700 1.747700
10.206300 1.713100
10.228900 1.671200
10.251500 1.666400
10.274100 1.664600
10.296700 1.636900
10.319300 1.604900
10.342000 1.585800
10.364600 1.574300
10.387200 1.569300
10.409800 1.545500
10.432400 1.490400
10.455000 1.430300
10.477600 1.397400
10.500200 1.371500
10.522800 1.347300
10.545400 1.319100
10.568000 1.293700
10.590600 1.272500
10.613200 1.256600
10.635800 1.241400
10.658400 1.225500
10.681000 1.212600
10.703600 1.199400
10.726300 1.185300
10.748900 1.169700
10.771500 1.159000
10.794100 1.184500
10.816700 1.164000
10.839300 1.162900
10.861900 1.149000
10.884500 1.148800
10.907100 1.139500
10.929700 1.114600
10.952300 1.098400
10.974900 1.058300
10.997500 0.996100
11.020100 0.929600
11.042700 0.842300
11.065300 0.785500
11.088000 0.740800
11.110600 0.729900
11.133200 0.718800
11.155800 0.708000
11.178400 0.698300
11.201000 0.689300
11.223600 0.697200
11.246200 0.724300
11.268800 0.753400
11.291400 0.810300
11.314000 0.860400
11.336600 0.891100
11.359200 0.912300
11.381800 0.925000
11.404400 0.939100
11.427000 0.952300
11.449700 1.010200
11.472300 1.040300
11.494900 1.026100
11.517500 1.012700
11.540100 1.017600
11.562700 1.026500
11.585300 1.040900
11.607900 1.062000
11.630500 1.090100
11.653100 1.126000
11.675700 1.172800
11.698300 1.229800
11.720900 1.299200
11.743500 1.377000
11.766100 1.453300
11.788700 1.433100
11.811300 1.411200
11.834000 1.385300
11.856600 1.397500
11.879200 1.427100
11.901800 1.451900
11.924400 1.500400
11.947000 1.495400
11.969600 1.519900
11.992200 1.507100
12.014800 1.473700
12.037400 1.486400
12.060000 1.514100
12.082600 1.497400
12.105200 1.488200
12.127800 1.493700
12.150400 1.492100
12.173000 1.482900
12.195700 1.473100
12.218300 1.478700
12.240900 1.486400
12.263500 1.492900
12.286100 1.484200
12.308700 1.488300
12.331300 1.503700
12.353900 1.545000
12.376500 1.593000
12.399100 1.662500
12.421700 1.766400
12.444300 1.808700
12.466900 1.816000
12.489500 1.786700
12.512100 1.827100
12.534700 1.811800
12.557400 1.810400
12.580000 1.801500
12.602600 1.801300
12.625200 1.798200
12.647800 1.839800
12.670400 1.896600
12.693000 1.951900
12.715600 1.845400
12.738200 1.791300
12.760800 1.775400
12.783400 1.758800
12.806000 1.745500
12.828600 1.729500
12.851200 1.721300
12.873800 1.714700
12.896400 1.683300
12.919000 1.635500
12.941700 1.562200
12.964300 1.542000
12.986900 1.572500
13.009500 1.496500
13.032100 1.481300
13.054700 1.473600
13.077300 1.466200
13.099900 1.469000
13.122500 1.485200
13.145100 1.524900
13.167700 1.513000
13.190300 1.436200
13.212900 1.419200
13.235500 1.398500
13.258100 1.326900
13.280700 1.291500
13.303400 1.329800
13.326000 1.402100
13.348600 1.403300
13.371200 1.538000
13.393800 1.633100
13.416400 1.750400
13.439000 1.872000
13.461600 1.980900
13.484200 2.029500
13.506800 2.056700
13.529400 2.076700
13.552000 2.080200
13.574600 2.074200
13.597200 2.074800
13.619800 2.079400
13.642400 2.078600
13.665000 2.059700
13.687700 2.044500
13.710300 2.036200
13.732900 1.986500
13.755500 1.958400
13.778100 1.939900
13.800700 1.928900
13.823300 1.923600
13.845900 1.923800
13.868500 1.927600
13.891100 1.926300
13.913700 1.924600
13.936300 1.902800
13.958900 1.901400
13.981500 1.889000
14.004100 1.897200
14.026700 1.920200
14.049400 1.929900
14.072000 1.933600
14.094600 1.943400
14.117200 1.958500
14.139800 1.982400
14.162400 1.999500
14.185000 2.009600
14.207600 2.017900
14.230200 2.034100
14.252800 2.063800
14.275400 2.095900
14.298000 2.116600
14.320600 2.135500
14.343200 2.160700
14.365800 2.168800
14.388400 2.170100
14.411100 2.145600
14.433700 2.085600
14.456300 1.978000
14.478900 1.907300
14.501500 1.885800
14.524100 1.866400
14.546700 1.848100
14.569300 1.839300
14.591900 1.844600
14.614500 1.861400
14.637100 1.896400
14.659700 1.905100
14.682300 1.919800
14.704900 1.929200
14.727500 1.944000
14.750100 1.964400
14.772700 1.979800
14.795400 2.012200
14.818000 2.033600
14.840600 2.031400
14.863200 2.032200
14.885800 2.019600
14.908400 1.995800
14.931000 2.010500
14.953600 2.012100
14.976200 2.030500
14.998800 2.071300
15.021400 2.122300
15.044000 2.114100
15.066600 2.106200
15.089200 2.106900
15.111800 2.086800
15.134400 2.093700
15.157100 2.103000
15.179700 2.130100
15.202300 2.145600
15.224900 2.141200
15.247500 2.153000
15.270100 2.154800
15.292700 2.144600
15.315300 2.148200
15.337900 2.149400
15.360500 2.140100
15.383100 2.103400
15.405700 2.087200
15.428300 2.085900
15.450900 2.112300
15.473500 2.094700
15.496100 2.132100
15.518700 2.104800
15.541400 2.093200
15.564000 2.056200
15.586600 1.935200
15.609200 1.777200
15.631800 1.614900
15.654400 1.546200
15.677000 1.520100
15.699600 1.472200
15.722200 1.433700
15.744800 1.434900
15.767400 1.365800
15.790000 1.351900
15.812600 1.349800
15.835200 1.362600
15.857800 1.384300
15.880400 1.387000
15.903100 1.382700
15.925700 1.388700
15.948300 1.391000
15.970900 1.414600
15.993500 1.390200
16.016100 1.355800
16.038700 1.292400
16.061300 1.284700
16.083900 1.259200
16.106500 1.233100
16.129100 1.215900
16.151700 1.226000
16.174300 1.249200
16.196900 1.282500
16.219500 1.303900
16.242100 1.327900
16.264800 1.341400
16.287400 1.382800
16.310000 1.471900
16.332600 1.503200
16.355200 1.509900
16.377800 1.492900
16.400400 1.509100
16.423000 1.531700
16.445600 1.553100
16.468200 1.568000
16.490800 1.582400
16.513400 1.626600
16.536000 1.691900
16.558600 1.785400
16.581200 1.814900
16.603800 1.836800
16.626400 1.858700
16.649100 1.830000
16.671700 1.793300
16.694300 1.796200
16.716900 1.796000
16.739500 1.817500
16.762100 1.895300
16.784700 1.935000
16.807300 1.951300
16.829900 1.998300
16.852500 2.026200
16.875100 2.081500
16.897700 2.163900
16.920300 2.065100
16.942900 1.949100
16.965500 1.900100
16.988100 1.827100
17.010800 1.748400
17.033400 1.701700
17.056000 1.693600
17.078600 1.698200
17.101200 1.704000
17.123800 1.710300
17.146400 1.732200
17.169000 1.752200
17.191600 1.777000
17.214200 1.800300
17.236800 1.831700
17.259400 1.873500
17.282000 1.920600
17.304600 1.975800
17.327200 1.999300
17.349800 2.001700
17.372500 1.995100
17.395100 1.998700
17.417700 2.012100
17.440300 2.051600
17.462900 2.067800
17.485500 2.160700
17.508100 2.086600
17.530700 2.077100
17.553300 2.076500
17.575900 2.069400
17.598500 2.059900
17.621100 2.019000
17.643700 1.905000
17.666300 1.819400
17.688900 1.791900
17.711500 1.768100
17.734100 1.764000
17.756800 1.784200
17.779400 1.799000
17.802000 1.798600
17.824600 1.791900
17.847200 1.806200
17.869800 1.791500
17.892400 1.772000
17.915000 1.766300
17.937600 1.744100
17.960200 1.724600
17.982800 1.708000
18.005400 1.695600
18.028000 1.675400
18.050600 1.684400
18.073200 1.687400
18.095800 1.688000
18.118500 1.680800
18.141100 1.686000
18.163700 1.699600
18.186300 1.766300
18.208900 1.727100
18.231500 1.711500
18.254100 1.684300
18.276700 1.663200
18.299300 1.651300
18.321900 1.614600
18.344500 1.601500
18.367100 1.595000
18.389700 1.590300
18.412300 1.590000
18.434900 1.585700
18.457500 1.579400
18.480100 1.583800
18.502800 1.605400
18.525400 1.637700
18.548000 1.661600
18.570600 1.642900
18.593200 1.603600
18.615800 1.580700
18.638400 1.560300
18.661000 1.551100
18.683600 1.544500
18.706200 1.537800
18.728800 1.531000
18.751400 1.525900
18.774000 1.530200
18.796600 1.535400
18.819200 1.538600
18.841800 1.560800
18.864500 1.568200
18.887100 1.556500
18.909700 1.570600
18.932300 1.575700
18.954900 1.569100
18.977500 1.545500
19.000100 1.522600
19.022700 1.507000
19.045300 1.495500
19.067900 1.485200
19.090500 1.477200
19.113100 1.476200
19.135700 1.490200
19.158300 1.466800
19.180900 1.447800
19.203500 1.445000
19.226200 1.443900
19.248800 1.444300
19.271400 1.451900
19.294000 1.457400
19.316600 1.468200
19.339200 1.479500
19.361800 1.474800
19.384400 1.474100
19.407000 1.485500
19.429600 1.507400
19.452200 1.528300
19.474800 1.543100
19.497400 1.545500
19.520000 1.525500
19.542600 1.537000
19.565200 1.549000
19.587800 1.554900
19.610500 1.543200
19.633100 1.539300
19.655700 1.533300
19.678300 1.639400
19.700900 1.653500
19.723500 1.659900
19.746100 1.642100
19.768700 1.622300
19.791300 1.606800
19.813900 1.610400
19.836500 1.626600
19.859100 1.619100
19.881700 1.573100
19.904300 1.569500
19.926900 1.524000
19.949500 1.503500
19.972200 1.488700
19.994800 1.476800
20.017400 1.467000
20.040000 1.455800
20.062600 1.462300
20.085200 1.479700
20.107800 1.497800
20.130400 1.519700
20.153000 1.550800
20.175600 1.591200
20.198200 1.628000
20.220800 1.668300
20.243400 1.692400
20.266000 1.739000
20.288600 1.799900
20.311200 1.841000
20.333800 1.833200
20.356500 1.826300
20.379100 1.827200
20.401700 1.845200
20.424300 1.859200
20.446900 1.880700
20.469500 1.912600
20.492100 1.969700
20.514700 1.974500
20.537300 1.897000
20.559900 1.838200
20.582500 1.801200
20.605100 1.768900
20.627700 1.733000
20.650300 1.668800
20.672900 1.609600
20.695500 1.563200
20.718200 1.603200
20.740800 1.695100
20.763400 1.769600
20.786000 1.801800
20.808600 1.837900
20.831200 1.844100
20.853800 1.856800
20.876400 1.868700
20.899000 1.891200
20.921600 1.906700
20.944200 1.928900
20.966800 1.945200
20.989400 1.939500
21.012000 1.934800
21.034600 1.927200
21.057200 1.918000
21.079900 1.921500
21.102500 1.899700
21.125100 1.863000
21.147700 1.839900
21.170300 1.808400
21.192900 1.752400
21.215500 1.728700
21.238100 1.711200
21.260700 1.696900
21.283300 1.691200
21.305900 1.673300
21.328500 1.670600
21.351100 1.677900
21.373700 1.730200
21.396300 1.696300
21.418900 1.663900
21.441500 1.642500
21.464200 1.628000
21.486800 1.611400
21.509400 1.604700
21.532000 1.549800
21.554600 1.508000
21.577200 1.475700
21.599800 1.454300
21.622400 1.441200
21.645000 1.424700
21.667600 1.405600
21.690200 1.398800
21.712800 1.392000
21.735400 1.382300
21.758000 1.373900
21.780600 1.373300
21.803200 1.376700
21.825900 1.382600
21.848500 1.425200
21.871100 1.441600
21.893700 1.460100
21.916300 1.471100
21.938900 1.486600
21.961500 1.490200
21.984100 1.491700
22.006700 1.508300
22.029300 1.551700
22.051900 1.595200
22.074500 1.612100
22.097100 1.588700
22.119700 1.537300
22.142300 1.485300
22.164900 1.481300
22.187600 1.480700
22.210200 1.478300
22.232800 1.485200
22.255400 1.512100
22.278000 1.545700
22.300600 1.585700
22.323200 1.611000
22.345800 1.657600
22.368400 1.714700
22.391000 1.765200
22.413600 1.807400
22.436200 1.829400
22.458800 1.838400
22.481400 1.886900
22.504000 1.884000
22.526600 1.929000
22.549200 1.993900
22.571900 2.030600
22.594500 2.060100
22.617100 2.058700
22.639700 2.048300
22.662300 2.001500
22.684900 1.969800
22.707500 1.905500
22.730100 1.845800
22.752700 1.789200
22.775300 1.700400
22.797900 1.640400
22.820500 1.619700
22.843100 1.600000
22.865700 1.488100
22.888300 1.415900
22.910900 1.344700
22.933600 1.282400
22.956200 1.241100
22.978800 1.199500
23.001400 1.159000
23.024000 1.123000
23.046600 1.081400
23.069200 1.042100
23.091800 1.022900
23.114400 0.999200
23.137000 0.962800
23.159600 0.897800
23.182200 0.863100
23.204800 0.839100
23.227400 0.818900
23.250000 0.806600
23.272600 0.796800
23.295200 0.795500
23.317900 0.789200
23.340500 0.777400
23.363100 0.764300
23.385700 0.768400
23.408300 0.759900
23.430900 0.740800
23.453500 0.716300
23.476100 0.698300
23.498700 0.684700
23.521300 0.679300
23.543900 0.627400
23.566500 0.573700
23.589100 0.528600
23.611700 0.491500
23.634300 0.466900
23.656900 0.446300
23.679600 0.428500
23.702200 0.412400
23.724800 0.391600
23.747400 0.361500
23.770000 0.338200
23.792600 0.319600
23.815200 0.308700
23.837800 0.296900
23.860400 0.277900
23.883000 0.251800
23.905600 0.228600
23.928200 0.220700
23.950800 0.187000
23.973400 0.151300
23.996000 0.129200
24.018600 0.106200
24.041300 0.083300
24.063900 0.063800
24.086500 0.053400
24.109100 0.044400
24.131700 0.031900
24.154300 0.023300
24.176900 0.010700
24.199500 0.005000
24.222100 0.002800
24.244700 0.001300
24.267300 0.000400
24.289900 0.000000
24.312500 0.000000
24.335100 0.000000
24.357700 0.000000
24.380300 0.000000
24.402900 0.000000
24.425600 0.000000
24.448200 0.000000
24.470800 0.000000
24.493400 0.000000
24.516000 0.000000
24.538600 0.000000
24.561200 0.000000
24.583800 0.000000
24.606400 0.000000
24.629000 0.000000
24.651600 0.000000
24.674200 0.000000
24.696800 0.000000
24.719400 0.000000
24.742000 0.000000
24.764600 0.000000
24.787300 0.000000
24.809900 0.000000
24.832500 0.000000
24.855100 0.000000
24.877700 0.000000
24.900300 0.000000
24.922900 0.000000
24.945500 0.000000
24.968100 0.000000
24.990700 0.000000
25.013300 0.000000
25.035900 0.000000
25.058500 0.000000
25.081100 0.000000
25.103700 0.000000
25.126300 0.000000
25.148900 0.000000
25.171600 0.000000
25.194200 0.000000
25.216800 0.000000
25.239400 0.000000
25.262000 0.000000
25.284600 0.000000
25.307200 0.000000
25.329800 0.000000
25.352400 0.000000
25.375000 0.000000
25.397600 0.000000
25.420200 0.000000
25.442800 0.000000
25.465400 0.000000
25.488000 0.000000
25.510600 0.000000
25.533300 0.000000
25.555900 0.000000
25.578500 0.000000
25.601100 0.000000
25.623700 0.000000
25.646300 0.000000
25.668900 0.000000
25.691500 0.000000
25.714100 0.000000
25.736700 0.000000
25.759300 0.000000
25.781900 0.000000
25.804500 0.000000
25.827100 0.000000
25.849700 0.000000
25.872300 0.000000
25.895000 0.000000
25.917600 0.000000
25.940200 0.000000
25.962800 0.000000
25.985400 0.000000
26.008000 0.000000
26.030600 0.000000
26.053200 0.000000
26.075800 0.000000
26.098400 0.000000
26.121000 0.000000
26.143600 0.000000
26.166200 0.000000
26.188800 0.000000
26.211400 0.000000
26.234000 0.000000
26.256600 0.000000
26.279300 0.000000
26.301900 0.000000
26.324500 0.000000
26.347100 0.000000
e
